# STATUS =
# OBJECT = 2015bn
# TELESCOPE = UH88
# INSTRUMENT = SNIFS
# DATE-OBS = 2015-07-08 00:00:00.00
# MJD = 57211.0
# EXPTIME = 1600
# AIRMASS = --
# SLIT = 0.0
# DISPERSER = --
# SOURCE = 2016ApJ...826...39N
# FILTER =
# RESOLUTION =
# FLUX_STANDARD =
# EXTINCTION_CORRECTED = --
# PHOTOMETRY_CALIBRATED =
# TELLURIC_CORRECTED =
# FLUX_UNITS = Other
# WAVE_UNITS = Angstrom
# QUALITY = High
# MIN_WAVE = 3301.06
# MAX_WAVE = 9701.23
# COMMENT = [Data obtained from:Nicholl, M.] [Prev. spec info - createdby: ilanm-UploadSet; modifiedby: ilanm-UploadSet]
       Wavelength           Flux 
          3303.44    8.49716e-18 
          3305.82  -8.098888e-17 
           3308.2  -3.240263e-16 
         3310.581  -3.742756e-16 
         3312.961  -9.119462e-17 
         3315.341   2.969198e-16 
         3317.721   5.439494e-16 
         3320.101   6.712197e-16 
         3322.481   9.156278e-16 
         3324.861   7.769157e-16 
         3327.241   3.194253e-16 
         3329.622   3.676656e-16 
         3332.002   4.787657e-16 
         3334.382   3.985935e-16 
         3336.762   3.657429e-16 
         3339.142   3.202901e-16 
         3341.522   1.785328e-16 
         3343.902   8.119184e-18 
         3346.282   2.099411e-16 
         3348.663   3.802142e-16 
         3351.043   6.371215e-16 
         3353.423   8.448576e-16 
         3355.803   4.724137e-16 
         3358.183   2.047678e-16 
         3360.563   2.157637e-17 
         3362.943   -8.50007e-17 
         3365.323   2.284759e-18 
         3367.704   -3.02472e-17 
         3370.084   2.775329e-17 
         3372.464   2.162272e-16 
         3374.844   2.485088e-16 
         3377.224   1.107209e-16 
         3379.604  -8.569422e-17 
         3381.984  -1.129033e-16 
         3384.365   1.121282e-16 
         3386.745   2.708649e-16 
         3389.125   2.028597e-16 
         3391.505   4.182125e-17 
         3393.885  -2.003763e-17 
         3396.265  -1.199602e-16 
         3398.646  -9.723843e-17 
         3401.026   2.263955e-16 
         3403.406    3.67493e-16 
         3405.786   2.891542e-16 
         3408.166   3.001887e-16 
         3410.546   5.043842e-16 
         3412.926   4.867574e-16 
         3415.306   2.728473e-16 
         3417.687   3.161247e-16 
         3420.067   4.850771e-16 
         3422.447   4.931974e-16 
         3424.827   3.145403e-16 
         3427.207   1.334108e-16 
         3429.587    7.64685e-17 
         3431.967   6.269199e-17 
         3434.347   1.275649e-16 
         3436.728   3.514241e-16 
         3439.108   3.297072e-16 
         3441.488   2.941933e-16 
         3443.868   1.256066e-16 
         3446.248  -1.121181e-17 
         3448.628   2.156829e-17 
         3451.008    -3.7642e-17 
         3453.388  -1.778095e-17 
         3455.769   1.046434e-16 
         3458.149   1.270126e-16 
         3460.529   1.126072e-16 
         3462.909    6.41235e-17 
         3465.289   1.119596e-16 
         3467.669   1.469419e-16 
         3470.049   6.287842e-17 
         3472.429  -7.443699e-17 
          3474.81   -1.44911e-16 
          3477.19  -7.751159e-17 
          3479.57   4.569852e-17 
          3481.95   2.916983e-16 
          3484.33   3.769759e-16 
          3486.71   2.722633e-16 
          3489.09   3.748126e-17 
          3491.47  -1.235055e-16 
         3493.851   9.405333e-18 
         3496.231   1.400422e-16 
         3498.611   1.809338e-16 
         3500.991   1.864357e-16 
         3503.371   1.357571e-16 
         3505.751   1.309304e-16 
         3508.131    6.69772e-17 
         3510.511   5.189632e-17 
         3512.892   1.839315e-17 
         3515.272    1.99813e-16 
         3517.652   3.421025e-16 
         3520.032   2.332934e-16 
         3522.412   1.808129e-16 
         3524.792   1.932243e-16 
         3527.172   2.337613e-16 
         3529.552   2.495003e-16 
         3531.933   1.977465e-16 
         3534.313   1.960126e-16 
         3536.693   1.811161e-16 
         3539.073   7.090584e-17 
         3541.453   4.351906e-17 
         3543.833   9.535292e-17 
         3546.213   5.022956e-17 
         3548.594   4.224261e-17 
         3550.974   8.366907e-17 
         3553.354   1.845332e-16 
         3555.734   1.855644e-16 
         3558.114   1.592361e-16 
         3560.494     1.9241e-16 
         3562.875   1.702604e-16 
         3565.255   2.269436e-16 
         3567.635   2.699959e-16 
         3570.015    1.74432e-16 
         3572.395   9.444211e-17 
         3574.775   3.395218e-17 
         3577.155   1.046105e-16 
         3579.535   1.952473e-16 
         3581.916   1.703746e-16 
         3584.296   6.951031e-17 
         3586.676   1.194707e-16 
         3589.056   2.436017e-16 
         3591.436   2.269969e-16 
         3593.816   1.562045e-16 
         3596.196   9.560392e-17 
         3598.576   1.550535e-17 
         3600.957  -6.750483e-18 
         3603.337   5.353841e-17 
         3605.717   4.697678e-17 
         3608.097   1.371953e-17 
         3610.477   2.778263e-17 
         3612.857   2.885557e-17 
         3615.237   9.901837e-17 
         3617.617    1.90189e-16 
         3619.998   2.578749e-16 
         3622.378   2.324646e-16 
         3624.758   1.894295e-16 
         3627.138   2.876132e-16 
         3629.518   3.145913e-16 
         3631.898   2.778413e-16 
         3634.278   2.013872e-16 
         3636.658   1.845047e-16 
         3639.039   2.547118e-16 
         3641.419    3.34718e-16 
         3643.799   4.002681e-16 
         3646.179   3.074158e-16 
         3648.559   1.179518e-16 
         3650.939   1.656503e-17 
         3653.319   7.785546e-17 
         3655.699   1.688116e-16 
          3658.08   1.359566e-16 
          3660.46    1.70622e-16 
          3662.84   2.203752e-16 
          3665.22   2.219149e-16 
           3667.6   2.335702e-16 
          3669.98   2.556964e-16 
          3672.36   2.232598e-16 
          3674.74   1.523816e-16 
         3677.121   3.307943e-17 
         3679.501   7.397214e-17 
         3681.881   2.333413e-16 
         3684.261   2.749066e-16 
         3686.641   1.979794e-16 
         3689.021   1.762993e-16 
         3691.401   1.955684e-16 
         3693.781   1.520197e-16 
         3696.162   5.438824e-17 
         3698.542   3.836057e-17 
         3700.922   1.460832e-16 
         3703.302    1.86104e-16 
         3705.682   1.494428e-16 
         3708.062   2.020105e-16 
         3710.442   3.205993e-16 
         3712.823   3.330189e-16 
         3715.203   2.188047e-16 
         3717.583   1.822653e-16 
         3719.963   2.416749e-16 
         3722.343   2.618762e-16 
         3724.723   2.123211e-16 
         3727.103   1.389024e-16 
         3729.483   1.487176e-16 
         3731.864   2.384045e-16 
         3734.244   2.411083e-16 
         3736.624      1.846e-16 
         3739.004    1.19591e-16 
         3741.384   1.205678e-16 
         3743.764   1.807934e-16 
         3746.145   1.973113e-16 
         3748.525   1.577992e-16 
         3750.905   1.431172e-16 
         3753.285   1.415176e-16 
         3755.665   1.422936e-16 
         3758.045   2.167385e-16 
         3760.425   2.323001e-16 
         3762.805   1.290094e-16 
         3765.186   1.043627e-16 
         3767.566   2.043869e-16 
         3769.946   2.733271e-16 
         3772.326   2.810438e-16 
         3774.706   2.366234e-16 
         3777.086   1.750206e-16 
         3779.466   2.156583e-16 
         3781.846   3.356111e-16 
         3784.227   2.923478e-16 
         3786.607   1.828513e-16 
         3788.987   1.987861e-16 
         3791.367   2.031299e-16 
         3793.747   1.959156e-16 
         3796.127   2.188686e-16 
         3798.507   2.016078e-16 
         3800.887   1.195216e-16 
         3803.268   8.075489e-17 
         3805.648   1.418148e-16 
         3808.028   1.979216e-16 
         3810.408    2.06973e-16 
         3812.788   1.573621e-16 
         3815.168   1.228779e-16 
         3817.548   1.793584e-16 
         3819.928   2.026102e-16 
         3822.309   1.923498e-16 
         3824.689   1.860531e-16 
         3827.069   1.556916e-16 
         3829.449   1.401172e-16 
         3831.829    1.86324e-16 
         3834.209   2.646019e-16 
         3836.589   2.507882e-16 
         3838.969   2.173796e-16 
          3841.35   2.341677e-16 
          3843.73   2.731682e-16 
          3846.11   2.592951e-16 
          3848.49   2.020724e-16 
          3850.87   1.624145e-16 
          3853.25   1.670264e-16 
          3855.63   2.359552e-16 
          3858.01   2.774543e-16 
         3860.391   2.661138e-16 
         3862.771   2.204625e-16 
         3865.151   2.118625e-16 
         3867.531   2.360627e-16 
         3869.911   2.452633e-16 
         3872.291   2.123372e-16 
         3874.671   1.629708e-16 
         3877.052   2.004054e-16 
         3879.432   2.930328e-16 
         3881.812   3.658832e-16 
         3884.192   3.892665e-16 
         3886.572   2.966797e-16 
         3888.952   2.274357e-16 
         3891.332   2.399837e-16 
         3893.712   2.718895e-16 
         3896.093   2.291369e-16 
         3898.473   1.780145e-16 
         3900.853   1.927086e-16 
         3903.233   1.895108e-16 
         3905.613   2.375277e-16 
         3907.993   3.210702e-16 
         3910.374   3.063873e-16 
         3912.754   2.580517e-16 
         3915.134   2.943516e-16 
         3917.514   3.403848e-16 
         3919.894   3.369245e-16 
         3922.274   3.201158e-16 
         3924.654   2.577404e-16 
         3927.034   2.289832e-16 
         3929.415   2.170724e-16 
         3931.795   1.741089e-16 
         3934.175   1.640831e-16 
         3936.555   2.117823e-16 
         3938.935   2.228568e-16 
         3941.315   2.064375e-16 
         3943.695   2.027247e-16 
         3946.075   2.302033e-16 
         3948.456   2.917993e-16 
         3950.836   3.057134e-16 
         3953.216   2.746553e-16 
         3955.596   2.848312e-16 
         3957.976   2.805442e-16 
         3960.356   2.243016e-16 
         3962.736   2.004176e-16 
         3965.116   2.356131e-16 
         3967.497   2.565208e-16 
         3969.877   2.665298e-16 
         3972.257   2.781334e-16 
         3974.637   2.996861e-16 
         3977.017   3.133815e-16 
         3979.397    3.00429e-16 
         3981.777   2.800169e-16 
         3984.157   2.548135e-16 
         3986.538   2.484453e-16 
         3988.918   2.971019e-16 
         3991.298   3.651703e-16 
         3993.678   3.853553e-16 
         3996.058   3.123592e-16 
         3998.438   3.054381e-16 
         4000.818   2.985163e-16 
         4003.198   2.810352e-16 
         4005.579    3.26349e-16 
         4007.959   3.170719e-16 
         4010.339   2.536972e-16 
         4012.719   2.060701e-16 
         4015.099   2.217764e-16 
         4017.479   2.654877e-16 
         4019.859   3.124241e-16 
          4022.24   2.625617e-16 
          4024.62    1.52357e-16 
           4027.0   1.704759e-16 
          4029.38   2.110202e-16 
          4031.76   1.978207e-16 
          4034.14   1.681125e-16 
          4036.52   1.742326e-16 
           4038.9   2.294751e-16 
         4041.281   2.128126e-16 
         4043.661   1.836303e-16 
         4046.041   6.756286e-17 
         4048.421  -3.825476e-17 
         4050.801   7.973748e-17 
         4053.181    7.96936e-17 
         4055.561   9.363872e-17 
         4057.941   9.795947e-17 
         4060.322     1.4686e-16 
         4062.702   1.872892e-16 
         4065.082   1.760943e-16 
         4067.462   6.723086e-17 
         4069.842   1.039338e-16 
         4072.222   1.152547e-16 
         4074.602   1.168262e-16 
         4076.982    1.72514e-16 
         4079.363   2.086649e-16 
         4081.743   1.459788e-16 
         4084.123   1.015989e-16 
         4086.503   1.554504e-16 
         4088.883   2.410251e-16 
         4091.263   2.000556e-16 
         4093.644   1.839928e-16 
         4096.023   2.068153e-16 
         4098.404   1.892837e-16 
         4100.784    2.37422e-16 
         4103.164   3.464697e-16 
         4105.544   3.241797e-16 
         4107.924   3.164866e-16 
         4110.304   2.924349e-16 
         4112.685   2.754449e-16 
         4115.064   3.028393e-16 
         4117.445   3.406069e-16 
         4119.825   2.738071e-16 
         4122.205   2.772521e-16 
         4124.585   3.390926e-16 
         4126.965   2.889856e-16 
         4129.345   2.551883e-16 
         4131.726   2.605689e-16 
         4134.105   1.965478e-16 
         4136.486   1.784602e-16 
         4138.866   2.167951e-16 
         4141.246   2.296662e-16 
         4143.626   2.252671e-16 
         4146.006   1.828119e-16 
         4148.386   1.958398e-16 
         4150.767   2.100277e-16 
         4153.146   2.474954e-16 
         4155.527   2.418805e-16 
         4157.907   1.352286e-16 
         4160.287   1.375843e-16 
         4162.667   2.323599e-16 
         4165.047   2.307701e-16 
         4167.428   2.926577e-16 
         4169.808   2.933506e-16 
         4172.188   2.177442e-16 
         4174.568   1.991875e-16 
         4176.948   2.634313e-16 
         4179.328   3.286999e-16 
         4181.708   3.127813e-16 
         4184.088   2.993177e-16 
         4186.469   2.757998e-16 
         4188.849   2.390451e-16 
         4191.229   2.503709e-16 
         4193.609   2.706206e-16 
         4195.989    2.83971e-16 
         4198.369   2.885272e-16 
          4200.75   2.777664e-16 
         4203.129   2.739583e-16 
          4205.51   2.170618e-16 
          4207.89   1.614844e-16 
          4210.27   2.523398e-16 
          4212.65    2.99238e-16 
          4215.03   2.621683e-16 
          4217.41   1.920587e-16 
         4219.791   2.087416e-16 
          4222.17   2.426012e-16 
         4224.551   2.259365e-16 
         4226.931   2.590736e-16 
         4229.311   2.504582e-16 
         4231.691   2.175924e-16 
         4234.071   1.829165e-16 
         4236.451   2.851012e-16 
         4238.832   2.937882e-16 
         4241.211   2.196597e-16 
         4243.592   1.949273e-16 
         4245.972   2.586389e-16 
         4248.352   2.823671e-16 
         4250.732   2.944593e-16 
         4253.112   2.782815e-16 
         4255.492   3.290068e-16 
         4257.873   3.030243e-16 
         4260.252   2.391348e-16 
         4262.633   2.441186e-16 
         4265.013   2.578263e-16 
         4267.393    2.93348e-16 
         4269.773   2.627357e-16 
         4272.153   2.489499e-16 
         4274.533   3.055704e-16 
         4276.914   3.250219e-16 
         4279.293   2.725644e-16 
         4281.674   2.148579e-16 
         4284.054    2.43009e-16 
         4286.434   2.245752e-16 
         4288.814    2.23854e-16 
         4291.194   2.757312e-16 
         4293.574   2.988212e-16 
         4295.955   2.887742e-16 
         4298.334   2.742503e-16 
         4300.715   2.188379e-16 
         4303.095   1.916433e-16 
         4305.475   2.130491e-16 
         4307.855   2.466036e-16 
         4310.235   2.803102e-16 
         4312.615   2.967405e-16 
         4314.996    3.18527e-16 
         4317.375   3.040212e-16 
         4319.756   2.879431e-16 
         4322.136   2.962294e-16 
         4324.516   2.550995e-16 
         4326.896   2.181277e-16 
         4329.276   1.964985e-16 
         4331.656   1.919984e-16 
         4334.037   2.204034e-16 
         4336.417   2.646807e-16 
         4338.797   2.708407e-16 
         4341.177   2.516938e-16 
         4343.557   2.184236e-16 
         4345.937   1.788639e-16 
         4348.317   2.138581e-16 
         4350.698   2.663951e-16 
         4353.078   2.878645e-16 
         4355.458   2.447927e-16 
         4357.838    1.74222e-16 
         4360.218   2.319063e-16 
         4362.598   2.737655e-16 
         4364.979   2.982897e-16 
         4367.358   2.899379e-16 
         4369.739   2.275798e-16 
         4372.119   2.012817e-16 
         4374.499    2.40226e-16 
         4376.879   2.165415e-16 
         4379.259   2.559113e-16 
         4381.639   2.882904e-16 
          4384.02   3.050504e-16 
         4386.399   3.558863e-16 
          4388.78   3.433318e-16 
          4391.16   2.973266e-16 
          4393.54   2.587707e-16 
          4395.92   2.884945e-16 
           4398.3   3.253268e-16 
          4400.68   2.858339e-16 
         4403.061   2.520837e-16 
          4405.44   3.281813e-16 
         4407.821   3.361972e-16 
         4410.201    2.68757e-16 
         4412.581   2.529271e-16 
         4414.961   2.370343e-16 
         4417.341   2.412436e-16 
         4419.721   2.563421e-16 
         4422.102   2.554549e-16 
         4424.481   2.610495e-16 
         4426.862   2.479704e-16 
         4429.242    2.69033e-16 
         4431.622   2.849054e-16 
         4434.002   2.607155e-16 
         4436.382   2.654106e-16 
         4438.762    2.65854e-16 
         4441.143    2.97853e-16 
         4443.522   3.516276e-16 
         4445.903   3.360075e-16 
         4448.283   3.280772e-16 
         4450.663   3.191435e-16 
         4453.043   2.964847e-16 
         4455.423   2.644724e-16 
         4457.803   3.046264e-16 
         4460.184   2.799622e-16 
         4462.563   2.479592e-16 
         4464.944   2.550693e-16 
         4467.324   2.790915e-16 
         4469.704    2.82909e-16 
         4472.084   2.974671e-16 
         4474.464   3.327698e-16 
         4476.844   2.789053e-16 
         4479.225    2.61635e-16 
         4481.604   2.865176e-16 
         4483.985   2.933495e-16 
         4486.365   2.473836e-16 
         4488.745   2.180682e-16 
         4491.125   2.641549e-16 
         4493.505   3.093217e-16 
         4495.885   2.606555e-16 
         4498.266   2.347792e-16 
         4500.646   2.437628e-16 
         4503.026   2.201727e-16 
         4505.406   1.920322e-16 
         4507.786   2.044623e-16 
         4510.166   1.388752e-16 
         4512.546   1.209806e-16 
         4514.927   1.932352e-16 
         4517.307   2.351476e-16 
         4519.687   1.966366e-16 
         4522.067   2.130389e-16 
         4524.447   2.695598e-16 
         4526.827   3.321315e-16 
         4529.208   2.778019e-16 
         4531.587   2.506022e-16 
         4533.968   2.499723e-16 
         4536.348   2.319269e-16 
         4538.728   2.750802e-16 
         4541.108   2.678221e-16 
         4543.488   2.118466e-16 
         4545.868   1.592262e-16 
         4548.249   1.942345e-16 
         4550.628   2.294876e-16 
         4553.009   1.990747e-16 
         4555.389   1.875711e-16 
         4557.769   2.056411e-16 
         4560.149   2.600604e-16 
         4562.529   2.810443e-16 
         4564.909   2.452521e-16 
          4567.29   2.404405e-16 
         4569.669    2.50209e-16 
          4572.05    2.51242e-16 
          4574.43   2.071281e-16 
          4576.81   1.820527e-16 
          4579.19   2.708317e-16 
          4581.57   3.112887e-16 
          4583.95   3.070152e-16 
         4586.331   2.093438e-16 
          4588.71   2.056713e-16 
         4591.091   2.665815e-16 
         4593.471   2.713047e-16 
         4595.851   2.773743e-16 
         4598.231   2.397722e-16 
         4600.611   1.853836e-16 
         4602.991   1.699274e-16 
         4605.372   1.730214e-16 
         4607.751    2.35668e-16 
         4610.132   2.161202e-16 
         4612.512   1.583023e-16 
         4614.892   1.791747e-16 
         4617.272   2.260514e-16 
         4619.652   2.632941e-16 
         4622.032   2.197178e-16 
         4624.413   2.214552e-16 
         4626.792    2.56374e-16 
         4629.173   1.791691e-16 
         4631.553   1.839344e-16 
         4633.933   2.404526e-16 
         4636.313   2.704613e-16 
         4638.693   2.353409e-16 
         4641.073   2.292007e-16 
         4643.454   1.800758e-16 
         4645.833   1.731584e-16 
         4648.214   1.825168e-16 
         4650.594   1.665292e-16 
         4652.974   1.546149e-16 
         4655.354   1.600681e-16 
         4657.734   2.005603e-16 
         4660.114   1.824231e-16 
         4662.495   2.173529e-16 
         4664.875   2.417937e-16 
         4667.255   2.140031e-16 
         4669.635   1.743359e-16 
         4672.015   1.799193e-16 
         4674.395   1.566753e-16 
         4676.775   2.151527e-16 
         4679.155   2.490617e-16 
         4681.536   2.236949e-16 
         4683.916   1.770754e-16 
         4686.296   1.316121e-16 
         4688.676   1.238735e-16 
         4691.056   1.594233e-16 
         4693.437   2.159379e-16 
         4695.816   1.886951e-16 
         4698.197   1.356921e-16 
         4700.577   1.655686e-16 
         4702.957   1.688427e-16 
         4705.337   1.162195e-16 
         4707.717   1.577076e-16 
         4710.097   1.524391e-16 
         4712.478   1.779001e-16 
         4714.857    2.30059e-16 
         4717.238   2.336402e-16 
         4719.618   2.451071e-16 
         4721.998   2.232247e-16 
         4724.378   2.211025e-16 
         4726.758   1.828727e-16 
         4729.138   1.988349e-16 
         4731.519   2.791199e-16 
         4733.898   2.568233e-16 
         4736.279   2.167894e-16 
         4738.659   1.543424e-16 
         4741.039   1.787888e-16 
         4743.419   2.329024e-16 
         4745.799   1.824572e-16 
         4748.179   1.400418e-16 
          4750.56   1.172527e-16 
         4752.939   1.345677e-16 
          4755.32   1.685905e-16 
           4757.7   1.518422e-16 
          4760.08   1.766174e-16 
          4762.46   1.765155e-16 
          4764.84   1.397412e-16 
          4767.22   1.962229e-16 
         4769.601     1.8665e-16 
          4771.98   2.069937e-16 
         4774.361   2.674477e-16 
         4776.741   2.669379e-16 
         4779.121   2.585621e-16 
         4781.501   2.613876e-16 
         4783.881   2.544563e-16 
         4786.261   2.602849e-16 
         4788.642   2.563543e-16 
         4791.021   2.165259e-16 
         4793.402   2.072991e-16 
         4795.782   2.165342e-16 
         4798.162     2.1888e-16 
         4800.542   2.274598e-16 
         4802.922   2.318879e-16 
         4805.302   2.173296e-16 
         4807.683   2.536953e-16 
         4810.062   2.566472e-16 
         4812.443   2.091097e-16 
         4814.823   1.475551e-16 
         4817.203    1.73661e-16 
         4819.583   2.205092e-16 
         4821.963   2.097929e-16 
         4824.343    2.19411e-16 
         4826.724   2.218413e-16 
         4829.104   2.522188e-16 
         4831.484   2.673249e-16 
         4833.864   2.023632e-16 
         4836.244   1.809158e-16 
         4838.624   1.990765e-16 
         4841.004   2.108161e-16 
         4843.384    2.35922e-16 
         4845.765   2.719608e-16 
         4848.145   2.446358e-16 
         4850.525    1.80849e-16 
         4852.905   1.905493e-16 
         4855.285   1.822187e-16 
         4857.665   1.771304e-16 
         4860.045     1.3219e-16 
         4862.426   1.362496e-16 
         4864.806   1.915316e-16 
         4867.186   2.096544e-16 
         4869.566   2.290382e-16 
         4871.946   3.065738e-16 
         4874.326   2.869889e-16 
         4876.707   2.147866e-16 
         4879.086   1.896305e-16 
         4881.467   2.218159e-16 
         4883.847   1.995138e-16 
         4886.227   1.651874e-16 
         4888.607    2.00709e-16 
         4890.987   2.367866e-16 
         4893.367    2.06542e-16 
         4895.748   1.909812e-16 
         4898.127   2.287055e-16 
         4900.508   2.013139e-16 
         4902.888   1.605227e-16 
         4905.268   1.454306e-16 
         4907.648   1.128914e-16 
         4910.028   1.780354e-16 
         4912.408   1.961903e-16 
         4914.789   2.073094e-16 
         4917.168   2.054488e-16 
         4919.549   2.285936e-16 
         4921.929   2.290514e-16 
         4924.309   2.070289e-16 
         4926.689   1.831844e-16 
         4929.069   1.795618e-16 
         4931.449   1.490228e-16 
          4933.83   1.109429e-16 
         4936.209   1.538322e-16 
          4938.59   2.014281e-16 
          4940.97   2.254819e-16 
          4943.35   1.842513e-16 
          4945.73    1.31807e-16 
          4948.11   2.238672e-16 
          4950.49   2.893075e-16 
         4952.871   2.074676e-16 
          4955.25   1.727032e-16 
         4957.631   1.777589e-16 
         4960.011   2.056125e-16 
         4962.391    2.83163e-16 
         4964.771   2.548798e-16 
         4967.151   2.792798e-16 
         4969.531   2.782197e-16 
         4971.912   2.583781e-16 
         4974.292   2.159508e-16 
         4976.672    1.68116e-16 
         4979.052    2.04471e-16 
         4981.432   1.886047e-16 
         4983.812   1.825105e-16 
         4986.192   1.547177e-16 
         4988.572    1.73832e-16 
         4990.953   2.451775e-16 
         4993.333   2.918395e-16 
         4995.713   2.830515e-16 
         4998.093   2.237159e-16 
         5000.473   2.382589e-16 
         5002.853   2.760033e-16 
         5005.233   2.077638e-16 
         5007.613   2.007975e-16 
         5009.994   2.528115e-16 
         5012.374   2.982898e-16 
         5014.754   2.871015e-16 
         5017.134   2.813437e-16 
         5019.514   2.745197e-16 
         5021.894   2.697546e-16 
         5024.274   2.659677e-16 
         5026.654   2.454761e-16 
         5029.035   2.394935e-16 
         5031.415    2.58879e-16 
         5033.795   1.893247e-16 
         5036.175   2.208814e-16 
         5038.555   2.033374e-16 
         5040.936   2.476397e-16 
         5043.315   2.848434e-16 
         5045.696   3.132393e-16 
         5048.076   3.335392e-16 
         5050.456   3.163318e-16 
         5052.836   2.505955e-16 
         5055.216   2.988702e-16 
         5057.596   2.837208e-16 
         5059.977    2.33866e-16 
         5062.356   2.544788e-16 
         5064.737   2.478295e-16 
         5067.117   2.056673e-16 
         5069.497   2.248053e-16 
         5071.877   2.634337e-16 
         5074.257   2.658771e-16 
         5076.637   2.863666e-16 
         5079.018   3.127153e-16 
         5081.397   2.486545e-16 
         5083.778   2.131312e-16 
         5086.158   2.698962e-16 
         5088.538   3.038494e-16 
         5090.918   2.732957e-16 
         5093.298   2.277912e-16 
         5095.678   1.851725e-16 
         5098.059   1.820601e-16 
         5100.438   2.639805e-16 
         5102.819   2.734528e-16 
         5105.199   2.815705e-16 
         5107.579   2.599793e-16 
         5109.959   2.384421e-16 
         5112.339     3.1095e-16 
         5114.719   3.116473e-16 
           5117.1   2.859139e-16 
         5119.479   3.012259e-16 
          5121.86   3.053509e-16 
          5124.24   2.851836e-16 
          5126.62   2.583721e-16 
           5129.0   2.468823e-16 
          5131.38   2.877203e-16 
          5133.76   2.709264e-16 
         5136.141   2.331351e-16 
         5138.521   1.559706e-16 
         5140.901   1.687604e-16 
         5143.281   1.996001e-16 
         5145.661    2.64581e-16 
         5148.041   2.572548e-16 
         5150.421   2.125063e-16 
         5152.801   3.263217e-16 
         5155.182   2.304289e-16 
         5157.562   2.216985e-16 
         5159.942   3.601476e-16 
         5162.322   3.420441e-16 
         5164.702   2.165328e-16 
         5167.082   1.636848e-16 
         5169.462   2.257462e-16 
         5171.842   2.880978e-16 
         5174.223   2.967366e-16 
         5176.603   3.278165e-16 
         5178.983   3.572799e-16 
         5181.363   2.959487e-16 
         5183.743    2.33364e-16 
         5186.123   2.749601e-16 
         5188.503   2.058424e-16 
         5190.883   2.031811e-16 
         5193.264   2.244129e-16 
         5195.644   2.519541e-16 
         5198.024   3.285906e-16 
         5200.404   3.411297e-16 
         5202.784   2.339494e-16 
         5205.165   1.767799e-16 
         5207.544   2.099451e-16 
         5209.925    2.23005e-16 
         5212.305   1.736902e-16 
         5214.685    1.96176e-16 
         5217.065   2.390106e-16 
         5219.445   1.801522e-16 
         5221.825   1.156632e-16 
         5224.206   1.958185e-16 
         5226.585   2.133982e-16 
         5228.966   1.818372e-16 
         5231.346   2.204307e-16 
         5233.726   2.842199e-16 
         5236.106   2.828476e-16 
         5238.486   2.646409e-16 
         5240.866   2.220147e-16 
         5243.247   2.095967e-16 
         5245.626   2.172297e-16 
         5248.007   2.231785e-16 
         5250.387   2.392855e-16 
         5252.767   2.143849e-16 
         5255.147   2.169437e-16 
         5257.527   1.884432e-16 
         5259.907   1.143721e-16 
         5262.288   1.094149e-16 
         5264.667   1.557514e-16 
         5267.048   1.707237e-16 
         5269.428   2.053866e-16 
         5271.808    2.36356e-16 
         5274.188   1.795513e-16 
         5276.568   1.104354e-16 
         5278.948   1.065952e-16 
         5281.329   1.691789e-16 
         5283.708   2.269311e-16 
         5286.089   2.390663e-16 
         5288.469   2.253256e-16 
         5290.849   1.745937e-16 
         5293.229   1.518196e-16 
         5295.609   1.634423e-16 
         5297.989    1.80736e-16 
          5300.37   1.740047e-16 
          5302.75   1.213002e-16 
          5305.13   1.700751e-16 
          5307.51   1.920008e-16 
          5309.89   1.400746e-16 
          5312.27   1.329363e-16 
          5314.65   1.715489e-16 
          5317.03   1.927117e-16 
         5319.411   1.602217e-16 
         5321.791   1.254449e-16 
         5324.171   1.315793e-16 
         5326.551   1.468545e-16 
         5328.931   1.532359e-16 
         5331.311    2.25097e-16 
         5333.691    2.56462e-16 
         5336.071   2.029159e-16 
         5338.452   1.634163e-16 
         5340.832    1.51531e-16 
         5343.212   1.305031e-16 
         5345.592   1.318071e-16 
         5347.972   1.771312e-16 
         5350.352   2.233929e-16 
         5352.732   2.280971e-16 
         5355.112   2.249828e-16 
         5357.493   2.320086e-16 
         5359.873   2.309346e-16 
         5362.253   2.266856e-16 
         5364.633   2.253649e-16 
         5367.013   1.518193e-16 
         5369.393   1.162757e-16 
         5371.773   1.403312e-16 
         5374.153   1.596645e-16 
         5376.534   1.517149e-16 
         5378.914   1.763967e-16 
         5381.294   1.828082e-16 
         5383.674   1.610028e-16 
         5386.054   1.608754e-16 
         5388.435    1.95918e-16 
         5390.814    2.06052e-16 
         5393.195   1.859845e-16 
         5395.575   1.497716e-16 
         5397.955   1.431397e-16 
         5400.335   1.766802e-16 
         5402.715   2.020722e-16 
         5405.095   2.068124e-16 
         5407.476   2.048977e-16 
         5409.855   1.926778e-16 
         5412.236   1.788992e-16 
         5414.616   1.707298e-16 
         5416.996   1.356287e-16 
         5419.376   1.460385e-16 
         5421.756   1.757294e-16 
         5424.136   2.031341e-16 
         5426.517   2.231898e-16 
         5428.896   1.955783e-16 
         5431.277   2.113374e-16 
         5433.657   2.256584e-16 
         5436.037    2.03735e-16 
         5438.417   1.856994e-16 
         5440.797   1.957653e-16 
         5443.177   1.880773e-16 
         5445.558   1.873262e-16 
         5447.937   2.002822e-16 
         5450.318   2.060047e-16 
         5452.698   2.084901e-16 
         5455.078   2.413223e-16 
         5457.458   2.490909e-16 
         5459.838   2.403117e-16 
         5462.218   2.274745e-16 
         5464.599   2.110227e-16 
         5466.979   2.150061e-16 
         5469.359   2.034491e-16 
         5471.739   1.899396e-16 
         5474.119   1.815133e-16 
         5476.499   1.880341e-16 
         5478.879   2.219125e-16 
         5481.259   2.285973e-16 
          5483.64    2.06209e-16 
          5486.02   2.243681e-16 
           5488.4   2.555003e-16 
          5490.78     2.1724e-16 
          5493.16   1.992939e-16 
          5495.54   2.031503e-16 
          5497.92   1.900007e-16 
           5500.3   1.776544e-16 
         5502.681   1.935592e-16 
         5505.061   1.949682e-16 
         5507.441   1.881472e-16 
         5509.821   1.921034e-16 
         5512.201   2.004179e-16 
         5514.581   1.866414e-16 
         5516.961   1.563304e-16 
         5519.341   1.815547e-16 
         5521.722   1.924643e-16 
         5524.102   2.085003e-16 
         5526.482   2.371244e-16 
         5528.862   2.196513e-16 
         5531.242   2.083371e-16 
         5533.622    2.22132e-16 
         5536.002    2.16113e-16 
         5538.382   1.980256e-16 
         5540.763   2.011985e-16 
         5543.143   1.926557e-16 
         5545.523   2.038566e-16 
         5547.903    2.11163e-16 
         5550.283   2.075743e-16 
         5552.664    1.99405e-16 
         5555.043   1.827748e-16 
         5557.424   1.951341e-16 
         5559.804   1.882397e-16 
         5562.184    1.64447e-16 
         5564.564   1.500178e-16 
         5566.944   1.426726e-16 
         5569.324   1.521788e-16 
         5571.705   1.722083e-16 
         5574.084   2.082575e-16 
         5576.465   1.915022e-16 
         5578.845   2.027381e-16 
         5581.225   2.050024e-16 
         5583.605   1.464819e-16 
         5585.985   1.697477e-16 
         5588.365    2.36522e-16 
         5590.746   2.547155e-16 
         5593.125   2.438054e-16 
         5595.506   2.190201e-16 
         5597.886    2.00704e-16 
         5600.266   2.008482e-16 
         5602.646   2.173118e-16 
         5605.026   2.375018e-16 
         5607.406   2.373805e-16 
         5609.787   1.977864e-16 
         5612.167   1.688141e-16 
         5614.547   1.690958e-16 
         5616.927   1.722907e-16 
         5619.307   1.848584e-16 
         5621.687   1.917603e-16 
         5624.067   1.857578e-16 
         5626.447    1.91467e-16 
         5628.828   2.046231e-16 
         5631.208   1.797706e-16 
         5633.588   1.630702e-16 
         5635.968   1.819682e-16 
         5638.348   2.023154e-16 
         5640.728   1.914252e-16 
         5643.108   1.601686e-16 
         5645.488   1.324393e-16 
         5647.869   1.397978e-16 
         5650.249   1.511184e-16 
         5652.629    1.62998e-16 
         5655.009   1.907587e-16 
         5657.389    1.91447e-16 
         5659.769    1.94685e-16 
         5662.149   1.731597e-16 
         5664.529   1.509549e-16 
          5666.91   1.661977e-16 
          5669.29   1.797459e-16 
          5671.67   1.740508e-16 
          5674.05   1.660215e-16 
          5676.43   1.636016e-16 
          5678.81   1.642951e-16 
          5681.19   1.660222e-16 
          5683.57    1.59301e-16 
         5685.951   1.707934e-16 
         5688.331   1.795695e-16 
         5690.711   1.755222e-16 
         5693.091    1.76031e-16 
         5695.471   1.751077e-16 
         5697.851   1.810925e-16 
         5700.231   1.769628e-16 
         5702.611   1.584077e-16 
         5704.992   1.541604e-16 
         5707.372    1.80768e-16 
         5709.752    1.90446e-16 
         5712.132   2.009208e-16 
         5714.512   1.977442e-16 
         5716.892   1.815565e-16 
         5719.272   1.911748e-16 
         5721.652   2.021565e-16 
         5724.033   1.954186e-16 
         5726.413   1.736658e-16 
         5728.793   1.693382e-16 
         5731.173   1.962127e-16 
         5733.553   2.118709e-16 
         5735.934   2.140088e-16 
         5738.313   2.048747e-16 
         5740.694   1.877944e-16 
         5743.074   1.771571e-16 
         5745.454    1.78037e-16 
         5747.834   1.690553e-16 
         5750.214   1.694591e-16 
         5752.594   1.761766e-16 
         5754.975   1.787732e-16 
         5757.354   1.845286e-16 
         5759.735    1.88153e-16 
         5762.115   1.918774e-16 
         5764.495   1.913039e-16 
         5766.875   1.996103e-16 
         5769.255   2.174326e-16 
         5771.635   2.038241e-16 
         5774.016   1.899089e-16 
         5776.396    1.71001e-16 
         5778.776   1.721513e-16 
         5781.156    1.98986e-16 
         5783.536   1.998213e-16 
         5785.916   2.045895e-16 
         5788.296   2.051338e-16 
         5790.676   2.050391e-16 
         5793.057   2.034014e-16 
         5795.437   1.931339e-16 
         5797.817     2.0301e-16 
         5800.197   2.025016e-16 
         5802.577   2.011432e-16 
         5804.957   2.097805e-16 
         5807.337   2.151652e-16 
         5809.717   2.133012e-16 
         5812.098   2.005622e-16 
         5814.478   2.171236e-16 
         5816.858   2.375328e-16 
         5819.238    2.19427e-16 
         5821.618   2.055024e-16 
         5823.998   2.292991e-16 
         5826.378    2.47984e-16 
         5828.758   2.374786e-16 
         5831.139   2.081892e-16 
         5833.519   1.794732e-16 
         5835.899   1.799184e-16 
         5838.279   2.136139e-16 
         5840.659   2.249155e-16 
         5843.039   2.082899e-16 
         5845.419   2.091744e-16 
         5847.799   2.118003e-16 
          5850.18   2.145282e-16 
          5852.56   2.263853e-16 
          5854.94   2.214804e-16 
          5857.32   2.081389e-16 
           5859.7   2.460148e-16 
          5862.08   2.602565e-16 
          5864.46   2.275323e-16 
          5866.84   2.043068e-16 
         5869.221   2.223633e-16 
         5871.601   2.356377e-16 
         5873.981   2.236135e-16 
         5876.361   2.416378e-16 
         5878.741   2.625188e-16 
         5881.121   2.530511e-16 
         5883.501   2.337338e-16 
         5885.881   2.254342e-16 
         5888.262   2.393456e-16 
         5890.642    2.39721e-16 
         5893.022   2.354749e-16 
         5895.402    2.42233e-16 
         5897.782   2.247787e-16 
         5900.163   2.192753e-16 
         5902.542   2.197606e-16 
         5904.923   2.061053e-16 
         5907.303   1.958774e-16 
         5909.683   2.234535e-16 
         5912.063   2.598788e-16 
         5914.443   2.425053e-16 
         5916.823   2.405511e-16 
         5919.204   2.745551e-16 
         5921.583   2.747562e-16 
         5923.964   2.574093e-16 
         5926.344   2.590374e-16 
         5928.724   2.457957e-16 
         5931.104   2.243893e-16 
         5933.484   2.269576e-16 
         5935.864   2.270895e-16 
         5938.245   2.184381e-16 
         5940.625   2.214531e-16 
         5943.005   2.143178e-16 
         5945.385   1.942712e-16 
         5947.765   1.960807e-16 
         5950.145   1.899408e-16 
         5952.525   1.967053e-16 
         5954.905   2.099336e-16 
         5957.286   2.168964e-16 
         5959.666    2.15057e-16 
         5962.046   1.945368e-16 
         5964.426   1.891205e-16 
         5966.806   1.819179e-16 
         5969.186    1.76706e-16 
         5971.566     1.9606e-16 
         5973.946   2.195031e-16 
         5976.327   2.247061e-16 
         5978.707   2.306027e-16 
         5981.087   2.386916e-16 
         5983.467   2.333605e-16 
         5985.847   2.208603e-16 
         5988.227   2.033967e-16 
         5990.607   1.958619e-16 
         5992.987   2.075521e-16 
         5995.368   2.076951e-16 
         5997.748   1.790705e-16 
         6000.128   1.864646e-16 
         6002.508   2.183932e-16 
         6004.888   2.303387e-16 
         6007.268     2.1478e-16 
         6009.648   1.979578e-16 
         6012.028   1.908748e-16 
         6014.409   1.805134e-16 
         6016.789   1.669653e-16 
         6019.169   1.649733e-16 
         6021.549   1.848318e-16 
         6023.929   2.099317e-16 
         6026.309    2.00717e-16 
         6028.689   1.765335e-16 
         6031.069   1.782055e-16 
          6033.45   2.045049e-16 
          6035.83    2.16874e-16 
          6038.21    2.00604e-16 
          6040.59   1.863781e-16 
          6042.97    1.98697e-16 
          6045.35   2.105525e-16 
          6047.73   2.007951e-16 
          6050.11   1.994264e-16 
         6052.491   1.942937e-16 
         6054.871   2.166335e-16 
         6057.251   2.294026e-16 
         6059.631   2.093073e-16 
         6062.011   2.066089e-16 
         6064.391   2.069659e-16 
         6066.771   2.046616e-16 
         6069.152   1.944311e-16 
         6071.532   1.909684e-16 
         6073.912   2.074893e-16 
         6076.292   2.138482e-16 
         6078.672   2.064341e-16 
         6081.052   1.940781e-16 
         6083.433    1.90981e-16 
         6085.812   1.978186e-16 
         6088.193   1.975752e-16 
         6090.573   1.910833e-16 
         6092.953   1.883629e-16 
         6095.333   1.822168e-16 
         6097.713   1.703909e-16 
         6100.093   1.715246e-16 
         6102.474   1.839976e-16 
         6104.854   1.861669e-16 
         6107.234   1.776726e-16 
         6109.614    1.83808e-16 
         6111.994   2.085777e-16 
         6114.374   2.089546e-16 
         6116.754   1.951644e-16 
         6119.134   1.753149e-16 
         6121.515   1.710487e-16 
         6123.895   1.865014e-16 
         6126.275   1.844501e-16 
         6128.655   1.774291e-16 
         6131.035   1.712678e-16 
         6133.415   1.623095e-16 
         6135.795   1.546325e-16 
         6138.175   1.611073e-16 
         6140.556   1.818263e-16 
         6142.936   2.007694e-16 
         6145.316   1.973646e-16 
         6147.696   1.834992e-16 
         6150.076   1.791317e-16 
         6152.456   1.828071e-16 
         6154.836    1.91735e-16 
         6157.216    2.12193e-16 
         6159.597     2.1614e-16 
         6161.977   1.879497e-16 
         6164.357    1.70255e-16 
         6166.737   1.704758e-16 
         6169.117   1.807763e-16 
         6171.497    1.80651e-16 
         6173.877   1.678132e-16 
         6176.257   1.667266e-16 
         6178.638   1.802804e-16 
         6181.018   1.859493e-16 
         6183.398    1.78917e-16 
         6185.778   1.666065e-16 
         6188.158   1.585963e-16 
         6190.538   1.639303e-16 
         6192.918   1.610749e-16 
         6195.298   1.486095e-16 
         6197.679   1.510169e-16 
         6200.059   1.665178e-16 
         6202.439   1.543278e-16 
         6204.819    1.49236e-16 
         6207.199   1.445172e-16 
         6209.579   1.487342e-16 
         6211.959   1.555585e-16 
         6214.339   1.323996e-16 
          6216.72   1.269089e-16 
           6219.1   1.219049e-16 
          6221.48   1.224802e-16 
          6223.86   1.332138e-16 
          6226.24   1.365593e-16 
          6228.62   1.354074e-16 
           6231.0   1.329708e-16 
          6233.38    1.34901e-16 
         6235.761   1.469495e-16 
         6238.141   1.621748e-16 
         6240.521   1.593003e-16 
         6242.901   1.485706e-16 
         6245.281   1.358639e-16 
         6247.662   1.323941e-16 
         6250.042   1.446612e-16 
         6252.422   1.560493e-16 
         6254.802    1.50778e-16 
         6257.182    1.48719e-16 
         6259.562   1.408456e-16 
         6261.942   1.318467e-16 
         6264.322   1.392377e-16 
         6266.703   1.299536e-16 
         6269.083   1.206193e-16 
         6271.463   1.177407e-16 
         6273.843   1.172235e-16 
         6276.223   1.102861e-16 
         6278.603   9.167739e-17 
         6280.983    9.83855e-17 
         6283.363   1.017459e-16 
         6285.744   9.778438e-17 
         6288.124   1.202573e-16 
         6290.504   1.436194e-16 
         6292.884   1.018651e-16 
         6295.264   1.145175e-16 
         6297.644   1.795811e-16 
         6300.024   1.386661e-16 
         6302.404   7.374639e-17 
         6304.785   1.100557e-16 
         6307.165   1.203849e-16 
         6309.545   1.058688e-16 
         6311.925   1.033086e-16 
         6314.305   1.103515e-16 
         6316.685    1.14297e-16 
         6319.065   1.139896e-16 
         6321.445   1.231851e-16 
         6323.826   1.314964e-16 
         6326.206   1.241803e-16 
         6328.586   1.125496e-16 
         6330.966   1.088711e-16 
         6333.346   1.017166e-16 
         6335.726   9.612906e-17 
         6338.106   9.976923e-17 
         6340.486   1.031789e-16 
         6342.867   9.763471e-17 
         6345.247   1.005697e-16 
         6347.627   9.716017e-17 
         6350.007   8.724508e-17 
         6352.387   8.405895e-17 
         6354.767    7.29471e-17 
         6357.147   7.125302e-17 
         6359.527    9.44285e-17 
         6361.908   1.177397e-16 
         6364.288   1.072678e-16 
         6366.668   7.425632e-17 
         6369.048   1.070489e-16 
         6371.428   1.423541e-16 
         6373.808   1.419932e-16 
         6376.188   1.276711e-16 
         6378.568   1.180154e-16 
         6380.949   1.034481e-16 
         6383.329   9.922517e-17 
         6385.709   1.022521e-16 
         6388.089   9.847561e-17 
         6390.469    9.23233e-17 
         6392.849    1.05188e-16 
         6395.229   1.135904e-16 
         6397.609   1.102529e-16 
          6399.99   1.059996e-16 
          6402.37   1.058017e-16 
          6404.75   1.008074e-16 
          6407.13   9.269927e-17 
          6409.51   9.404633e-17 
          6411.89   9.212636e-17 
         6414.271   8.323412e-17 
         6416.651   8.626676e-17 
         6419.031   9.901136e-17 
         6421.411   1.018366e-16 
         6423.791   9.412044e-17 
         6426.171   8.524685e-17 
         6428.551     8.1593e-17 
         6430.932    8.44931e-17 
         6433.312   8.468532e-17 
         6435.692    8.19801e-17 
         6438.072   8.677277e-17 
         6440.452   9.366576e-17 
         6442.832   9.092331e-17 
         6445.212   1.018075e-16 
         6447.592   1.167328e-16 
         6449.973   1.129565e-16 
         6452.353    1.04419e-16 
         6454.733   1.142337e-16 
         6457.113   1.060979e-16 
         6459.493   1.007152e-16 
         6461.873   9.487195e-17 
         6464.253   8.618625e-17 
         6466.633   8.863378e-17 
         6469.014   9.973413e-17 
         6471.394    9.22121e-17 
         6473.774   1.006287e-16 
         6476.154   1.142092e-16 
         6478.534   1.056083e-16 
         6480.914   9.625299e-17 
         6483.294   8.929589e-17 
         6485.674   8.150602e-17 
         6488.055   8.273743e-17 
         6490.435   9.033276e-17 
         6492.815    9.47542e-17 
         6495.195   1.137343e-16 
         6497.575   1.093321e-16 
         6499.955    1.02388e-16 
         6502.335    1.00981e-16 
         6504.715   9.430152e-17 
         6507.096   1.087108e-16 
         6509.476   1.204229e-16 
         6511.856   1.088982e-16 
         6514.236   9.244168e-17 
         6516.616   9.219224e-17 
         6518.996   9.866286e-17 
         6521.376   1.024508e-16 
         6523.756   1.090192e-16 
         6526.137   1.130828e-16 
         6528.517   1.147243e-16 
         6530.897   1.192904e-16 
         6533.277   1.069127e-16 
         6535.657   9.435736e-17 
         6538.037   9.604529e-17 
         6540.417   1.067763e-16 
         6542.797   1.127382e-16 
         6545.178   1.130964e-16 
         6547.558   1.095444e-16 
         6549.938   1.139727e-16 
         6552.318   1.195413e-16 
         6554.698   1.164145e-16 
         6557.078   1.124429e-16 
         6559.458    9.73597e-17 
         6561.838   8.768841e-17 
         6564.219    9.67274e-17 
         6566.599   1.092597e-16 
         6568.979   1.062767e-16 
         6571.359   1.075427e-16 
         6573.739   1.128298e-16 
         6576.119   1.168559e-16 
           6578.5    1.13369e-16 
         6580.879   1.073744e-16 
          6583.26   1.164362e-16 
          6585.64   1.239174e-16 
          6588.02   1.185426e-16 
           6590.4   1.117304e-16 
          6592.78   1.147146e-16 
         6595.161   1.197329e-16 
         6597.541   1.253553e-16 
         6599.921   1.290905e-16 
         6602.301   1.221041e-16 
         6604.681   1.086981e-16 
         6607.061    1.01954e-16 
         6609.441   9.995741e-17 
         6611.821   1.017784e-16 
         6614.202   1.058495e-16 
         6616.582   1.151486e-16 
         6618.962   1.239928e-16 
         6621.342   1.146087e-16 
         6623.722   1.087166e-16 
         6626.102   1.097154e-16 
         6628.482   1.045884e-16 
         6630.862   9.367082e-17 
         6633.243   9.584181e-17 
         6635.623   1.004704e-16 
         6638.003   1.111218e-16 
         6640.383   1.152055e-16 
         6642.763   1.113169e-16 
         6645.143   1.146175e-16 
         6647.523   1.142119e-16 
         6649.903   1.111124e-16 
         6652.284   1.204879e-16 
         6654.664   1.340898e-16 
         6657.044   1.319384e-16 
         6659.424   1.225314e-16 
         6661.804   1.182327e-16 
         6664.184    1.17139e-16 
         6666.564   1.177815e-16 
         6668.944   1.195694e-16 
         6671.325   1.151262e-16 
         6673.705   1.043536e-16 
         6676.085   1.020829e-16 
         6678.465   1.077172e-16 
         6680.845   1.123215e-16 
         6683.225   1.154004e-16 
         6685.605   1.209924e-16 
         6687.985   1.123212e-16 
         6690.366   1.009854e-16 
         6692.746   9.884884e-17 
         6695.126   9.991521e-17 
         6697.506    1.03617e-16 
         6699.886   1.064445e-16 
         6702.266   1.032153e-16 
         6704.646   9.846188e-17 
         6707.026   9.863351e-17 
         6709.407   1.002121e-16 
         6711.787   1.026333e-16 
         6714.167   1.117129e-16 
         6716.547   1.158057e-16 
         6718.927   1.099234e-16 
         6721.307   1.025647e-16 
         6723.688   9.650847e-17 
         6726.067   1.026852e-16 
         6728.448    1.03674e-16 
         6730.828   9.861796e-17 
         6733.208   1.035014e-16 
         6735.588   1.052995e-16 
         6737.968   1.048485e-16 
         6740.348   1.081813e-16 
         6742.729   1.129039e-16 
         6745.108   1.112406e-16 
         6747.489   1.049659e-16 
         6749.869    1.14321e-16 
         6752.249   1.179954e-16 
         6754.629   1.120986e-16 
         6757.009   1.090695e-16 
         6759.389   1.085415e-16 
          6761.77   1.075933e-16 
          6764.15   1.148444e-16 
          6766.53   1.244914e-16 
          6768.91   1.296601e-16 
          6771.29   1.285216e-16 
          6773.67   1.207226e-16 
          6776.05   1.217145e-16 
         6778.431   1.218882e-16 
         6780.811   1.173131e-16 
         6783.191    1.14094e-16 
         6785.571   1.124643e-16 
         6787.951    1.18524e-16 
         6790.331   1.194541e-16 
         6792.711   1.123414e-16 
         6795.091   1.054751e-16 
         6797.472   1.055311e-16 
         6799.852   1.157356e-16 
         6802.232   1.210552e-16 
         6804.612   1.208808e-16 
         6806.992   1.231073e-16 
         6809.372   1.290513e-16 
         6811.752   1.330837e-16 
         6814.132   1.335275e-16 
         6816.513   1.275562e-16 
         6818.893   1.225388e-16 
         6821.273   1.258537e-16 
         6823.653   1.315046e-16 
         6826.033   1.374756e-16 
         6828.413   1.365155e-16 
         6830.793   1.343877e-16 
         6833.173   1.298068e-16 
         6835.554   1.174028e-16 
         6837.934   1.242757e-16 
         6840.314   1.280761e-16 
         6842.694   1.138857e-16 
         6845.074   1.029746e-16 
         6847.454    1.15128e-16 
         6849.834   1.284013e-16 
         6852.214   1.375491e-16 
         6854.595   1.408228e-16 
         6856.975   1.394567e-16 
         6859.355   1.372915e-16 
         6861.735   1.334987e-16 
         6864.115   1.305094e-16 
         6866.495   1.177277e-16 
         6868.875   1.167075e-16 
         6871.255   1.316361e-16 
         6873.636   1.288842e-16 
         6876.016   1.173049e-16 
         6878.396   1.157176e-16 
         6880.776   1.239087e-16 
         6883.156   1.277824e-16 
         6885.536   1.283454e-16 
         6887.917   1.140756e-16 
         6890.296   1.112884e-16 
         6892.677   1.182893e-16 
         6895.057    1.22057e-16 
         6897.437    1.19642e-16 
         6899.817   1.202969e-16 
         6902.197    1.20258e-16 
         6904.577   1.193883e-16 
         6906.958     1.2288e-16 
         6909.337   1.254361e-16 
         6911.718   1.162349e-16 
         6914.098   1.079041e-16 
         6916.478   1.055943e-16 
         6918.858   1.183057e-16 
         6921.238   1.369653e-16 
         6923.618   1.386255e-16 
         6925.999   1.244979e-16 
         6928.378   1.114975e-16 
         6930.759   1.102821e-16 
         6933.139   1.111623e-16 
         6935.519    1.08585e-16 
         6937.899   1.158832e-16 
         6940.279   1.224679e-16 
          6942.66   1.225502e-16 
          6945.04   1.189928e-16 
          6947.42   1.164427e-16 
           6949.8   1.208419e-16 
          6952.18   1.262596e-16 
          6954.56   1.292621e-16 
          6956.94   1.237732e-16 
          6959.32   1.116251e-16 
         6961.701   1.053974e-16 
         6964.081   1.105184e-16 
         6966.461   1.095091e-16 
         6968.841   9.779288e-17 
         6971.221   9.296083e-17 
         6973.601   1.069297e-16 
         6975.981   1.231424e-16 
         6978.361   1.263788e-16 
         6980.742   1.219743e-16 
         6983.122   1.168624e-16 
         6985.502   1.162956e-16 
         6987.882   1.214369e-16 
         6990.262    1.19976e-16 
         6992.642   1.179961e-16 
         6995.022   1.184098e-16 
         6997.402   1.192689e-16 
         6999.783   1.222992e-16 
         7002.163   1.285827e-16 
         7004.543   1.266305e-16 
         7006.923   1.138271e-16 
         7009.303   1.094351e-16 
         7011.683   1.240762e-16 
         7014.063   1.350381e-16 
         7016.443    1.40659e-16 
         7018.824   1.368127e-16 
         7021.204   1.285402e-16 
         7023.584   1.194099e-16 
         7025.964   1.118095e-16 
         7028.344   1.269727e-16 
         7030.724   1.378161e-16 
         7033.104   1.364748e-16 
         7035.484   1.330123e-16 
         7037.865   1.322718e-16 
         7040.245   1.348486e-16 
         7042.625   1.391625e-16 
         7045.005   1.412304e-16 
         7047.385   1.421469e-16 
         7049.765   1.432414e-16 
         7052.146   1.399958e-16 
         7054.525   1.342576e-16 
         7056.906   1.308601e-16 
         7059.286   1.301852e-16 
         7061.666   1.329851e-16 
         7064.046   1.400243e-16 
         7066.426   1.395803e-16 
         7068.806   1.394683e-16 
         7071.187    1.44482e-16 
         7073.566   1.493364e-16 
         7075.947   1.500266e-16 
         7078.327   1.491428e-16 
         7080.707   1.494264e-16 
         7083.087   1.499103e-16 
         7085.467   1.526684e-16 
         7087.847   1.599795e-16 
         7090.228   1.678632e-16 
         7092.607   1.643368e-16 
         7094.988   1.538078e-16 
         7097.368   1.466699e-16 
         7099.748   1.462833e-16 
         7102.128   1.462551e-16 
         7104.508   1.422797e-16 
         7106.889   1.427146e-16 
         7109.269   1.454013e-16 
         7111.649   1.467972e-16 
         7114.029   1.509124e-16 
         7116.409   1.567199e-16 
         7118.789    1.58001e-16 
         7121.169    1.53932e-16 
         7123.549   1.491504e-16 
          7125.93   1.509596e-16 
          7128.31   1.603253e-16 
          7130.69   1.634164e-16 
          7133.07   1.655734e-16 
          7135.45    1.66432e-16 
          7137.83    1.60377e-16 
          7140.21   1.477956e-16 
          7142.59   1.314917e-16 
         7144.971   1.293625e-16 
         7147.351   1.452643e-16 
         7149.731   1.556925e-16 
         7152.111   1.458866e-16 
         7154.491   1.453534e-16 
         7156.871   1.483888e-16 
         7159.251   1.429366e-16 
         7161.631   1.378826e-16 
         7164.012   1.450178e-16 
         7166.392   1.465857e-16 
         7168.772   1.407795e-16 
         7171.152   1.332531e-16 
         7173.532   1.301745e-16 
         7175.912   1.329776e-16 
         7178.292   1.364933e-16 
         7180.672   1.373571e-16 
         7183.053   1.306137e-16 
         7185.433   1.221915e-16 
         7187.813   1.176399e-16 
         7190.193   1.164906e-16 
         7192.573    1.19589e-16 
         7194.953   1.221154e-16 
         7197.333   1.284715e-16 
         7199.713   1.358215e-16 
         7202.094   1.389621e-16 
         7204.474    1.44563e-16 
         7206.854   1.440645e-16 
         7209.234   1.390062e-16 
         7211.614    1.31852e-16 
         7213.994   1.275836e-16 
         7216.375   1.305574e-16 
         7218.754   1.271486e-16 
         7221.135   1.308587e-16 
         7223.515   1.356877e-16 
         7225.895   1.339724e-16 
         7228.275   1.334494e-16 
         7230.655   1.352418e-16 
         7233.035    1.32026e-16 
         7235.416   1.259157e-16 
         7237.795    1.17619e-16 
         7240.176   1.128869e-16 
         7242.556   1.285879e-16 
         7244.936   1.387973e-16 
         7247.316   1.326472e-16 
         7249.696   1.219768e-16 
         7252.076   1.143235e-16 
         7254.457   1.070329e-16 
         7256.836   1.182818e-16 
         7259.217   1.242016e-16 
         7261.597   1.260771e-16 
         7263.977   1.274973e-16 
         7266.357    1.20126e-16 
         7268.737   1.233664e-16 
         7271.117    1.32231e-16 
         7273.498   1.302355e-16 
         7275.877   1.201269e-16 
         7278.258    1.20839e-16 
         7280.638   1.346856e-16 
         7283.018   1.358708e-16 
         7285.398   1.286934e-16 
         7287.778   1.230178e-16 
         7290.159   1.209955e-16 
         7292.539   1.225158e-16 
         7294.919   1.225598e-16 
         7297.299   1.239645e-16 
         7299.679   1.222441e-16 
         7302.059   1.181688e-16 
         7304.439   1.154315e-16 
         7306.819   1.084287e-16 
           7309.2   1.171919e-16 
          7311.58   1.274771e-16 
          7313.96   1.268376e-16 
          7316.34   1.223842e-16 
          7318.72   1.201299e-16 
           7321.1   1.213046e-16 
          7323.48   1.220491e-16 
          7325.86   1.234547e-16 
         7328.241   1.258379e-16 
         7330.621   1.230536e-16 
         7333.001   1.219334e-16 
         7335.381   1.289221e-16 
         7337.761   1.261961e-16 
         7340.141    1.12222e-16 
         7342.521   1.147813e-16 
         7344.901    1.28463e-16 
         7347.282   1.279529e-16 
         7349.662   1.156862e-16 
         7352.042   1.046429e-16 
         7354.422   1.021685e-16 
         7356.802   1.101559e-16 
         7359.182   1.124158e-16 
         7361.563   1.108021e-16 
         7363.942   1.133847e-16 
         7366.323    1.20471e-16 
         7368.703   1.224126e-16 
         7371.083   1.082855e-16 
         7373.463   1.050614e-16 
         7375.843   1.114928e-16 
         7378.223   1.088743e-16 
         7380.604   1.005769e-16 
         7382.983   1.025492e-16 
         7385.364   1.208296e-16 
         7387.744   1.309674e-16 
         7390.124   1.197586e-16 
         7392.504   1.026943e-16 
         7394.884   9.512061e-17 
         7397.264    1.03093e-16 
         7399.645   9.868881e-17 
         7402.024   8.714478e-17 
         7404.405   9.158681e-17 
         7406.785   9.976877e-17 
         7409.165   9.050524e-17 
         7411.545   8.389579e-17 
         7413.925   9.090166e-17 
         7416.305   1.021256e-16 
         7418.686   1.048273e-16 
         7421.065   9.479088e-17 
         7423.446   8.164264e-17 
         7425.826   8.592133e-17 
         7428.206   9.451471e-17 
         7430.586   8.480621e-17 
         7432.966   8.168407e-17 
         7435.346   1.009658e-16 
         7437.727    1.18256e-16 
         7440.106   1.185897e-16 
         7442.487   1.102664e-16 
         7444.867   1.036401e-16 
         7447.247    1.06044e-16 
         7449.627    1.01101e-16 
         7452.007   9.433122e-17 
         7454.388   9.596692e-17 
         7456.768   9.674145e-17 
         7459.148   8.832628e-17 
         7461.528   8.518147e-17 
         7463.908   9.402755e-17 
         7466.288   9.942064e-17 
         7468.668   9.507435e-17 
         7471.048   1.036601e-16 
         7473.429   1.106591e-16 
         7475.809   1.026734e-16 
         7478.189   8.868728e-17 
         7480.569   8.710436e-17 
         7482.949   9.184239e-17 
         7485.329   8.578439e-17 
         7487.709   8.178102e-17 
         7490.089   8.445519e-17 
          7492.47    8.89158e-17 
          7494.85   9.291725e-17 
          7497.23   8.925209e-17 
          7499.61   8.302925e-17 
          7501.99   8.192936e-17 
          7504.37   8.791432e-17 
          7506.75   9.548504e-17 
          7509.13   9.914303e-17 
         7511.511   9.762401e-17 
         7513.891   8.802679e-17 
         7516.271   8.683025e-17 
         7518.651   1.010719e-16 
         7521.031   1.099349e-16 
         7523.411   1.115803e-16 
         7525.792   9.679323e-17 
         7528.171   8.863676e-17 
         7530.552    9.56173e-17 
         7532.932   9.622013e-17 
         7535.312   9.252891e-17 
         7537.692   8.677289e-17 
         7540.072   7.906413e-17 
         7542.452   7.613779e-17 
         7544.833   8.016991e-17 
         7547.212   7.824583e-17 
         7549.593   7.485499e-17 
         7551.973   7.663296e-17 
         7554.353     7.9231e-17 
         7556.733   7.416443e-17 
         7559.113   6.590117e-17 
         7561.493   6.495234e-17 
         7563.874   7.237701e-17 
         7566.253   8.248514e-17 
         7568.634   9.002141e-17 
         7571.014   1.033711e-16 
         7573.394   1.073654e-16 
         7575.774    1.06397e-16 
         7578.154   9.540577e-17 
         7580.534   8.285423e-17 
         7582.915   8.272765e-17 
         7585.294   9.005104e-17 
         7587.675    8.84708e-17 
         7590.055   8.379998e-17 
         7592.435   8.574961e-17 
         7594.815   8.590169e-17 
         7597.195   6.887779e-17 
         7599.575   5.372131e-17 
         7601.956   5.278973e-17 
         7604.335   6.100337e-17 
         7606.716   6.647855e-17 
         7609.096   6.745116e-17 
         7611.476   7.539416e-17 
         7613.856   8.784583e-17 
         7616.236   9.444159e-17 
         7618.616   9.237396e-17 
         7620.997   8.929315e-17 
         7623.376   8.627097e-17 
         7625.757   7.782154e-17 
         7628.137   7.884184e-17 
         7630.517   8.383603e-17 
         7632.897   7.806675e-17 
         7635.277   7.301055e-17 
         7637.658   8.029345e-17 
         7640.038   8.547566e-17 
         7642.418   8.416939e-17 
         7644.798   8.173961e-17 
         7647.178   7.949358e-17 
         7649.558   8.025451e-17 
         7651.938   8.123796e-17 
         7654.318   7.302618e-17 
         7656.699   6.845864e-17 
         7659.079   7.551777e-17 
         7661.459   7.834746e-17 
         7663.839   8.914046e-17 
         7666.219   8.934539e-17 
         7668.599   8.116162e-17 
         7670.979   7.990256e-17 
         7673.359   7.652272e-17 
          7675.74   7.909383e-17 
          7678.12   7.639648e-17 
           7680.5   7.608146e-17 
          7682.88   8.270474e-17 
          7685.26   8.226008e-17 
          7687.64   8.399148e-17 
         7690.021   8.530016e-17 
           7692.4   8.440664e-17 
         7694.781   7.889541e-17 
         7697.161   7.220368e-17 
         7699.541    7.43402e-17 
         7701.921   8.342353e-17 
         7704.301   7.720687e-17 
         7706.681   7.273861e-17 
         7709.062   8.924403e-17 
         7711.441   1.115986e-16 
         7713.822   1.108322e-16 
         7716.202   8.803931e-17 
         7718.582   7.574906e-17 
         7720.962   8.197893e-17 
         7723.342    8.31186e-17 
         7725.722   8.264471e-17 
         7728.103   7.943206e-17 
         7730.482    7.66866e-17 
         7732.863   7.439805e-17 
         7735.243   7.140332e-17 
         7737.623   7.431369e-17 
         7740.003   7.577056e-17 
         7742.383   7.435184e-17 
         7744.763   7.881216e-17 
         7747.144   9.231381e-17 
         7749.523   1.023997e-16 
         7751.904   9.998752e-17 
         7754.284   9.950838e-17 
         7756.664   9.258409e-17 
         7759.044   8.547517e-17 
         7761.424   1.030238e-16 
         7763.804   1.090235e-16 
         7766.185   1.134457e-16 
         7768.564   1.202646e-16 
         7770.945   1.209172e-16 
         7773.325   1.085058e-16 
         7775.705   8.285081e-17 
         7778.085   8.135233e-17 
         7780.465   8.227141e-17 
         7782.845   7.615974e-17 
         7785.226   7.875796e-17 
         7787.605   8.701696e-17 
         7789.986   9.488012e-17 
         7792.366   8.856692e-17 
         7794.746   8.388641e-17 
         7797.126    8.56551e-17 
         7799.506   7.326625e-17 
         7801.887   7.312438e-17 
         7804.267   7.409926e-17 
         7806.647   7.544136e-17 
         7809.027    7.49648e-17 
         7811.407   6.692903e-17 
         7813.787   6.724503e-17 
         7816.167   8.500796e-17 
         7818.547   1.019651e-16 
         7820.928   1.126375e-16 
         7823.308   1.117164e-16 
         7825.688   8.758815e-17 
         7828.068   9.277242e-17 
         7830.448   9.201473e-17 
         7832.828   7.941372e-17 
         7835.208    7.68184e-17 
         7837.588   7.927419e-17 
         7839.969   8.378896e-17 
         7842.349    8.04095e-17 
         7844.729   8.197644e-17 
         7847.109   8.897677e-17 
         7849.489   8.690725e-17 
         7851.869   8.052994e-17 
          7854.25   6.869334e-17 
         7856.629   7.316894e-17 
          7859.01   8.782412e-17 
          7861.39   9.016663e-17 
          7863.77   8.881596e-17 
          7866.15   9.828161e-17 
          7868.53   9.972374e-17 
          7870.91   8.765961e-17 
         7873.291   7.428018e-17 
          7875.67   6.739699e-17 
         7878.051   6.908248e-17 
         7880.431   7.350407e-17 
         7882.811   7.724385e-17 
         7885.191   8.618853e-17 
         7887.571   9.722343e-17 
         7889.951   9.800772e-17 
         7892.332   9.927953e-17 
         7894.711   9.660347e-17 
         7897.092   9.105003e-17 
         7899.472   8.739386e-17 
         7901.852   7.907325e-17 
         7904.232   6.932642e-17 
         7906.612    7.37918e-17 
         7908.992   9.091423e-17 
         7911.373   1.036544e-16 
         7913.752   1.060819e-16 
         7916.133   1.110428e-16 
         7918.513   1.153876e-16 
         7920.893   1.242616e-16 
         7923.273   1.249413e-16 
         7925.653   1.052673e-16 
         7928.033   1.016928e-16 
         7930.414   1.100222e-16 
         7932.793   1.130817e-16 
         7935.174   1.035503e-16 
         7937.554   9.437775e-17 
         7939.934   9.913996e-17 
         7942.314   8.830901e-17 
         7944.694   8.676887e-17 
         7947.074   1.034842e-16 
         7949.455   1.158876e-16 
         7951.834   1.129444e-16 
         7954.215   1.027822e-16 
         7956.595   1.040882e-16 
         7958.975   1.118898e-16 
         7961.355   1.180715e-16 
         7963.735   1.256013e-16 
         7966.115     1.2638e-16 
         7968.496   1.166265e-16 
         7970.875   9.803753e-17 
         7973.256   9.666388e-17 
         7975.636   1.213412e-16 
         7978.016   1.310857e-16 
         7980.396   1.253478e-16 
         7982.776   1.382955e-16 
         7985.157   1.537421e-16 
         7987.537   1.439726e-16 
         7989.917   1.319407e-16 
         7992.297   1.318081e-16 
         7994.677   1.369571e-16 
         7997.057   1.208549e-16 
         7999.438    1.07343e-16 
         8001.817   1.291371e-16 
         8004.198   1.302507e-16 
         8006.578   1.297566e-16 
         8008.958   1.367556e-16 
         8011.338   1.432637e-16 
         8013.718   1.430301e-16 
         8016.098   1.413349e-16 
         8018.479   1.475328e-16 
         8020.858   1.516147e-16 
         8023.239   1.582672e-16 
         8025.619   1.727756e-16 
         8027.999   1.768451e-16 
         8030.379   1.584841e-16 
         8032.759   1.597733e-16 
         8035.139   1.709604e-16 
          8037.52   1.601296e-16 
         8039.899   1.402895e-16 
          8042.28   1.521125e-16 
          8044.66   1.553062e-16 
          8047.04   1.365832e-16 
          8049.42   1.346955e-16 
           8051.8   1.613614e-16 
          8054.18   1.650372e-16 
         8056.561   1.558626e-16 
          8058.94    1.61779e-16 
         8061.321   1.608171e-16 
         8063.701   1.464125e-16 
         8066.081     1.5733e-16 
         8068.461   1.634637e-16 
         8070.841    1.72554e-16 
         8073.221   1.746146e-16 
         8075.602   1.726787e-16 
         8077.981   1.804318e-16 
         8080.362   1.679391e-16 
         8082.742   1.644453e-16 
         8085.122   1.709323e-16 
         8087.502   1.759465e-16 
         8089.882    1.75904e-16 
         8092.262   1.664567e-16 
         8094.643   1.539373e-16 
         8097.022   1.398331e-16 
         8099.403   1.417984e-16 
         8101.783   1.590042e-16 
         8104.163   1.585324e-16 
         8106.543   1.457335e-16 
         8108.923   1.390898e-16 
         8111.303     1.4835e-16 
         8113.684   1.642585e-16 
         8116.063   1.691977e-16 
         8118.444   1.588042e-16 
         8120.824    1.60201e-16 
         8123.204   1.549425e-16 
         8125.584   1.475867e-16 
         8127.964   1.554513e-16 
         8130.344   1.555388e-16 
         8132.725   1.388428e-16 
         8135.104   1.260096e-16 
         8137.485   1.283327e-16 
         8139.865   1.356114e-16 
         8142.245   1.381727e-16 
         8144.625   1.444185e-16 
         8147.005    1.34926e-16 
         8149.386   1.142308e-16 
         8151.766   1.078449e-16 
         8154.146   1.204327e-16 
         8156.526   1.261545e-16 
         8158.906   1.252716e-16 
         8161.286   1.227075e-16 
         8163.667   1.234943e-16 
         8166.046   1.320574e-16 
         8168.427   1.458061e-16 
         8170.807   1.519763e-16 
         8173.187   1.524409e-16 
         8175.567   1.481905e-16 
         8177.947   1.396203e-16 
         8180.327   1.370488e-16 
         8182.708   1.440178e-16 
         8185.087    1.43432e-16 
         8187.468   1.406943e-16 
         8189.848   1.395072e-16 
         8192.228   1.353925e-16 
         8194.608    1.47366e-16 
         8196.988   1.460425e-16 
         8199.368   1.462978e-16 
         8201.748   1.502819e-16 
         8204.129   1.420004e-16 
         8206.509   1.460742e-16 
         8208.889   1.721785e-16 
         8211.269   1.614964e-16 
         8213.649   1.221777e-16 
         8216.029   1.062873e-16 
         8218.409   1.124446e-16 
         8220.789   1.200948e-16 
          8223.17   1.119839e-16 
          8225.55   1.121544e-16 
          8227.93   1.214399e-16 
          8230.31   1.184116e-16 
          8232.69   1.313609e-16 
          8235.07    1.40962e-16 
          8237.45   1.685291e-16 
          8239.83   1.971587e-16 
         8242.211   1.836944e-16 
         8244.591   1.613294e-16 
         8246.971   1.461205e-16 
         8249.351   1.510212e-16 
         8251.731   1.507384e-16 
         8254.111   1.258296e-16 
         8256.491   1.109712e-16 
         8258.871   1.135741e-16 
         8261.252   1.231597e-16 
         8263.632   1.290362e-16 
         8266.012   1.257222e-16 
         8268.392   1.074727e-16 
         8270.772   9.209986e-17 
         8273.152   9.847471e-17 
         8275.532   1.091625e-16 
         8277.912   1.160853e-16 
         8280.293   1.376915e-16 
         8282.673   1.747059e-16 
         8285.053   1.731005e-16 
         8287.433   1.572968e-16 
         8289.813   1.487293e-16 
         8292.193   1.363711e-16 
         8294.573   1.189438e-16 
         8296.953   8.864118e-17 
         8299.334   9.275692e-17 
         8301.714   1.153333e-16 
         8304.094   1.289771e-16 
         8306.474   1.456558e-16 
         8308.854    1.47677e-16 
         8311.234   1.361822e-16 
         8313.614   1.141309e-16 
         8315.994   9.847696e-17 
         8318.375   9.963177e-17 
         8320.755   9.249483e-17 
         8323.135    9.30419e-17 
         8325.516   9.440364e-17 
         8327.896   1.045662e-16 
         8330.275   1.196263e-16 
         8332.655   1.065593e-16 
         8335.036   7.811268e-17 
         8337.416   6.394694e-17 
         8339.796   8.343936e-17 
         8342.176   1.238021e-16 
         8344.557   1.580813e-16 
         8346.937   1.651595e-16 
         8349.316   1.446532e-16 
         8351.696   1.228207e-16 
         8354.077   1.052586e-16 
         8356.457   8.156372e-17 
         8358.837   6.784784e-17 
         8361.217   7.414142e-17 
         8363.598   9.184505e-17 
         8365.978   9.960282e-17 
         8368.357   9.514848e-17 
         8370.737   8.537213e-17 
         8373.118   9.647383e-17 
         8375.498   1.112199e-16 
         8377.878   9.956128e-17 
         8380.258   7.431144e-17 
         8382.639   7.263279e-17 
         8385.019   8.197179e-17 
         8387.398   9.339621e-17 
         8389.778   9.314661e-17 
         8392.159   8.542648e-17 
         8394.539   8.691095e-17 
         8396.919   9.584317e-17 
         8399.299   1.047046e-16 
          8401.68    1.04462e-16 
          8404.06   9.817615e-17 
         8406.439   9.151591e-17 
         8408.819    8.35436e-17 
           8411.2   8.294619e-17 
          8413.58   7.966436e-17 
          8415.96   6.561123e-17 
          8418.34   4.901503e-17 
         8420.721   4.208212e-17 
         8423.101    4.25728e-17 
          8425.48   5.557536e-17 
          8427.86   9.388483e-17 
         8430.241   1.250259e-16 
         8432.621    1.09246e-16 
         8435.001   8.155486e-17 
         8437.381   6.672939e-17 
         8439.762   6.006358e-17 
         8442.142   5.668551e-17 
         8444.521   6.373552e-17 
         8446.901   8.631182e-17 
         8449.282    1.11742e-16 
         8451.662   1.144357e-16 
         8454.042    8.76434e-17 
         8456.422   5.373517e-17 
         8458.803   4.156858e-17 
         8461.183   4.979453e-17 
         8463.563   7.208146e-17 
         8465.942   7.986386e-17 
         8468.323   7.695402e-17 
         8470.703   9.039804e-17 
         8473.083   1.048041e-16 
         8475.463   8.365206e-17 
         8477.844   6.444362e-17 
         8480.224   6.481343e-17 
         8482.604   6.744659e-17 
         8484.983   6.663565e-17 
         8487.364   6.056288e-17 
         8489.744   7.748475e-17 
         8492.124   9.483408e-17 
         8494.505   8.557091e-17 
         8496.885   7.322707e-17 
         8499.265   7.575189e-17 
         8501.645   8.498724e-17 
         8504.025    8.20445e-17 
         8506.405    7.04011e-17 
         8508.785   6.800857e-17 
         8511.165   7.531242e-17 
         8513.546   9.539044e-17 
         8515.926   1.034634e-16 
         8518.306   8.041209e-17 
         8520.686   4.749362e-17 
         8523.066   4.129754e-17 
         8525.446   4.744825e-17 
         8527.826     5.2247e-17 
         8530.206   5.944235e-17 
         8532.587   8.047759e-17 
         8534.967   1.148529e-16 
         8537.347   1.359256e-16 
         8539.727   1.256583e-16 
         8542.107   1.069391e-16 
         8544.487   9.360685e-17 
         8546.867   8.767254e-17 
         8549.247   9.746695e-17 
         8551.628   8.959409e-17 
         8554.008   9.952567e-17 
         8556.388   1.174981e-16 
         8558.768   1.062082e-16 
         8561.148   9.359019e-17 
         8563.528   9.217373e-17 
         8565.908   9.600119e-17 
         8568.288   9.496244e-17 
         8570.669   8.640948e-17 
         8573.049   7.513192e-17 
         8575.429   6.964009e-17 
         8577.809   8.706093e-17 
         8580.189   1.097612e-16 
         8582.569   1.161782e-16 
         8584.949   1.074625e-16 
         8587.329   9.887524e-17 
          8589.71   9.206733e-17 
          8592.09   9.365626e-17 
          8594.47   1.070991e-16 
          8596.85   1.285699e-16 
          8599.23   1.465083e-16 
          8601.61   1.436426e-16 
          8603.99    1.24454e-16 
          8606.37   1.110452e-16 
         8608.751   1.114619e-16 
         8611.131   1.046175e-16 
         8613.511   1.022428e-16 
         8615.891   9.702485e-17 
         8618.271   8.950481e-17 
         8620.651   1.053251e-16 
         8623.031    1.43352e-16 
         8625.411   1.445836e-16 
         8627.792    1.30706e-16 
         8630.172   1.228708e-16 
         8632.552   1.157772e-16 
         8634.932   1.058651e-16 
         8637.313   1.084473e-16 
         8639.692   1.151214e-16 
         8642.072   1.254933e-16 
 8644.45200000002   1.358397e-16 
         8646.833    1.35004e-16 
         8649.213    1.20809e-16 
         8651.593   1.059037e-16 
         8653.973   1.184812e-16 
         8656.354    1.33126e-16 
         8658.733   1.359857e-16 
         8661.113   1.424879e-16 
         8663.494   1.435214e-16 
         8665.874   1.329357e-16 
         8668.254    1.26378e-16 
         8670.634   1.311344e-16 
         8673.015   1.409404e-16 
         8675.395   1.451577e-16 
         8677.774   1.298399e-16 
         8680.154   1.270707e-16 
         8682.535   1.279741e-16 
         8684.915   1.149932e-16 
         8687.295    1.14378e-16 
         8689.675   1.264944e-16 
         8692.056   1.363533e-16 
         8694.436   1.396559e-16 
         8696.815   1.368406e-16 
         8699.195   1.281837e-16 
         8701.576   1.202805e-16 
         8703.956   1.047342e-16 
         8706.336   1.081049e-16 
         8708.716   1.223684e-16 
         8711.097    1.12524e-16 
         8713.477    9.40359e-17 
         8715.856   1.016292e-16 
         8718.236   1.078885e-16 
         8720.617   1.059952e-16 
         8722.997   1.111628e-16 
         8725.377   1.217601e-16 
         8727.757   1.362207e-16 
         8730.138   1.335761e-16 
         8732.518   1.174777e-16 
         8734.897   1.125938e-16 
         8737.277   1.233255e-16 
         8739.658   1.205083e-16 
         8742.038   9.900257e-17 
         8744.418   9.099975e-17 
         8746.798   1.012235e-16 
         8749.179    1.07629e-16 
         8751.559   1.060383e-16 
         8753.938   9.654062e-17 
         8756.318   1.017272e-16 
         8758.699   1.081643e-16 
         8761.079   9.919259e-17 
         8763.459   1.019896e-16 
         8765.839   1.410679e-16 
          8768.22   1.492268e-16 
           8770.6   1.206016e-16 
         8772.979   1.065987e-16 
         8775.359   1.236164e-16 
          8777.74   1.217091e-16 
          8780.12   9.929665e-17 
           8782.5   8.781519e-17 
          8784.88   9.413351e-17 
         8787.261   1.029751e-16 
         8789.641   1.143309e-16 
         8792.021   1.208847e-16 
           8794.4   1.095691e-16 
         8796.781   9.510743e-17 
         8799.161   9.664676e-17 
         8801.541   1.013697e-16 
         8803.921   8.998784e-17 
         8806.302    8.96829e-17 
         8808.682   1.004312e-16 
         8811.062   1.108987e-16 
         8813.441   1.176676e-16 
         8815.822   1.130721e-16 
         8818.202   8.343647e-17 
         8820.582   7.980843e-17 
         8822.962   1.336412e-16 
         8825.343   1.798374e-16 
         8827.723   1.410996e-16 
         8830.103   7.486696e-17 
         8832.482   8.089948e-17 
         8834.863   1.187504e-16 
         8837.243   1.212765e-16 
         8839.623   1.260716e-16 
         8842.004   1.239497e-16 
         8844.384   1.151184e-16 
         8846.764    1.19069e-16 
         8849.144   1.267076e-16 
         8851.524   1.148619e-16 
         8853.904   9.407419e-17 
         8856.284   9.580695e-17 
         8858.664   9.984908e-17 
         8861.045   9.916796e-17 
         8863.425   1.091922e-16 
         8865.805   1.173682e-16 
         8868.185   1.138995e-16 
         8870.565   9.971994e-17 
         8872.945   9.022478e-17 
         8875.325    8.19507e-17 
         8877.705   7.225801e-17 
         8880.086   9.933482e-17 
         8882.466   1.600889e-16 
         8884.846   1.833209e-16 
         8887.226   1.378372e-16 
         8889.606   8.631996e-17 
         8891.986   8.255172e-17 
         8894.366   8.176302e-17 
         8896.746   8.458116e-17 
         8899.127   1.105902e-16 
         8901.507    1.26782e-16 
         8903.887   9.245189e-17 
         8906.267   6.312801e-17 
         8908.647   5.960965e-17 
         8911.027   7.421413e-17 
         8913.407   1.112481e-16 
         8915.787   1.655219e-16 
         8918.168   1.617115e-16 
         8920.548   1.063136e-16 
         8922.928    6.24505e-17 
         8925.308   6.499219e-17 
         8927.688   8.038966e-17 
         8930.068   7.762882e-17 
         8932.448   6.516506e-17 
         8934.828    6.17415e-17 
         8937.209   7.308593e-17 
         8939.589   8.826254e-17 
         8941.969   9.477412e-17 
         8944.349   7.463873e-17 
         8946.729   4.635371e-17 
         8949.109   2.553189e-17 
         8951.489   2.954002e-17 
         8953.869   8.085174e-17 
          8956.25   1.406669e-16 
          8958.63    1.23761e-16 
          8961.01   6.966023e-17 
          8963.39   4.897898e-17 
         8965.771   5.501156e-17 
          8968.15   5.742378e-17 
          8970.53   6.613507e-17 
          8972.91   7.366035e-17 
         8975.291   7.397692e-17 
         8977.671   7.129582e-17 
         8980.051   6.146106e-17 
         8982.431   5.727324e-17 
         8984.812   6.722755e-17 
         8987.191   6.967686e-17 
         8989.571   5.305012e-17 
         8991.951   4.512736e-17 
         8994.332   6.892643e-17 
         8996.712   8.899422e-17 
         8999.092   9.394031e-17 
         9001.472   9.798832e-17 
         9003.853   9.592003e-17 
         9006.232   6.629311e-17 
         9008.612   5.213167e-17 
         9010.993   6.553794e-17 
         9013.373   7.314478e-17 
         9015.753   5.764036e-17 
         9018.133   5.169304e-17 
         9020.514   5.532187e-17 
         9022.894   5.321707e-17 
         9025.273   5.373865e-17 
         9027.653   5.879421e-17 
         9030.034    4.49432e-17 
         9032.414   3.987257e-17 
         9034.794   6.918903e-17 
         9037.174   9.229839e-17 
         9039.555   8.611728e-17 
         9041.935   9.094244e-17 
         9044.314   9.431692e-17 
         9046.694   9.460978e-17 
         9049.075   8.380552e-17 
         9051.455   7.486935e-17 
         9053.835   7.595385e-17 
         9056.215   6.482914e-17 
         9058.596    7.69672e-17 
         9060.976   9.423495e-17 
         9063.355   8.466034e-17 
         9065.735   6.687669e-17 
         9068.116   7.810748e-17 
         9070.496    7.86242e-17 
         9072.876   6.359926e-17 
         9075.256   6.143044e-17 
         9077.637   6.940902e-17 
         9080.017   5.767756e-17 
         9082.396   5.134585e-17 
         9084.776   6.519382e-17 
         9087.157   8.571242e-17 
         9089.537   9.290364e-17 
         9091.917   8.394977e-17 
         9094.297    7.49903e-17 
         9096.678    7.24114e-17 
         9099.058   7.364255e-17 
         9101.437   7.986428e-17 
         9103.817   9.030735e-17 
         9106.198   9.108892e-17 
         9108.578   8.544485e-17 
         9110.958   7.271246e-17 
         9113.338   6.123739e-17 
         9115.719   6.123829e-17 
         9118.099   6.623757e-17 
         9120.479   6.691074e-17 
         9122.858   7.669851e-17 
         9125.239   7.770365e-17 
         9127.619   6.161534e-17 
         9129.999   4.312783e-17 
         9132.379   3.231161e-17 
          9134.76   4.395002e-17 
          9137.14   5.478174e-17 
          9139.52   6.217907e-17 
         9141.899   7.266067e-17 
          9144.28   7.344148e-17 
          9146.66   8.796729e-17 
          9149.04   9.947763e-17 
          9151.42   9.453112e-17 
         9153.801   8.645859e-17 
         9156.181    8.83013e-17 
         9158.561   7.213994e-17 
          9160.94   5.320414e-17 
         9163.321   4.688184e-17 
         9165.701   5.076158e-17 
         9168.081   5.206843e-17 
         9170.461   4.744079e-17 
         9172.842   5.269106e-17 
         9175.222   7.230287e-17 
         9177.602   8.115335e-17 
         9179.981   7.335413e-17 
         9182.362   7.609294e-17 
         9184.742   7.183816e-17 
         9187.122   7.664964e-17 
         9189.503   8.822771e-17 
         9191.883   9.020559e-17 
         9194.263   7.970407e-17 
         9196.643   7.080012e-17 
         9199.023   7.564607e-17 
         9201.403   7.324782e-17 
         9203.783    7.27466e-17 
         9206.163   8.876518e-17 
         9208.544   9.702083e-17 
         9210.924   8.647807e-17 
         9213.304   9.232327e-17 
         9215.684    1.10099e-16 
         9218.064    1.07939e-16 
         9220.444   9.057411e-17 
         9222.824   9.050384e-17 
         9225.204   1.101013e-16 
         9227.585   1.064927e-16 
         9229.965   7.884833e-17 
         9232.345    7.45279e-17 
         9234.725   7.669251e-17 
         9237.105   8.447131e-17 
         9239.485   8.778751e-17 
         9241.865    7.57726e-17 
         9244.245   5.875364e-17 
         9246.626   6.630414e-17 
         9249.006   9.857839e-17 
         9251.386   1.059444e-16 
         9253.766   9.526099e-17 
         9256.146   9.392264e-17 
         9258.526   8.699744e-17 
         9260.906   9.109645e-17 
         9263.286   1.003526e-16 
         9265.667   8.329791e-17 
         9268.047   5.171487e-17 
         9270.427   5.787392e-17 
         9272.807   7.581832e-17 
         9275.187   1.000248e-16 
         9277.567   1.048019e-16 
         9279.947   8.699144e-17 
         9282.327   7.927062e-17 
         9284.708   7.961146e-17 
         9287.088   8.366851e-17 
         9289.468   8.760767e-17 
         9291.848    8.16912e-17 
         9294.229   6.445234e-17 
         9296.608   5.991427e-17 
         9298.988   7.738028e-17 
         9301.368    9.10062e-17 
         9303.749   1.023495e-16 
         9306.129   1.235531e-16 
         9308.509   1.630053e-16 
         9310.889    1.51744e-16 
          9313.27   1.071613e-16 
         9315.649   4.906258e-17 
         9318.029   4.307269e-17 
         9320.409   1.131415e-16 
          9322.79   1.314291e-16 
          9325.17   1.122334e-16 
          9327.55   7.917185e-17 
          9329.93   7.208069e-17 
         9332.311   7.595014e-17 
          9334.69   9.698473e-17 
          9337.07    1.02424e-16 
          9339.45   8.335263e-17 
         9341.831   7.083313e-17 
         9344.211   8.764397e-17 
         9346.591   1.189284e-16 
         9348.971   1.312451e-16 
         9351.352   1.140594e-16 
         9353.731   7.702768e-17 
         9356.111   5.339645e-17 
         9358.492   6.345273e-17 
         9360.872   7.306261e-17 
         9363.252    5.62832e-17 
         9365.632   4.199819e-17 
         9368.013   8.091402e-17 
         9370.393   1.692933e-16 
         9372.772   2.067115e-16 
         9375.152   1.898176e-16 
         9377.533   7.608718e-17 
         9379.913   2.552092e-17 
         9382.293    6.54123e-17 
         9384.673   5.751669e-17 
         9387.054   8.560432e-17 
         9389.434   1.002819e-16 
         9391.813   1.036832e-16 
         9394.193   1.123382e-16 
         9396.574   1.157309e-16 
         9398.954   1.160911e-16 
         9401.334   9.759722e-17 
         9403.714   8.693599e-17 
         9406.095   7.989422e-17 
         9408.475   6.705777e-17 
         9410.854   8.063238e-17 
         9413.234   9.569989e-17 
         9415.615   1.261603e-16 
         9417.995   1.656951e-16 
         9420.375   1.721764e-16 
         9422.755   1.277635e-16 
         9425.136   8.173863e-17 
         9427.516   6.616209e-17 
         9429.896     6.2989e-17 
         9432.275   6.230039e-17 
         9434.656   8.908527e-17 
         9437.036   1.482422e-16 
         9439.416   1.535255e-16 
         9441.796   1.129801e-16 
         9444.177   8.686453e-17 
         9446.557   9.128198e-17 
         9448.937   9.098118e-17 
         9451.316   7.891626e-17 
         9453.697   6.586282e-17 
         9456.077   7.232843e-17 
         9458.457   1.141796e-16 
         9460.837   1.468348e-16 
         9463.218   7.591469e-17 
         9465.598   5.519283e-17 
         9467.978   5.179151e-17 
         9470.357   4.438417e-17 
         9472.738   1.033994e-16 
         9475.118   1.722347e-16 
         9477.498   1.979482e-16 
         9479.878   1.624882e-16 
         9482.259   1.191163e-16 
         9484.639   1.172147e-16 
         9487.019   1.144932e-16 
         9489.398   9.392783e-17 
         9491.779   7.405312e-17 
         9494.159   7.216347e-17 
         9496.539     8.4158e-17 
         9498.919   1.009948e-16 
           9501.3   1.285423e-16 
          9503.68    1.67155e-16 
          9506.06   1.831995e-16 
         9508.439   1.556599e-16 
          9510.82   1.161265e-16 
           9513.2   9.594582e-17 
          9515.58   8.481502e-17 
          9517.96   8.977413e-17 
         9520.341   8.486741e-17 
         9522.721   5.997039e-17 
         9525.101   7.539524e-17 
          9527.48   1.329319e-16 
         9529.861   1.092759e-16 
         9532.241   5.999058e-17 
         9534.621   7.023237e-17 
         9537.002   7.951219e-17 
         9539.382   8.086852e-17 
         9541.762   8.302015e-17 
         9544.142   9.474462e-17 
         9546.522   1.139006e-16 
         9548.902   1.274901e-16 
         9551.282   1.276785e-16 
         9553.662   1.091497e-16 
         9556.043   8.524201e-17 
         9558.423   9.725665e-17 
         9560.803    1.33854e-16 
         9563.183   1.277099e-16 
         9565.563   1.353442e-16 
         9567.943   1.514785e-16 
         9570.323   1.620125e-16 
         9572.703    1.72788e-16 
         9575.084   1.821072e-16 
         9577.464   1.526106e-16 
         9579.844   1.165637e-16 
         9582.224   1.089317e-16 
         9584.604   1.042461e-16 
         9586.984   7.197002e-17 
         9589.364   6.448993e-17 
         9591.744   6.477644e-17 
         9594.125   7.588081e-17 
         9596.505   1.132787e-16 
         9598.885   1.499323e-16 
         9601.265   1.402794e-16 
         9603.646   1.356408e-16 
         9606.025   9.560953e-17 
         9608.405   6.345772e-17 
         9610.785   8.606238e-17 
         9613.166   1.063188e-16 
         9615.546   1.099579e-16 
         9617.926   1.429692e-16 
         9620.306   1.433658e-16 
         9622.687   1.068604e-16 
         9625.066   1.162844e-16 
         9627.446   1.388241e-16 
         9629.826   1.206286e-16 
         9632.207   9.736945e-17 
         9634.587   1.021694e-16 
         9636.967   1.208929e-16 
         9639.347   1.393157e-16 
         9641.728   1.673203e-16 
         9644.107   1.531783e-16 
         9646.487   1.018369e-16 
         9648.867    7.91586e-17 
         9651.248   1.052238e-16 
         9653.628   1.212728e-16 
         9656.008   1.035507e-16 
         9658.388   8.769901e-17 
         9660.769   1.014004e-16 
         9663.148   1.179747e-16 
         9665.528   9.676944e-17 
         9667.908   8.481987e-17 
         9670.289    1.11222e-16 
         9672.669   1.408554e-16 
         9675.049   1.391454e-16 
         9677.429   1.437922e-16 
          9679.81    1.83323e-16 
         9682.189   2.095972e-16 
         9684.569   1.805153e-16 
         9686.949   1.309871e-16 
          9689.33    1.42964e-16 
          9691.71   1.874879e-16 
          9694.09   2.009811e-16 
          9696.47   1.695129e-16 
         9698.851   1.224799e-16 
          9701.23            0.0 
