# STATUS =
# OBJECT = 2015bn
# TELESCOPE = UH88
# INSTRUMENT = SNIFS
# DATE-OBS = 2015-03-24 00:00:00.00
# MJD = 57105.0
# EXPTIME = 1200
# AIRMASS = --
# SLIT = 0.0
# DISPERSER = --
# SOURCE = 2016ApJ...826...39N
# FILTER =
# RESOLUTION =
# FLUX_STANDARD =
# EXTINCTION_CORRECTED = --
# PHOTOMETRY_CALIBRATED =
# TELLURIC_CORRECTED =
# FLUX_UNITS = Other
# WAVE_UNITS = Angstrom
# QUALITY = High
# MIN_WAVE = 3301.06
# MAX_WAVE = 9701.23
# COMMENT = [Data obtained from:Nicholl, M.] [Prev. spec info - createdby: ilanm-UploadSet; modifiedby: ilanm-UploadSet]
       Wavelength          Flux 
          3303.44  2.086594e-15 
          3305.82  2.239449e-15 
           3308.2  1.957501e-15 
         3310.581  2.181899e-15 
         3312.961  2.059586e-15 
         3315.341  1.852081e-15 
         3317.721  1.938854e-15 
         3320.101  2.138604e-15 
         3322.481  1.983757e-15 
         3324.861  1.917794e-15 
         3327.241  2.211503e-15 
         3329.622  1.977898e-15 
         3332.002  1.792456e-15 
         3334.382  2.007549e-15 
         3336.762  1.922129e-15 
         3339.142  1.489115e-15 
         3341.522  1.506946e-15 
         3343.902  1.768991e-15 
         3346.282  1.964744e-15 
         3348.663  1.961955e-15 
         3351.043  1.811494e-15 
         3353.423  1.900101e-15 
         3355.803  1.934339e-15 
         3358.183   1.75535e-15 
         3360.563  1.618234e-15 
         3362.943  1.764657e-15 
         3365.323   1.90608e-15 
         3367.704   1.72461e-15 
         3370.084  1.920292e-15 
         3372.464  1.926204e-15 
         3374.844   1.86621e-15 
         3377.224  1.952737e-15 
         3379.604  2.137877e-15 
         3381.984  1.745767e-15 
         3384.365  1.482253e-15 
         3386.745  1.685131e-15 
         3389.125  1.837096e-15 
         3391.505  1.671257e-15 
         3393.885  1.801691e-15 
         3396.265  1.682649e-15 
         3398.646  1.520363e-15 
         3401.026  1.858801e-15 
         3403.406  2.153919e-15 
         3405.786  2.156203e-15 
         3408.166  1.975253e-15 
         3410.546  1.924695e-15 
         3412.926  1.754403e-15 
         3415.306  1.806917e-15 
         3417.687  1.966835e-15 
         3420.067  1.678012e-15 
         3422.447  1.646893e-15 
         3424.827  2.011388e-15 
         3427.207  2.052433e-15 
         3429.587  1.922806e-15 
         3431.967  2.011449e-15 
         3434.347  2.097703e-15 
         3436.728  2.059356e-15 
         3439.108  2.033279e-15 
         3441.488  2.018336e-15 
         3443.868  2.058542e-15 
         3446.248  2.073622e-15 
         3448.628  2.219735e-15 
         3451.008  2.076287e-15 
         3453.388  1.824688e-15 
         3455.769  1.878756e-15 
         3458.149  1.899144e-15 
         3460.529  1.834611e-15 
         3462.909   1.85755e-15 
         3465.289   1.77263e-15 
         3467.669  1.530385e-15 
         3470.049  1.557068e-15 
         3472.429  1.810845e-15 
          3474.81  2.064588e-15 
          3477.19   2.00176e-15 
          3479.57  1.795938e-15 
          3481.95  2.155352e-15 
          3484.33  2.177193e-15 
          3486.71  2.110969e-15 
          3489.09  1.934437e-15 
          3491.47  1.825344e-15 
         3493.851  1.659666e-15 
         3496.231  1.623557e-15 
         3498.611  1.629635e-15 
         3500.991  1.594602e-15 
         3503.371  1.643499e-15 
         3505.751  1.807494e-15 
         3508.131  1.801597e-15 
         3510.511  1.713093e-15 
         3512.892   1.79661e-15 
         3515.272   1.93602e-15 
         3517.652  1.862101e-15 
         3520.032  1.829987e-15 
         3522.412   1.94163e-15 
         3524.792  1.915055e-15 
         3527.172  1.877467e-15 
         3529.552  1.836865e-15 
         3531.933  1.833352e-15 
         3534.313  1.748399e-15 
         3536.693  1.807767e-15 
         3539.073  1.907471e-15 
         3541.453  1.896157e-15 
         3543.833  1.856736e-15 
         3546.213  1.888975e-15 
         3548.594  1.804837e-15 
         3550.974  1.846645e-15 
         3553.354  1.856397e-15 
         3555.734  1.800348e-15 
         3558.114  1.782474e-15 
         3560.494   1.75525e-15 
         3562.875  1.770408e-15 
         3565.255  1.769087e-15 
         3567.635  1.801353e-15 
         3570.015  1.809968e-15 
         3572.395   1.77928e-15 
         3574.775  1.671641e-15 
         3577.155  1.633117e-15 
         3579.535  1.693402e-15 
         3581.916  1.585981e-15 
         3584.296  1.438043e-15 
         3586.676  1.503642e-15 
         3589.056  1.761349e-15 
         3591.436   1.60648e-15 
         3593.816  1.560147e-15 
         3596.196   1.64554e-15 
         3598.576  1.645856e-15 
         3600.957  1.685191e-15 
         3603.337  1.672875e-15 
         3605.717  1.774889e-15 
         3608.097  1.744845e-15 
         3610.477  1.651242e-15 
         3612.857  1.653094e-15 
         3615.237  1.637217e-15 
         3617.617  1.676987e-15 
         3619.998   1.70556e-15 
         3622.378  1.617544e-15 
         3624.758  1.754665e-15 
         3627.138  1.840434e-15 
         3629.518   1.80856e-15 
         3631.898  1.723221e-15 
         3634.278  1.704466e-15 
         3636.658  1.761088e-15 
         3639.039  1.722314e-15 
         3641.419   1.72784e-15 
         3643.799  1.757982e-15 
         3646.179   1.68936e-15 
         3648.559  1.520967e-15 
         3650.939  1.728914e-15 
         3653.319  1.829625e-15 
         3655.699  1.741205e-15 
          3658.08  1.720779e-15 
          3660.46  1.709771e-15 
          3662.84  1.662339e-15 
          3665.22  1.726769e-15 
           3667.6   1.75519e-15 
          3669.98  1.727076e-15 
          3672.36  1.715133e-15 
          3674.74  1.813306e-15 
         3677.121  1.915151e-15 
         3679.501  1.778872e-15 
         3681.881  1.689564e-15 
         3684.261  1.788714e-15 
         3686.641  1.727847e-15 
         3689.021  1.741189e-15 
         3691.401   1.76951e-15 
         3693.781  1.826877e-15 
         3696.162  1.782293e-15 
         3698.542  1.792788e-15 
         3700.922  1.875808e-15 
         3703.302  1.866773e-15 
         3705.682  1.880419e-15 
         3708.062  1.803112e-15 
         3710.442  1.748647e-15 
         3712.823  1.723729e-15 
         3715.203  1.777386e-15 
         3717.583  1.768098e-15 
         3719.963  1.802671e-15 
         3722.343  1.832239e-15 
         3724.723  1.815395e-15 
         3727.103  1.815311e-15 
         3729.483  1.789583e-15 
         3731.864  1.725452e-15 
         3734.244  1.695418e-15 
         3736.624  1.718024e-15 
         3739.004  1.743264e-15 
         3741.384  1.836829e-15 
         3743.764  1.896569e-15 
         3746.145  1.788555e-15 
         3748.525  1.696423e-15 
         3750.905  1.738932e-15 
         3753.285  1.790435e-15 
         3755.665  1.804472e-15 
         3758.045   1.70543e-15 
         3760.425  1.663387e-15 
         3762.805  1.627045e-15 
         3765.186  1.620288e-15 
         3767.566  1.626838e-15 
         3769.946   1.66315e-15 
         3772.326  1.722604e-15 
         3774.706  1.707383e-15 
         3777.086  1.658214e-15 
         3779.466  1.683835e-15 
         3781.846  1.745461e-15 
         3784.227  1.756597e-15 
         3786.607  1.765501e-15 
         3788.987  1.762363e-15 
         3791.367  1.725422e-15 
         3793.747  1.699504e-15 
         3796.127  1.649423e-15 
         3798.507  1.529771e-15 
         3800.887  1.508867e-15 
         3803.268  1.537784e-15 
         3805.648  1.595558e-15 
         3808.028  1.610832e-15 
         3810.408  1.634038e-15 
         3812.788  1.613625e-15 
         3815.168   1.62117e-15 
         3817.548  1.615148e-15 
         3819.928  1.615887e-15 
         3822.309  1.668294e-15 
         3824.689   1.70743e-15 
         3827.069  1.777211e-15 
         3829.449  1.787573e-15 
         3831.829  1.743936e-15 
         3834.209  1.739221e-15 
         3836.589  1.783137e-15 
         3838.969  1.774976e-15 
          3841.35  1.737727e-15 
          3843.73  1.814444e-15 
          3846.11  1.841578e-15 
          3848.49   1.89321e-15 
          3850.87  1.963682e-15 
          3853.25  1.910435e-15 
          3855.63  1.830245e-15 
          3858.01  1.856394e-15 
         3860.391  1.844505e-15 
         3862.771  1.798775e-15 
         3865.151  1.817663e-15 
         3867.531  1.817131e-15 
         3869.911  1.851098e-15 
         3872.291   1.77775e-15 
         3874.671    1.7952e-15 
         3877.052   1.78575e-15 
         3879.432  1.687829e-15 
         3881.812  1.646469e-15 
         3884.192  1.653907e-15 
         3886.572  1.703937e-15 
         3888.952  1.646253e-15 
         3891.332  1.607936e-15 
         3893.712  1.654586e-15 
         3896.093  1.602975e-15 
         3898.473  1.589248e-15 
         3900.853  1.600964e-15 
         3903.233  1.533396e-15 
         3905.613  1.500621e-15 
         3907.993  1.559943e-15 
         3910.374  1.563564e-15 
         3912.754  1.539173e-15 
         3915.134  1.555531e-15 
         3917.514  1.706795e-15 
         3919.894  1.731658e-15 
         3922.274  1.661955e-15 
         3924.654  1.636918e-15 
         3927.034  1.640206e-15 
         3929.415   1.66918e-15 
         3931.795  1.641192e-15 
         3934.175  1.659835e-15 
         3936.555  1.755204e-15 
         3938.935  1.791636e-15 
         3941.315  1.808131e-15 
         3943.695  1.857175e-15 
         3946.075  1.841927e-15 
         3948.456   1.85397e-15 
         3950.836  1.825691e-15 
         3953.216  1.857837e-15 
         3955.596  1.875515e-15 
         3957.976  1.889669e-15 
         3960.356  1.928549e-15 
         3962.736  1.975952e-15 
         3965.116  1.990565e-15 
         3967.497  1.943347e-15 
         3969.877  1.944769e-15 
         3972.257   2.01732e-15 
         3974.637  2.086595e-15 
         3977.017  2.000087e-15 
         3979.397  1.901565e-15 
         3981.777   1.83967e-15 
         3984.157  1.848491e-15 
         3986.538  1.811619e-15 
         3988.918  1.713225e-15 
         3991.298  1.762551e-15 
         3993.678    1.7736e-15 
         3996.058  1.747765e-15 
         3998.438  1.761192e-15 
         4000.818  1.803504e-15 
         4003.198  1.735161e-15 
         4005.579  1.652418e-15 
         4007.959  1.602094e-15 
         4010.339  1.605143e-15 
         4012.719   1.55934e-15 
         4015.099  1.572505e-15 
         4017.479  1.549736e-15 
         4019.859  1.460155e-15 
          4022.24  1.476587e-15 
          4024.62  1.441715e-15 
           4027.0  1.473513e-15 
          4029.38  1.514528e-15 
          4031.76  1.567908e-15 
          4034.14  1.597834e-15 
          4036.52  1.598002e-15 
           4038.9  1.634957e-15 
         4041.281  1.664155e-15 
         4043.661  1.661875e-15 
         4046.041   1.64495e-15 
         4048.421   1.64681e-15 
         4050.801  1.649771e-15 
         4053.181  1.666296e-15 
         4055.561  1.713772e-15 
         4057.941  1.738777e-15 
         4060.322  1.733617e-15 
         4062.702  1.695759e-15 
         4065.082  1.745031e-15 
         4067.462  1.765679e-15 
         4069.842  1.738182e-15 
         4072.222  1.734956e-15 
         4074.602  1.781879e-15 
         4076.982  1.716725e-15 
         4079.363  1.738351e-15 
         4081.743  1.777473e-15 
         4084.123  1.724014e-15 
         4086.503  1.756555e-15 
         4088.883  1.699554e-15 
         4091.263  1.663292e-15 
         4093.644  1.652432e-15 
         4096.023  1.645524e-15 
         4098.404  1.733006e-15 
         4100.784  1.714415e-15 
         4103.164  1.645682e-15 
         4105.544  1.605744e-15 
         4107.924  1.581082e-15 
         4110.304  1.608777e-15 
         4112.685  1.647859e-15 
         4115.064  1.637471e-15 
         4117.445  1.608232e-15 
         4119.825  1.589545e-15 
         4122.205  1.584581e-15 
         4124.585  1.576495e-15 
         4126.965  1.490962e-15 
         4129.345  1.505051e-15 
         4131.726  1.533375e-15 
         4134.105  1.531993e-15 
         4136.486  1.626588e-15 
         4138.866  1.628316e-15 
         4141.246  1.659437e-15 
         4143.626  1.633477e-15 
         4146.006   1.56508e-15 
         4148.386   1.59611e-15 
         4150.767   1.61658e-15 
         4153.146  1.612875e-15 
         4155.527  1.602588e-15 
         4157.907  1.643555e-15 
         4160.287  1.638083e-15 
         4162.667  1.660304e-15 
         4165.047  1.685904e-15 
         4167.428   1.65812e-15 
         4169.808  1.666015e-15 
         4172.188  1.714842e-15 
         4174.568  1.669935e-15 
         4176.948  1.672341e-15 
         4179.328  1.670956e-15 
         4181.708  1.666341e-15 
         4184.088  1.602125e-15 
         4186.469  1.568531e-15 
         4188.849  1.589976e-15 
         4191.229  1.556547e-15 
         4193.609  1.559173e-15 
         4195.989  1.654807e-15 
         4198.369   1.63778e-15 
          4200.75  1.566893e-15 
         4203.129  1.513714e-15 
          4205.51  1.540231e-15 
          4207.89  1.558616e-15 
          4210.27   1.58766e-15 
          4212.65  1.603174e-15 
          4215.03  1.540201e-15 
          4217.41  1.533651e-15 
         4219.791  1.524977e-15 
          4222.17  1.539505e-15 
         4224.551  1.543925e-15 
         4226.931  1.528764e-15 
         4229.311  1.562801e-15 
         4231.691  1.576097e-15 
         4234.071  1.472491e-15 
         4236.451  1.461714e-15 
         4238.832  1.452829e-15 
         4241.211  1.380692e-15 
         4243.592   1.36976e-15 
         4245.972  1.466562e-15 
         4248.352  1.509368e-15 
         4250.732  1.414198e-15 
         4253.112  1.391872e-15 
         4255.492  1.418909e-15 
         4257.873  1.424051e-15 
         4260.252  1.381318e-15 
         4262.633  1.369533e-15 
         4265.013  1.399982e-15 
         4267.393  1.357426e-15 
         4269.773  1.372314e-15 
         4272.153  1.403679e-15 
         4274.533   1.40207e-15 
         4276.914  1.357031e-15 
         4279.293  1.407432e-15 
         4281.674  1.373451e-15 
         4284.054  1.344403e-15 
         4286.434  1.362676e-15 
         4288.814  1.378815e-15 
         4291.194   1.39684e-15 
         4293.574  1.357517e-15 
         4295.955  1.367056e-15 
         4298.334  1.376169e-15 
         4300.715  1.269745e-15 
         4303.095  1.273299e-15 
         4305.475  1.432404e-15 
         4307.855  1.449905e-15 
         4310.235  1.372177e-15 
         4312.615  1.342585e-15 
         4314.996  1.408393e-15 
         4317.375  1.369481e-15 
         4319.756  1.306632e-15 
         4322.136  1.263373e-15 
         4324.516   1.26103e-15 
         4326.896  1.333619e-15 
         4329.276  1.399883e-15 
         4331.656  1.361777e-15 
         4334.037  1.342408e-15 
         4336.417  1.348269e-15 
         4338.797  1.382352e-15 
         4341.177  1.374037e-15 
         4343.557  1.319753e-15 
         4345.937  1.380162e-15 
         4348.317  1.458178e-15 
         4350.698  1.423355e-15 
         4353.078  1.362523e-15 
         4355.458  1.369095e-15 
         4357.838  1.401887e-15 
         4360.218  1.423184e-15 
         4362.598  1.443811e-15 
         4364.979  1.443083e-15 
         4367.358  1.457805e-15 
         4369.739  1.436031e-15 
         4372.119  1.499452e-15 
         4374.499  1.457846e-15 
         4376.879  1.380365e-15 
         4379.259  1.390542e-15 
         4381.639  1.414506e-15 
          4384.02  1.459032e-15 
         4386.399  1.473467e-15 
          4388.78   1.46897e-15 
          4391.16  1.399613e-15 
          4393.54  1.353211e-15 
          4395.92  1.465803e-15 
           4398.3  1.475844e-15 
          4400.68  1.460497e-15 
         4403.061  1.473924e-15 
          4405.44  1.438661e-15 
         4407.821  1.435142e-15 
         4410.201  1.422102e-15 
         4412.581  1.450082e-15 
         4414.961  1.419112e-15 
         4417.341  1.416706e-15 
         4419.721  1.416206e-15 
         4422.102  1.438155e-15 
         4424.481  1.475325e-15 
         4426.862    1.4232e-15 
         4429.242  1.370932e-15 
         4431.622  1.347978e-15 
         4434.002  1.316771e-15 
         4436.382  1.305491e-15 
         4438.762  1.356588e-15 
         4441.143   1.37353e-15 
         4443.522  1.327455e-15 
         4445.903  1.288078e-15 
         4448.283  1.303864e-15 
         4450.663  1.283185e-15 
         4453.043  1.250507e-15 
         4455.423  1.269962e-15 
         4457.803   1.24228e-15 
         4460.184  1.194331e-15 
         4462.563  1.173656e-15 
         4464.944   1.16924e-15 
         4467.324  1.199518e-15 
         4469.704   1.22473e-15 
         4472.084  1.226943e-15 
         4474.464  1.195417e-15 
         4476.844  1.207803e-15 
         4479.225   1.21589e-15 
         4481.604  1.187124e-15 
         4483.985  1.182628e-15 
         4486.365  1.199507e-15 
         4488.745  1.170173e-15 
         4491.125  1.156676e-15 
         4493.505  1.186732e-15 
         4495.885  1.212292e-15 
         4498.266   1.18975e-15 
         4500.646  1.176136e-15 
         4503.026  1.191076e-15 
         4505.406  1.198242e-15 
         4507.786  1.178512e-15 
         4510.166  1.187511e-15 
         4512.546  1.208112e-15 
         4514.927  1.227627e-15 
         4517.307  1.236416e-15 
         4519.687  1.218318e-15 
         4522.067  1.200124e-15 
         4524.447  1.209199e-15 
         4526.827  1.204439e-15 
         4529.208  1.207915e-15 
         4531.587   1.23804e-15 
         4533.968   1.28095e-15 
         4536.348  1.300876e-15 
         4538.728  1.290514e-15 
         4541.108  1.284013e-15 
         4543.488  1.263538e-15 
         4545.868  1.222912e-15 
         4548.249  1.248437e-15 
         4550.628  1.262593e-15 
         4553.009  1.251965e-15 
         4555.389  1.244127e-15 
         4557.769   1.23428e-15 
         4560.149  1.256304e-15 
         4562.529  1.302309e-15 
         4564.909  1.308615e-15 
          4567.29  1.220289e-15 
         4569.669  1.182497e-15 
          4572.05  1.207216e-15 
          4574.43  1.260041e-15 
          4576.81  1.263723e-15 
          4579.19   1.28504e-15 
          4581.57  1.354124e-15 
          4583.95  1.313183e-15 
         4586.331  1.254944e-15 
          4588.71  1.315107e-15 
         4591.091  1.303523e-15 
         4593.471  1.295411e-15 
         4595.851   1.28467e-15 
         4598.231  1.255266e-15 
         4600.611  1.225003e-15 
         4602.991  1.214084e-15 
         4605.372  1.216895e-15 
         4607.751   1.26911e-15 
         4610.132  1.248324e-15 
         4612.512   1.21947e-15 
         4614.892  1.211655e-15 
         4617.272  1.255632e-15 
         4619.652  1.213662e-15 
         4622.032  1.192004e-15 
         4624.413   1.18257e-15 
         4626.792  1.187208e-15 
         4629.173  1.211276e-15 
         4631.553  1.162126e-15 
         4633.933  1.120572e-15 
         4636.313  1.144167e-15 
         4638.693  1.154135e-15 
         4641.073  1.146499e-15 
         4643.454  1.137733e-15 
         4645.833  1.179556e-15 
         4648.214   1.21324e-15 
         4650.594  1.224225e-15 
         4652.974  1.162474e-15 
         4655.354  1.137986e-15 
         4657.734  1.139418e-15 
         4660.114  1.150868e-15 
         4662.495  1.165668e-15 
         4664.875  1.127605e-15 
         4667.255  1.124781e-15 
         4669.635  1.124007e-15 
         4672.015  1.091528e-15 
         4674.395  1.063718e-15 
         4676.775  1.072029e-15 
         4679.155  1.081976e-15 
         4681.536   1.06357e-15 
         4683.916  1.064722e-15 
         4686.296   1.07358e-15 
         4688.676  1.093279e-15 
         4691.056  1.093484e-15 
         4693.437  1.049331e-15 
         4695.816  1.061459e-15 
         4698.197  1.090987e-15 
         4700.577   1.05378e-15 
         4702.957  1.013375e-15 
         4705.337  1.024345e-15 
         4707.717  1.023353e-15 
         4710.097  1.010077e-15 
         4712.478  9.679358e-16 
         4714.857  9.385483e-16 
         4717.238  9.645136e-16 
         4719.618  9.477933e-16 
         4721.998  9.552326e-16 
         4724.378  9.830263e-16 
         4726.758  9.594898e-16 
         4729.138  9.644742e-16 
         4731.519  9.668211e-16 
         4733.898    9.8844e-16 
         4736.279  9.292587e-16 
         4738.659  8.848734e-16 
         4741.039  8.849768e-16 
         4743.419  8.969065e-16 
         4745.799  8.765543e-16 
         4748.179  9.128792e-16 
          4750.56  9.693646e-16 
         4752.939  9.625734e-16 
          4755.32  9.392617e-16 
           4757.7  9.451667e-16 
          4760.08  9.734567e-16 
          4762.46  9.905149e-16 
          4764.84  9.431837e-16 
          4767.22     9.588e-16 
         4769.601  9.594417e-16 
          4771.98  9.127992e-16 
         4774.361  9.164859e-16 
         4776.741  9.347771e-16 
         4779.121  9.358237e-16 
         4781.501  9.548093e-16 
         4783.881   9.60457e-16 
         4786.261  9.019904e-16 
         4788.642  8.620196e-16 
         4791.021  8.986876e-16 
         4793.402  9.295797e-16 
         4795.782  9.343731e-16 
         4798.162  9.296212e-16 
         4800.542  9.222879e-16 
         4802.922  9.313809e-16 
         4805.302  9.112335e-16 
         4807.683  9.190817e-16 
         4810.062  9.101961e-16 
         4812.443  8.676048e-16 
         4814.823  8.671352e-16 
         4817.203  8.878446e-16 
         4819.583  9.154377e-16 
         4821.963  9.168591e-16 
         4824.343  8.879542e-16 
         4826.724  9.215166e-16 
         4829.104  9.571495e-16 
         4831.484  9.412406e-16 
         4833.864  9.380157e-16 
         4836.244  9.430315e-16 
         4838.624  9.318778e-16 
         4841.004  9.481669e-16 
         4843.384  9.154443e-16 
         4845.765  9.102133e-16 
         4848.145  9.548498e-16 
         4850.525  9.886891e-16 
         4852.905  9.457386e-16 
         4855.285  9.301064e-16 
         4857.665  9.876178e-16 
         4860.045  1.018389e-15 
         4862.426  1.030491e-15 
         4864.806   1.02679e-15 
         4867.186  9.449305e-16 
         4869.566  9.937817e-16 
         4871.946  9.839758e-16 
         4874.326  9.504739e-16 
         4876.707  9.539597e-16 
         4879.086  9.752757e-16 
         4881.467  9.609419e-16 
         4883.847  9.277094e-16 
         4886.227  9.418233e-16 
         4888.607  9.930206e-16 
         4890.987  9.824613e-16 
         4893.367  1.014954e-15 
         4895.748  1.051429e-15 
         4898.127  1.051843e-15 
         4900.508  1.000203e-15 
         4902.888  1.007446e-15 
         4905.268  1.002387e-15 
         4907.648  1.026293e-15 
         4910.028  1.050249e-15 
         4912.408  1.048855e-15 
         4914.789  9.946604e-16 
         4917.168  1.070048e-15 
         4919.549  1.097056e-15 
         4921.929  1.074324e-15 
         4924.309  1.078009e-15 
         4926.689  1.029249e-15 
         4929.069   1.06457e-15 
         4931.449  1.073989e-15 
          4933.83  1.068307e-15 
         4936.209  1.108092e-15 
          4938.59  1.117999e-15 
          4940.97  1.075898e-15 
          4943.35   1.05887e-15 
          4945.73  1.070525e-15 
          4948.11   1.02016e-15 
          4950.49  1.029465e-15 
         4952.871  1.066341e-15 
          4955.25  1.080766e-15 
         4957.631  1.060595e-15 
         4960.011  9.660411e-16 
         4962.391   9.35587e-16 
         4964.771  1.013484e-15 
         4967.151  1.059869e-15 
         4969.531  1.057647e-15 
         4971.912  1.034087e-15 
         4974.292  1.010621e-15 
         4976.672  9.805611e-16 
         4979.052  8.759697e-16 
         4981.432  8.776558e-16 
         4983.812  9.539082e-16 
         4986.192  1.026127e-15 
         4988.572  1.007356e-15 
         4990.953  1.016365e-15 
         4993.333   1.02424e-15 
         4995.713  1.070114e-15 
         4998.093  1.084221e-15 
         5000.473  1.065221e-15 
         5002.853  1.044075e-15 
         5005.233  1.044276e-15 
         5007.613  1.049822e-15 
         5009.994  9.763886e-16 
         5012.374  9.578596e-16 
         5014.754   1.04463e-15 
         5017.134  1.068023e-15 
         5019.514   1.08942e-15 
         5021.894  9.491114e-16 
         5024.274  9.978184e-16 
         5026.654  1.032771e-15 
         5029.035  9.195089e-16 
         5031.415   9.04671e-16 
         5033.795  1.002603e-15 
         5036.175  1.065012e-15 
         5038.555  9.809071e-16 
         5040.936  9.302569e-16 
         5043.315  9.149728e-16 
         5045.696  8.821535e-16 
         5048.076  8.660919e-16 
         5050.456  9.269762e-16 
         5052.836  9.080524e-16 
         5055.216  8.790436e-16 
         5057.596  9.112364e-16 
         5059.977   9.22511e-16 
         5062.356  9.522264e-16 
         5064.737  9.172513e-16 
         5067.117  8.992109e-16 
         5069.497  8.913716e-16 
         5071.877  8.808015e-16 
         5074.257   9.36539e-16 
         5076.637   9.66168e-16 
         5079.018  9.619268e-16 
         5081.397  9.835076e-16 
         5083.778  9.976443e-16 
         5086.158  9.715221e-16 
         5088.538  9.012438e-16 
         5090.918  8.607413e-16 
         5093.298  8.705369e-16 
         5095.678  8.047233e-16 
         5098.059  8.569166e-16 
         5100.438  9.872063e-16 
         5102.819   1.00444e-15 
         5105.199  9.601506e-16 
         5107.579  9.134971e-16 
         5109.959  1.007903e-15 
         5112.339  1.032934e-15 
         5114.719  9.908835e-16 
           5117.1  9.481662e-16 
         5119.479  9.732145e-16 
          5121.86  1.006445e-15 
          5124.24  1.059704e-15 
          5126.62   1.04853e-15 
           5129.0   1.02696e-15 
          5131.38  1.070611e-15 
          5133.76  1.105168e-15 
         5136.141  1.081073e-15 
         5138.521  1.008135e-15 
         5140.901   9.85665e-16 
         5143.281  1.001005e-15 
         5145.661  9.651299e-16 
         5148.041  1.020974e-15 
         5150.421  1.120984e-15 
         5152.801  9.054866e-16 
         5155.182  8.822257e-16 
         5157.562  8.556726e-16 
         5159.942  9.004262e-16 
         5162.322   9.59229e-16 
         5164.702  9.600962e-16 
         5167.082  9.777031e-16 
         5169.462  1.007871e-15 
         5171.842  9.930715e-16 
         5174.223  9.694801e-16 
         5176.603  1.014488e-15 
         5178.983   1.02739e-15 
         5181.363  1.015588e-15 
         5183.743  1.005323e-15 
         5186.123  9.728991e-16 
         5188.503  9.573466e-16 
         5190.883  9.614362e-16 
         5193.264   9.56274e-16 
         5195.644  9.449561e-16 
         5198.024   9.52442e-16 
         5200.404  9.642103e-16 
         5202.784  9.377529e-16 
         5205.165  9.445975e-16 
         5207.544  9.697267e-16 
         5209.925  9.735899e-16 
         5212.305  9.845455e-16 
         5214.685  9.750751e-16 
         5217.065  9.871347e-16 
         5219.445  1.008913e-15 
         5221.825  9.923743e-16 
         5224.206  9.440556e-16 
         5226.585  9.374285e-16 
         5228.966  9.815753e-16 
         5231.346  9.915918e-16 
         5233.726  9.442472e-16 
         5236.106  8.944484e-16 
         5238.486  8.744744e-16 
         5240.866  8.949279e-16 
         5243.247  9.105774e-16 
         5245.626  9.215758e-16 
         5248.007  9.128976e-16 
         5250.387  8.556344e-16 
         5252.767  8.604274e-16 
         5255.147  8.742033e-16 
         5257.527  8.557706e-16 
         5259.907  8.171634e-16 
         5262.288  7.862646e-16 
         5264.667  8.115674e-16 
         5267.048  8.264259e-16 
         5269.428  8.697458e-16 
         5271.808  8.920704e-16 
         5274.188  8.436619e-16 
         5276.568  7.911918e-16 
         5278.948  7.692108e-16 
         5281.329   7.64381e-16 
         5283.708  7.527272e-16 
         5286.089  7.414078e-16 
         5288.469  7.535131e-16 
         5290.849  7.683247e-16 
         5293.229  7.752958e-16 
         5295.609  7.682129e-16 
         5297.989  7.564167e-16 
          5300.37  7.501442e-16 
          5302.75  7.314235e-16 
          5305.13  7.019388e-16 
          5307.51  6.921371e-16 
          5309.89  7.304389e-16 
          5312.27  7.836055e-16 
          5314.65  7.816848e-16 
          5317.03  7.787119e-16 
         5319.411   7.77449e-16 
         5321.791  7.676717e-16 
         5324.171  7.760291e-16 
         5326.551   8.10758e-16 
         5328.931   7.83475e-16 
         5331.311  7.460588e-16 
         5333.691  7.334734e-16 
         5336.071  7.516038e-16 
         5338.452  7.823941e-16 
         5340.832  7.627533e-16 
         5343.212   7.49586e-16 
         5345.592  7.446698e-16 
         5347.972  7.466518e-16 
         5350.352  7.552946e-16 
         5352.732  7.395207e-16 
         5355.112  7.489818e-16 
         5357.493  7.524754e-16 
         5359.873  7.679185e-16 
         5362.253  7.849559e-16 
         5364.633  7.385444e-16 
         5367.013  7.296676e-16 
         5369.393  7.557734e-16 
         5371.773  7.651272e-16 
         5374.153  7.503727e-16 
         5376.534  7.379796e-16 
         5378.914  7.214874e-16 
         5381.294  7.322509e-16 
         5383.674  7.361976e-16 
         5386.054  7.311719e-16 
         5388.435  7.501119e-16 
         5390.814  7.703477e-16 
         5393.195   7.58604e-16 
         5395.575   7.38294e-16 
         5397.955  7.234188e-16 
         5400.335  7.145799e-16 
         5402.715  7.232275e-16 
         5405.095    7.4039e-16 
         5407.476  7.326553e-16 
         5409.855  7.096828e-16 
         5412.236  7.141462e-16 
         5414.616  7.514645e-16 
         5416.996  7.630524e-16 
         5419.376  7.476229e-16 
         5421.756  7.505184e-16 
         5424.136   7.60997e-16 
         5426.517  7.535721e-16 
         5428.896  7.720602e-16 
         5431.277  8.014831e-16 
         5433.657   7.84603e-16 
         5436.037  7.592846e-16 
         5438.417  7.768572e-16 
         5440.797  7.985281e-16 
         5443.177  8.040439e-16 
         5445.558   7.92598e-16 
         5447.937  7.816174e-16 
         5450.318  7.801853e-16 
         5452.698  7.856312e-16 
         5455.078  7.994399e-16 
         5457.458  7.869518e-16 
         5459.838  7.737786e-16 
         5462.218  7.858315e-16 
         5464.599  7.959637e-16 
         5466.979  7.773697e-16 
         5469.359  7.932631e-16 
         5471.739  7.977703e-16 
         5474.119  7.820236e-16 
         5476.499   7.84318e-16 
         5478.879  7.893747e-16 
         5481.259  7.502808e-16 
          5483.64  7.399999e-16 
          5486.02  7.482169e-16 
           5488.4  7.602006e-16 
          5490.78  7.886253e-16 
          5493.16  7.552767e-16 
          5495.54  7.245913e-16 
          5497.92  7.265039e-16 
           5500.3  7.382296e-16 
         5502.681   7.47858e-16 
         5505.061  7.693674e-16 
         5507.441  7.754477e-16 
         5509.821  7.610828e-16 
         5512.201  7.483662e-16 
         5514.581  7.450622e-16 
         5516.961  7.389729e-16 
         5519.341  7.504891e-16 
         5521.722   7.61997e-16 
         5524.102  7.578065e-16 
         5526.482  7.583254e-16 
         5528.862   7.71841e-16 
         5531.242  7.473274e-16 
         5533.622  7.441032e-16 
         5536.002  7.499096e-16 
         5538.382  7.279127e-16 
         5540.763  7.006371e-16 
         5543.143  7.180888e-16 
         5545.523  7.500644e-16 
         5547.903  7.385876e-16 
         5550.283  7.190528e-16 
         5552.664  7.302029e-16 
         5555.043  7.306768e-16 
         5557.424  7.348625e-16 
         5559.804  7.073662e-16 
         5562.184  6.862001e-16 
         5564.564  6.898038e-16 
         5566.944  6.780561e-16 
         5569.324  6.875661e-16 
         5571.705  7.599686e-16 
         5574.084  8.780307e-16 
         5576.465  9.258242e-16 
         5578.845  8.293258e-16 
         5581.225  7.049424e-16 
         5583.605  6.794612e-16 
         5585.985  7.107891e-16 
         5588.365  7.510525e-16 
         5590.746  7.769492e-16 
         5593.125  7.604731e-16 
         5595.506  7.592891e-16 
         5597.886   7.32346e-16 
         5600.266  7.117746e-16 
         5602.646  7.335339e-16 
         5605.026  7.563841e-16 
         5607.406  7.571978e-16 
         5609.787  7.399252e-16 
         5612.167  7.205539e-16 
         5614.547  7.220286e-16 
         5616.927  7.475933e-16 
         5619.307  7.676121e-16 
         5621.687  7.791568e-16 
         5624.067  7.538214e-16 
         5626.447   7.29218e-16 
         5628.828  7.339202e-16 
         5631.208  7.193552e-16 
         5633.588  7.109439e-16 
         5635.968  7.436227e-16 
         5638.348  7.701841e-16 
         5640.728  7.643772e-16 
         5643.108   7.63254e-16 
         5645.488  7.524714e-16 
         5647.869  7.391573e-16 
         5650.249  7.469426e-16 
         5652.629  7.713795e-16 
         5655.009  7.849116e-16 
         5657.389  7.793992e-16 
         5659.769  7.581709e-16 
         5662.149  7.455979e-16 
         5664.529   7.59499e-16 
          5666.91  7.784007e-16 
          5669.29  7.691816e-16 
          5671.67   7.67223e-16 
          5674.05  7.777102e-16 
          5676.43  7.913124e-16 
          5678.81  7.897234e-16 
          5681.19  7.665764e-16 
          5683.57  7.572696e-16 
         5685.951  7.652725e-16 
         5688.331  7.857929e-16 
         5690.711  7.945309e-16 
         5693.091  7.816916e-16 
         5695.471  7.833838e-16 
         5697.851  7.852247e-16 
         5700.231  7.914544e-16 
         5702.611  8.005537e-16 
         5704.992  8.019645e-16 
         5707.372  8.006296e-16 
         5709.752  8.172745e-16 
         5712.132  8.777066e-16 
         5714.512  8.924149e-16 
         5716.892  8.367406e-16 
         5719.272  8.110125e-16 
         5721.652  8.080856e-16 
         5724.033  8.080499e-16 
         5726.413  8.061243e-16 
         5728.793  8.093214e-16 
         5731.173   8.09185e-16 
         5733.553  7.853155e-16 
         5735.934   7.82259e-16 
         5738.313  7.990669e-16 
         5740.694  8.037176e-16 
         5743.074  7.995291e-16 
         5745.454  8.143345e-16 
         5747.834  8.011882e-16 
         5750.214  7.919053e-16 
         5752.594  7.915098e-16 
         5754.975  7.872503e-16 
         5757.354  7.906589e-16 
         5759.735  8.019858e-16 
         5762.115  8.093232e-16 
         5764.495  8.125321e-16 
         5766.875    8.0505e-16 
         5769.255   7.88545e-16 
         5771.635  7.932243e-16 
         5774.016   8.03533e-16 
         5776.396  7.964619e-16 
         5778.776  7.949653e-16 
         5781.156  8.124282e-16 
         5783.536  8.023155e-16 
         5785.916  7.548024e-16 
         5788.296  7.425032e-16 
         5790.676  7.753529e-16 
         5793.057  7.957034e-16 
         5795.437  7.824712e-16 
         5797.817  7.914109e-16 
         5800.197  8.017679e-16 
         5802.577  7.994786e-16 
         5804.957  7.886769e-16 
         5807.337  7.797993e-16 
         5809.717  7.805521e-16 
         5812.098  7.572308e-16 
         5814.478  7.565321e-16 
         5816.858  7.712415e-16 
         5819.238  7.653153e-16 
         5821.618  7.631065e-16 
         5823.998  7.498008e-16 
         5826.378  7.475217e-16 
         5828.758  7.540291e-16 
         5831.139  7.675526e-16 
         5833.519  7.935364e-16 
         5835.899  7.886299e-16 
         5838.279  7.752474e-16 
         5840.659  7.632495e-16 
         5843.039  7.479643e-16 
         5845.419  7.359189e-16 
         5847.799  7.400061e-16 
          5850.18   7.52626e-16 
          5852.56   7.44546e-16 
          5854.94  7.285829e-16 
          5857.32  7.373389e-16 
           5859.7   7.58341e-16 
          5862.08    7.5344e-16 
          5864.46  7.257374e-16 
          5866.84   7.12626e-16 
         5869.221  7.169569e-16 
         5871.601   7.04884e-16 
         5873.981  6.912911e-16 
         5876.361  6.958705e-16 
         5878.741  7.086437e-16 
         5881.121  7.161867e-16 
         5883.501  7.250153e-16 
         5885.881  7.443691e-16 
         5888.262  7.556173e-16 
         5890.642  7.316767e-16 
         5893.022  7.143993e-16 
         5895.402  7.276307e-16 
         5897.782     7.101e-16 
         5900.163  6.898402e-16 
         5902.542  6.813052e-16 
         5904.923  6.898262e-16 
         5907.303  6.905514e-16 
         5909.683  6.663455e-16 
         5912.063  6.865151e-16 
         5914.443   7.21411e-16 
         5916.823  7.216841e-16 
         5919.204  6.920377e-16 
         5921.583  6.707357e-16 
         5923.964   6.66371e-16 
         5926.344  6.771756e-16 
         5928.724  6.724548e-16 
         5931.104  6.564059e-16 
         5933.484  6.564635e-16 
         5935.864  6.647838e-16 
         5938.245  6.556219e-16 
         5940.625  6.445652e-16 
         5943.005    6.4642e-16 
         5945.385  6.479663e-16 
         5947.765  6.437754e-16 
         5950.145  6.710026e-16 
         5952.525  6.711617e-16 
         5954.905    6.5974e-16 
         5957.286  6.591055e-16 
         5959.666  6.547198e-16 
         5962.046  6.585293e-16 
         5964.426  6.421633e-16 
         5966.806  6.294111e-16 
         5969.186  6.380737e-16 
         5971.566  6.513565e-16 
         5973.946     6.555e-16 
         5976.327  6.598745e-16 
         5978.707  6.632788e-16 
         5981.087  6.540607e-16 
         5983.467  6.376709e-16 
         5985.847  6.351544e-16 
         5988.227  6.434108e-16 
         5990.607  6.613779e-16 
         5992.987  6.551239e-16 
         5995.368  6.366289e-16 
         5997.748  6.419122e-16 
         6000.128  6.359821e-16 
         6002.508  6.398502e-16 
         6004.888  6.253119e-16 
         6007.268  6.093418e-16 
         6009.648  6.206412e-16 
         6012.028  6.210373e-16 
         6014.409  6.224458e-16 
         6016.789  6.202842e-16 
         6019.169  6.288066e-16 
         6021.549  6.372031e-16 
         6023.929  6.125949e-16 
         6026.309  6.001503e-16 
         6028.689  6.035485e-16 
         6031.069  6.108871e-16 
          6033.45  6.141936e-16 
          6035.83  6.152586e-16 
          6038.21  6.232547e-16 
          6040.59  6.344085e-16 
          6042.97  6.280492e-16 
          6045.35  6.129826e-16 
          6047.73   6.16541e-16 
          6050.11   6.34299e-16 
         6052.491  6.348815e-16 
         6054.871  6.277528e-16 
         6057.251  6.119556e-16 
         6059.631  5.919176e-16 
         6062.011  5.916375e-16 
         6064.391   6.01482e-16 
         6066.771  6.145414e-16 
         6069.152  6.200067e-16 
         6071.532  6.169895e-16 
         6073.912  6.133964e-16 
         6076.292  6.071213e-16 
         6078.672  5.995979e-16 
         6081.052  5.905005e-16 
         6083.433  5.895577e-16 
         6085.812   6.03405e-16 
         6088.193  6.115367e-16 
         6090.573  5.841482e-16 
         6092.953  5.685827e-16 
         6095.333  5.789253e-16 
         6097.713  5.810419e-16 
         6100.093  5.636057e-16 
         6102.474  5.620088e-16 
         6104.854  5.654349e-16 
         6107.234  5.648376e-16 
         6109.614  5.618569e-16 
         6111.994  5.595542e-16 
         6114.374  5.611332e-16 
         6116.754  5.566328e-16 
         6119.134  5.492694e-16 
         6121.515    5.5015e-16 
         6123.895  5.563148e-16 
         6126.275  5.488939e-16 
         6128.655  5.297646e-16 
         6131.035  5.235663e-16 
         6133.415  5.386631e-16 
         6135.795  5.551383e-16 
         6138.175  5.551659e-16 
         6140.556   5.55279e-16 
         6142.936  5.518351e-16 
         6145.316  5.501623e-16 
         6147.696  5.517145e-16 
         6150.076  5.495489e-16 
         6152.456  5.476375e-16 
         6154.836  5.393473e-16 
         6157.216  5.433275e-16 
         6159.597  5.491195e-16 
         6161.977  5.377387e-16 
         6164.357  5.334718e-16 
         6166.737  5.407861e-16 
         6169.117  5.424459e-16 
         6171.497  5.356002e-16 
         6173.877  5.238654e-16 
         6176.257  5.116722e-16 
         6178.638  5.249351e-16 
         6181.018  5.225772e-16 
         6183.398  5.121513e-16 
         6185.778  5.188548e-16 
         6188.158  5.308938e-16 
         6190.538  5.281396e-16 
         6192.918  5.174702e-16 
         6195.298  5.031086e-16 
         6197.679  4.990691e-16 
         6200.059  5.078889e-16 
         6202.439  5.055177e-16 
         6204.819  5.072267e-16 
         6207.199  5.060146e-16 
         6209.579  4.936981e-16 
         6211.959  4.856545e-16 
         6214.339  4.967404e-16 
          6216.72  4.963966e-16 
           6219.1  4.856705e-16 
          6221.48  4.908209e-16 
          6223.86  5.073054e-16 
          6226.24   5.06778e-16 
          6228.62  4.986306e-16 
           6231.0  4.888562e-16 
          6233.38  4.868142e-16 
         6235.761  4.867778e-16 
         6238.141  4.788913e-16 
         6240.521  4.718866e-16 
         6242.901  4.708028e-16 
         6245.281  4.745762e-16 
         6247.662  4.697888e-16 
         6250.042  4.653411e-16 
         6252.422  4.826525e-16 
         6254.802  4.846996e-16 
         6257.182  4.955356e-16 
         6259.562  4.964425e-16 
         6261.942  4.828692e-16 
         6264.322    4.8937e-16 
         6266.703  5.007911e-16 
         6269.083  4.902981e-16 
         6271.463  4.777191e-16 
         6273.843  4.772847e-16 
         6276.223  4.781721e-16 
         6278.603  4.788105e-16 
         6280.983  4.865704e-16 
         6283.363  4.975342e-16 
         6285.744  4.923207e-16 
         6288.124   4.57358e-16 
         6290.504  4.074118e-16 
         6292.884  3.905489e-16 
         6295.264  5.015617e-16 
         6297.644  6.996307e-16 
         6300.024  7.874912e-16 
         6302.404  6.610669e-16 
         6304.785  5.279624e-16 
         6307.165  5.172069e-16 
         6309.545  5.512867e-16 
         6311.925  5.433609e-16 
         6314.305  5.173046e-16 
         6316.685  5.235877e-16 
         6319.065  5.324466e-16 
         6321.445    5.2065e-16 
         6323.826  5.097483e-16 
         6326.206  5.166988e-16 
         6328.586  5.230173e-16 
         6330.966  5.295978e-16 
         6333.346  5.279645e-16 
         6335.726  5.148751e-16 
         6338.106   5.05715e-16 
         6340.486  5.145279e-16 
         6342.867  5.233246e-16 
         6345.247  5.169179e-16 
         6347.627  5.188255e-16 
         6350.007  5.236855e-16 
         6352.387  5.098188e-16 
         6354.767  4.972361e-16 
         6357.147  4.874667e-16 
         6359.527   5.43479e-16 
         6361.908  6.181925e-16 
         6364.288   6.15969e-16 
         6366.668  5.552511e-16 
         6369.048   5.23001e-16 
         6371.428  5.258024e-16 
         6373.808  5.331876e-16 
         6376.188  5.279711e-16 
         6378.568  5.160749e-16 
         6380.949  5.092564e-16 
         6383.329  5.137893e-16 
         6385.709   5.28838e-16 
         6388.089  5.350785e-16 
         6390.469  5.232409e-16 
         6392.849  5.175069e-16 
         6395.229  5.145103e-16 
         6397.609  5.087539e-16 
          6399.99  5.035181e-16 
          6402.37   4.99824e-16 
          6404.75  4.957701e-16 
          6407.13  5.052617e-16 
          6409.51  5.103279e-16 
          6411.89  5.060402e-16 
         6414.271  5.013746e-16 
         6416.651   4.98831e-16 
         6419.031  4.934378e-16 
         6421.411  4.826551e-16 
         6423.791  4.748276e-16 
         6426.171  4.824908e-16 
         6428.551  4.994094e-16 
         6430.932  5.020867e-16 
         6433.312  5.061807e-16 
         6435.692  5.010819e-16 
         6438.072  4.923447e-16 
         6440.452  4.906982e-16 
         6442.832  4.831343e-16 
         6445.212  4.701346e-16 
         6447.592   4.76104e-16 
         6449.973  4.870529e-16 
         6452.353  4.836991e-16 
         6454.733  4.788384e-16 
         6457.113  4.858331e-16 
         6459.493  4.950538e-16 
         6461.873  4.918253e-16 
         6464.253  4.847424e-16 
         6466.633  4.879483e-16 
         6469.014  4.892793e-16 
         6471.394  4.829179e-16 
         6473.774  4.785522e-16 
         6476.154   4.78825e-16 
         6478.534   4.83603e-16 
         6480.914  4.940851e-16 
         6483.294  4.895447e-16 
         6485.674  4.717717e-16 
         6488.055  4.623823e-16 
         6490.435  4.684331e-16 
         6492.815   4.75609e-16 
         6495.195  4.819539e-16 
         6497.575  5.001167e-16 
         6499.955  5.101596e-16 
         6502.335  5.041761e-16 
         6504.715  4.915868e-16 
         6507.096  4.672961e-16 
         6509.476  4.554451e-16 
         6511.856  4.640954e-16 
         6514.236   4.71077e-16 
         6516.616  4.680948e-16 
         6518.996  4.729784e-16 
         6521.376  4.644566e-16 
         6523.756  4.616376e-16 
         6526.137  4.669256e-16 
         6528.517  4.768328e-16 
         6530.897  4.946975e-16 
         6533.277   4.99706e-16 
         6535.657  4.829992e-16 
         6538.037  4.712349e-16 
         6540.417  4.733029e-16 
         6542.797   4.78384e-16 
         6545.178  4.917604e-16 
         6547.558  4.886942e-16 
         6549.938  4.772194e-16 
         6552.318  4.705319e-16 
         6554.698  4.707169e-16 
         6557.078  4.759065e-16 
         6559.458   4.78338e-16 
         6561.838  4.751735e-16 
         6564.219  4.694359e-16 
         6566.599  4.662252e-16 
         6568.979  4.638331e-16 
         6571.359  4.538724e-16 
         6573.739  4.576145e-16 
         6576.119  4.641719e-16 
           6578.5  4.539613e-16 
         6580.879  4.385978e-16 
          6583.26  4.482373e-16 
          6585.64  4.706812e-16 
          6588.02  4.804764e-16 
           6590.4   4.71717e-16 
          6592.78  4.588258e-16 
         6595.161  4.537424e-16 
         6597.541  4.507842e-16 
         6599.921  4.441604e-16 
         6602.301  4.494573e-16 
         6604.681  4.639042e-16 
         6607.061  4.621255e-16 
         6609.441  4.534328e-16 
         6611.821  4.438328e-16 
         6614.202  4.381479e-16 
         6616.582  4.438099e-16 
         6618.962  4.580959e-16 
         6621.342  4.617644e-16 
         6623.722  4.556286e-16 
         6626.102  4.500373e-16 
         6628.482  4.453459e-16 
         6630.862   4.41436e-16 
         6633.243  4.444333e-16 
         6635.623   4.42297e-16 
         6638.003  4.467114e-16 
         6640.383  4.601429e-16 
         6642.763  4.695622e-16 
         6645.143  4.659839e-16 
         6647.523  4.563325e-16 
         6649.903  4.491717e-16 
         6652.284  4.485978e-16 
         6654.664  4.539462e-16 
         6657.044  4.560377e-16 
         6659.424   4.44518e-16 
         6661.804  4.421949e-16 
         6664.184  4.473627e-16 
         6666.564  4.485091e-16 
         6668.944  4.436362e-16 
         6671.325  4.387799e-16 
         6673.705  4.380911e-16 
         6676.085  4.318503e-16 
         6678.465  4.307926e-16 
         6680.845  4.400108e-16 
         6683.225  4.441745e-16 
         6685.605  4.449706e-16 
         6687.985  4.397855e-16 
         6690.366  4.393383e-16 
         6692.746  4.415959e-16 
         6695.126  4.373012e-16 
         6697.506  4.377038e-16 
         6699.886  4.347123e-16 
         6702.266  4.203302e-16 
         6704.646  4.096134e-16 
         6707.026   4.16592e-16 
         6709.407  4.279138e-16 
         6711.787  4.336097e-16 
         6714.167   4.41319e-16 
         6716.547  4.465351e-16 
         6718.927  4.425639e-16 
         6721.307  4.384301e-16 
         6723.688  4.445767e-16 
         6726.067  4.526404e-16 
         6728.448  4.502157e-16 
         6730.828  4.371717e-16 
         6733.208  4.277454e-16 
         6735.588   4.32851e-16 
         6737.968  4.349568e-16 
         6740.348  4.353526e-16 
         6742.729  4.365604e-16 
         6745.108  4.370957e-16 
         6747.489  4.406486e-16 
         6749.869  4.437077e-16 
         6752.249  4.378959e-16 
         6754.629  4.283679e-16 
         6757.009  4.248942e-16 
         6759.389  4.298197e-16 
          6761.77  4.414536e-16 
          6764.15  4.400412e-16 
          6766.53  4.330229e-16 
          6768.91  4.288265e-16 
          6771.29  4.266423e-16 
          6773.67  4.340644e-16 
          6776.05   4.29974e-16 
         6778.431  4.210115e-16 
         6780.811  4.146834e-16 
         6783.191  4.114766e-16 
         6785.571  4.143452e-16 
         6787.951  4.101569e-16 
         6790.331  4.108832e-16 
         6792.711  4.172957e-16 
         6795.091    4.2159e-16 
         6797.472  4.224809e-16 
         6799.852  4.170555e-16 
         6802.232  4.178585e-16 
         6804.612  4.319639e-16 
         6806.992  4.432471e-16 
         6809.372  4.319002e-16 
         6811.752  4.094195e-16 
         6814.132  4.026562e-16 
         6816.513  4.058944e-16 
         6818.893  4.101104e-16 
         6821.273  4.087735e-16 
         6823.653  3.957214e-16 
         6826.033  4.012327e-16 
         6828.413  4.123037e-16 
         6830.793  4.162509e-16 
         6833.173  4.116512e-16 
         6835.554   4.00375e-16 
         6837.934  3.959434e-16 
         6840.314  3.944435e-16 
         6842.694  3.930987e-16 
         6845.074  3.933162e-16 
         6847.454   3.93325e-16 
         6849.834  3.887174e-16 
         6852.214  3.877735e-16 
         6854.595  3.897421e-16 
         6856.975  4.018512e-16 
         6859.355   4.22764e-16 
         6861.735  4.257873e-16 
         6864.115  4.059878e-16 
         6866.495  3.850225e-16 
         6868.875   3.87039e-16 
         6871.255  4.053245e-16 
         6873.636  4.111115e-16 
         6876.016  4.049269e-16 
         6878.396  4.019256e-16 
         6880.776  3.988813e-16 
         6883.156  3.943244e-16 
         6885.536  3.957738e-16 
         6887.917  3.984885e-16 
         6890.296  3.996044e-16 
         6892.677  3.959797e-16 
         6895.057  3.960985e-16 
         6897.437  4.031685e-16 
         6899.817  4.034157e-16 
         6902.197  4.044273e-16 
         6904.577  4.082839e-16 
         6906.958  4.126601e-16 
         6909.337  4.109095e-16 
         6911.718  3.968903e-16 
         6914.098  3.795171e-16 
         6916.478  3.805778e-16 
         6918.858  4.011254e-16 
         6921.238  4.158536e-16 
         6923.618  4.083837e-16 
         6925.999  4.012267e-16 
         6928.378  4.075058e-16 
         6930.759  4.179283e-16 
         6933.139  4.222251e-16 
         6935.519  4.246229e-16 
         6937.899  4.318535e-16 
         6940.279  4.292965e-16 
          6942.66  4.237769e-16 
          6945.04  4.279168e-16 
          6947.42  4.385474e-16 
           6949.8  4.398743e-16 
          6952.18  4.302036e-16 
          6954.56  4.337379e-16 
          6956.94  4.428336e-16 
          6959.32  4.413591e-16 
         6961.701   4.37474e-16 
         6964.081  4.459041e-16 
         6966.461   4.51106e-16 
         6968.841  4.454254e-16 
         6971.221  4.424237e-16 
         6973.601  4.524975e-16 
         6975.981  4.615854e-16 
         6978.361  4.571543e-16 
         6980.742  4.494858e-16 
         6983.122  4.426172e-16 
         6985.502  4.345245e-16 
         6987.882  4.350019e-16 
         6990.262  4.577247e-16 
         6992.642  4.747212e-16 
         6995.022  4.719316e-16 
         6997.402  4.601819e-16 
         6999.783  4.536516e-16 
         7002.163  4.560365e-16 
         7004.543  4.703734e-16 
         7006.923  4.797837e-16 
         7009.303   4.73515e-16 
         7011.683  4.633361e-16 
         7014.063  4.626176e-16 
         7016.443  4.540406e-16 
         7018.824  4.471699e-16 
         7021.204  4.541338e-16 
         7023.584  4.676556e-16 
         7025.964  4.712509e-16 
         7028.344  4.647756e-16 
         7030.724  4.586677e-16 
         7033.104  4.582294e-16 
         7035.484  4.643545e-16 
         7037.865  4.718742e-16 
         7040.245  4.668124e-16 
         7042.625  4.523405e-16 
         7045.005  4.515131e-16 
         7047.385  4.625873e-16 
         7049.765  4.664878e-16 
         7052.146  4.651585e-16 
         7054.525  4.646107e-16 
         7056.906  4.669864e-16 
         7059.286  4.666437e-16 
         7061.666  4.634882e-16 
         7064.046  4.664743e-16 
         7066.426  4.725293e-16 
         7068.806  4.684257e-16 
         7071.187  4.633688e-16 
         7073.566   4.63317e-16 
         7075.947  4.594776e-16 
         7078.327  4.563492e-16 
         7080.707  4.617294e-16 
         7083.087  4.619293e-16 
         7085.467  4.565744e-16 
         7087.847  4.572039e-16 
         7090.228  4.585922e-16 
         7092.607  4.570672e-16 
         7094.988  4.555046e-16 
         7097.368  4.493521e-16 
         7099.748  4.392142e-16 
         7102.128  4.363701e-16 
         7104.508  4.363157e-16 
         7106.889   4.34343e-16 
         7109.269  4.296266e-16 
         7111.649  4.322642e-16 
         7114.029  4.451619e-16 
         7116.409  4.452432e-16 
         7118.789  4.411184e-16 
         7121.169  4.401379e-16 
         7123.549  4.419763e-16 
          7125.93  4.439549e-16 
          7128.31  4.451341e-16 
          7130.69  4.482259e-16 
          7133.07   4.41554e-16 
          7135.45  4.364444e-16 
          7137.83  4.456941e-16 
          7140.21  4.565739e-16 
          7142.59  4.614913e-16 
         7144.971  4.440061e-16 
         7147.351  4.271475e-16 
         7149.731  4.328448e-16 
         7152.111  4.450889e-16 
         7154.491  4.429569e-16 
         7156.871  4.388452e-16 
         7159.251  4.439841e-16 
         7161.631  4.483515e-16 
         7164.012  4.417187e-16 
         7166.392  4.329991e-16 
         7168.772  4.174894e-16 
         7171.152  4.108985e-16 
         7173.532  4.183438e-16 
         7175.912  4.280987e-16 
         7178.292  4.250311e-16 
         7180.672  3.984389e-16 
         7183.053  3.879034e-16 
         7185.433  3.976472e-16 
         7187.813  4.026443e-16 
         7190.193  3.976325e-16 
         7192.573  4.012768e-16 
         7194.953  4.035407e-16 
         7197.333  4.009421e-16 
         7199.713  4.025012e-16 
         7202.094  4.109081e-16 
         7204.474  4.125523e-16 
         7206.854  4.019916e-16 
         7209.234  3.970636e-16 
         7211.614  4.083269e-16 
         7213.994  4.258013e-16 
         7216.375  4.339778e-16 
         7218.754  4.310706e-16 
         7221.135  4.201032e-16 
         7223.515  4.039486e-16 
         7225.895  3.975041e-16 
         7228.275  4.072742e-16 
         7230.655  4.044846e-16 
         7233.035  4.082899e-16 
         7235.416  4.202036e-16 
         7237.795  4.233472e-16 
         7240.176  4.189938e-16 
         7242.556  4.304978e-16 
         7244.936  4.433873e-16 
         7247.316  4.296284e-16 
         7249.696  4.123257e-16 
         7252.076  4.168946e-16 
         7254.457  4.194953e-16 
         7256.836  4.135324e-16 
         7259.217  4.086991e-16 
         7261.597  4.021179e-16 
         7263.977  3.952214e-16 
         7266.357  3.962976e-16 
         7268.737   3.95247e-16 
         7271.117  4.008921e-16 
         7273.498  4.127519e-16 
         7275.877  4.144633e-16 
         7278.258  4.064549e-16 
         7280.638  4.182822e-16 
         7283.018  4.384553e-16 
         7285.398  4.368301e-16 
         7287.778   4.16662e-16 
         7290.159  4.044603e-16 
         7292.539  4.084853e-16 
         7294.919  4.139798e-16 
         7297.299  4.072984e-16 
         7299.679  4.036722e-16 
         7302.059  4.108505e-16 
         7304.439  4.118486e-16 
         7306.819  4.057133e-16 
           7309.2  4.172388e-16 
          7311.58  4.333361e-16 
          7313.96  4.399329e-16 
          7316.34  4.379752e-16 
          7318.72  4.238097e-16 
           7321.1  4.161376e-16 
          7323.48  4.144347e-16 
          7325.86  4.204894e-16 
         7328.241  4.296928e-16 
         7330.621  4.237432e-16 
         7333.001  4.111481e-16 
         7335.381  4.127611e-16 
         7337.761  4.399568e-16 
         7340.141  4.633229e-16 
         7342.521  4.468232e-16 
         7344.901  4.204859e-16 
         7347.282  4.134794e-16 
         7349.662  4.229423e-16 
         7352.042   4.30688e-16 
         7354.422  4.275628e-16 
         7356.802     4.185e-16 
         7359.182  4.098011e-16 
         7361.563  4.053051e-16 
         7363.942  4.084262e-16 
         7366.323  4.225676e-16 
         7368.703  4.400994e-16 
         7371.083  4.333849e-16 
         7373.463  4.160205e-16 
         7375.843  4.071238e-16 
         7378.223  4.059465e-16 
         7380.604  4.061281e-16 
         7382.983  4.147347e-16 
         7385.364  4.071899e-16 
         7387.744  3.933855e-16 
         7390.124  3.906685e-16 
         7392.504  3.955396e-16 
         7394.884   3.99309e-16 
         7397.264  4.042865e-16 
         7399.645  4.136288e-16 
         7402.024  4.173219e-16 
         7404.405  4.044664e-16 
         7406.785  3.842938e-16 
         7409.165  3.801747e-16 
         7411.545  3.887792e-16 
         7413.925   3.87509e-16 
         7416.305  3.731516e-16 
         7418.686  3.632865e-16 
         7421.065  3.578201e-16 
         7423.446  3.662299e-16 
         7425.826  3.732824e-16 
         7428.206  3.720202e-16 
         7430.586  3.744043e-16 
         7432.966  3.812858e-16 
         7435.346  3.824314e-16 
         7437.727  3.823164e-16 
         7440.106  3.774595e-16 
         7442.487  3.652405e-16 
         7444.867  3.576066e-16 
         7447.247  3.543772e-16 
         7449.627  3.646472e-16 
         7452.007  3.753639e-16 
         7454.388  3.715949e-16 
         7456.768  3.632949e-16 
         7459.148  3.665368e-16 
         7461.528  3.668489e-16 
         7463.908  3.678164e-16 
         7466.288  3.742533e-16 
         7468.668  3.772592e-16 
         7471.048  3.742935e-16 
         7473.429  3.819172e-16 
         7475.809  3.805157e-16 
         7478.189  3.733904e-16 
         7480.569  3.755457e-16 
         7482.949   3.74113e-16 
         7485.329  3.681679e-16 
         7487.709    3.5868e-16 
         7490.089  3.502258e-16 
          7492.47  3.527795e-16 
          7494.85  3.640281e-16 
          7497.23  3.576852e-16 
          7499.61  3.560059e-16 
          7501.99  3.590262e-16 
          7504.37  3.595471e-16 
          7506.75  3.595832e-16 
          7509.13  3.547909e-16 
         7511.511  3.452116e-16 
         7513.891  3.339819e-16 
         7516.271  3.338311e-16 
         7518.651  3.454717e-16 
         7521.031  3.492459e-16 
         7523.411  3.474275e-16 
         7525.792  3.477274e-16 
         7528.171  3.589073e-16 
         7530.552  3.719489e-16 
         7532.932  3.633693e-16 
         7535.312  3.342562e-16 
         7537.692  3.233635e-16 
         7540.072   3.34433e-16 
         7542.452  3.478127e-16 
         7544.833  3.508405e-16 
         7547.212  3.423661e-16 
         7549.593  3.321189e-16 
         7551.973  3.282656e-16 
         7554.353  3.341405e-16 
         7556.733  3.440573e-16 
         7559.113  3.481039e-16 
         7561.493  3.501471e-16 
         7563.874  3.463909e-16 
         7566.253  3.488609e-16 
         7568.634  3.593878e-16 
         7571.014  3.572449e-16 
         7573.394  3.404887e-16 
         7575.774  3.274439e-16 
         7578.154   3.35146e-16 
         7580.534   3.54499e-16 
         7582.915  3.608927e-16 
         7585.294  3.501745e-16 
         7587.675  3.436986e-16 
         7590.055  3.468195e-16 
         7592.435  3.463358e-16 
         7594.815  3.357648e-16 
         7597.195  3.278494e-16 
         7599.575  3.301737e-16 
         7601.956  3.423602e-16 
         7604.335   3.57412e-16 
         7606.716   3.67199e-16 
         7609.096  3.687538e-16 
         7611.476  3.674092e-16 
         7613.856  3.735575e-16 
         7616.236  3.812381e-16 
         7618.616  3.825049e-16 
         7620.997  3.588204e-16 
         7623.376  2.913036e-16 
         7625.757  2.750272e-16 
         7628.137  2.957187e-16 
         7630.517  3.115478e-16 
         7632.897  3.170513e-16 
         7635.277  3.180489e-16 
         7637.658  3.257137e-16 
         7640.038  3.366372e-16 
         7642.418  3.443685e-16 
         7644.798  3.450201e-16 
         7647.178  3.410394e-16 
         7649.558  3.443674e-16 
         7651.938  3.512779e-16 
         7654.318  3.428029e-16 
         7656.699  3.216728e-16 
         7659.079  3.118837e-16 
         7661.459  3.171381e-16 
         7663.839  3.176186e-16 
         7666.219  3.086807e-16 
         7668.599  3.001343e-16 
         7670.979  2.968312e-16 
         7673.359  2.935049e-16 
          7675.74  2.938359e-16 
          7678.12  2.930756e-16 
           7680.5  2.914124e-16 
          7682.88  2.944035e-16 
          7685.26  3.020925e-16 
          7687.64  3.056229e-16 
         7690.021  3.027635e-16 
           7692.4  3.013076e-16 
         7694.781  3.034898e-16 
         7697.161  3.024337e-16 
         7699.541  2.953842e-16 
         7701.921  2.851465e-16 
         7704.301  2.711341e-16 
         7706.681  2.709531e-16 
         7709.062  3.041103e-16 
         7711.441  3.580653e-16 
         7713.822  3.974508e-16 
         7716.202  3.860667e-16 
         7718.582  3.464772e-16 
         7720.962  3.199719e-16 
         7723.342  3.146713e-16 
         7725.722  3.240596e-16 
         7728.103  3.228365e-16 
         7730.482  3.168932e-16 
         7732.863   3.20771e-16 
         7735.243  3.266669e-16 
         7737.623  3.154236e-16 
         7740.003  2.890187e-16 
         7742.383  2.764511e-16 
         7744.763  2.955957e-16 
         7747.144   3.38528e-16 
         7749.523  3.770658e-16 
         7751.904  3.639519e-16 
         7754.284  3.136674e-16 
         7756.664  2.974795e-16 
         7759.044  3.256404e-16 
         7761.424  3.262396e-16 
         7763.804  2.954954e-16 
         7766.185   2.82942e-16 
         7768.564  2.948791e-16 
         7770.945  3.210234e-16 
         7773.325  3.505431e-16 
         7775.705  3.483255e-16 
         7778.085   3.27239e-16 
         7780.465  3.147488e-16 
         7782.845  3.109941e-16 
         7785.226  2.981374e-16 
         7787.605  2.831991e-16 
         7789.986   3.05539e-16 
         7792.366  3.484208e-16 
         7794.746  3.559478e-16 
         7797.126  3.158412e-16 
         7799.506  2.810057e-16 
         7801.887  2.826646e-16 
         7804.267  2.986576e-16 
         7806.647  3.215434e-16 
         7809.027  3.260032e-16 
         7811.407  2.884512e-16 
         7813.787  2.604011e-16 
         7816.167  2.796652e-16 
         7818.547  3.339218e-16 
         7820.928  3.650634e-16 
         7823.308  3.419277e-16 
         7825.688  3.065282e-16 
         7828.068  2.920042e-16 
         7830.448  2.892246e-16 
         7832.828  2.794117e-16 
         7835.208   2.72927e-16 
         7837.588  2.928273e-16 
         7839.969  3.162088e-16 
         7842.349  3.140235e-16 
         7844.729  2.730426e-16 
         7847.109    2.4213e-16 
         7849.489  2.847391e-16 
         7851.869  3.675169e-16 
          7854.25  3.989826e-16 
         7856.629  3.563054e-16 
          7859.01  3.066149e-16 
          7861.39  2.979912e-16 
          7863.77  2.917842e-16 
          7866.15  2.895677e-16 
          7868.53  3.094002e-16 
          7870.91  3.229921e-16 
         7873.291  3.098397e-16 
          7875.67  3.024062e-16 
         7878.051  3.118401e-16 
         7880.431  3.098216e-16 
         7882.811  3.025226e-16 
         7885.191  3.044196e-16 
         7887.571  3.100233e-16 
         7889.951  3.139395e-16 
         7892.332  2.985522e-16 
         7894.711  2.784344e-16 
         7897.092  2.702786e-16 
         7899.472  2.698356e-16 
         7901.852  2.648653e-16 
         7904.232  2.548775e-16 
         7906.612  2.566426e-16 
         7908.992  2.873295e-16 
         7911.373  3.411235e-16 
         7913.752  3.813126e-16 
         7916.133  3.702009e-16 
         7918.513  3.450118e-16 
         7920.893  3.404723e-16 
         7923.273  3.362843e-16 
         7925.653  3.091282e-16 
         7928.033   3.03218e-16 
         7930.414  3.244285e-16 
         7932.793  3.286379e-16 
         7935.174  3.077199e-16 
         7937.554   2.95706e-16 
         7939.934  3.009133e-16 
         7942.314  2.997489e-16 
         7944.694  3.095889e-16 
         7947.074  3.347775e-16 
         7949.455   3.42906e-16 
         7951.834  3.121465e-16 
         7954.215  2.831028e-16 
         7956.595  2.756627e-16 
         7958.975  2.828398e-16 
         7961.355  3.274466e-16 
         7963.735  4.033528e-16 
         7966.115  3.932804e-16 
         7968.496  3.232119e-16 
         7970.875  2.916218e-16 
         7973.256  3.107777e-16 
         7975.636  3.349684e-16 
         7978.016  3.633467e-16 
         7980.396  3.541064e-16 
         7982.776  2.994402e-16 
         7985.157  2.581059e-16 
         7987.537  2.849129e-16 
         7989.917   3.60896e-16 
         7992.297  4.232668e-16 
         7994.677  4.158791e-16 
         7997.057  3.424484e-16 
         7999.438  2.812932e-16 
         8001.817  2.880805e-16 
         8004.198  2.991435e-16 
         8006.578  3.074437e-16 
         8008.958  3.192829e-16 
         8011.338  3.369907e-16 
         8013.718  3.474559e-16 
         8016.098  3.307487e-16 
         8018.479  3.142026e-16 
         8020.858  3.346355e-16 
         8023.239  3.769319e-16 
         8025.619  3.936004e-16 
         8027.999  3.654078e-16 
         8030.379  3.226949e-16 
         8032.759  3.213285e-16 
         8035.139  3.350603e-16 
          8037.52  3.323784e-16 
         8039.899  3.313901e-16 
          8042.28   3.32903e-16 
          8044.66  3.282557e-16 
          8047.04  3.225034e-16 
          8049.42  3.314584e-16 
           8051.8  3.428617e-16 
          8054.18  3.200027e-16 
         8056.561  3.053074e-16 
          8058.94  3.345135e-16 
         8061.321  3.716894e-16 
         8063.701  3.667506e-16 
         8066.081  3.304118e-16 
         8068.461  3.050937e-16 
         8070.841  3.055238e-16 
         8073.221  3.190007e-16 
         8075.602  3.252437e-16 
         8077.981   3.24217e-16 
         8080.362  3.356983e-16 
         8082.742  3.225337e-16 
         8085.122  3.104911e-16 
         8087.502  3.165237e-16 
         8089.882  3.227869e-16 
         8092.262  3.284103e-16 
         8094.643  3.251133e-16 
         8097.022  3.169965e-16 
         8099.403  3.223612e-16 
         8101.783  3.356437e-16 
         8104.163  3.256345e-16 
         8106.543  3.049949e-16 
         8108.923  3.057333e-16 
         8111.303  3.090002e-16 
         8113.684  2.995674e-16 
         8116.063  2.974815e-16 
         8118.444  3.007852e-16 
         8120.824  2.990377e-16 
         8123.204  3.004883e-16 
         8125.584  3.068784e-16 
         8127.964  3.040178e-16 
         8130.344   2.86091e-16 
         8132.725  2.710937e-16 
         8135.104  2.760596e-16 
         8137.485  2.876735e-16 
         8139.865  2.898112e-16 
         8142.245  2.900081e-16 
         8144.625  2.887148e-16 
         8147.005  2.856061e-16 
         8149.386    2.8326e-16 
         8151.766  2.747942e-16 
         8154.146  2.599112e-16 
         8156.526  2.659062e-16 
         8158.906  2.661068e-16 
         8161.286  2.675874e-16 
         8163.667  2.707769e-16 
         8166.046  2.627562e-16 
         8168.427  2.594161e-16 
         8170.807  2.688618e-16 
         8173.187  2.601005e-16 
         8175.567  2.412959e-16 
         8177.947  2.424924e-16 
         8180.327  2.565272e-16 
         8182.708  2.630759e-16 
         8185.087  2.659801e-16 
         8187.468  2.667454e-16 
         8189.848  2.606024e-16 
         8192.228  2.520091e-16 
         8194.608  2.545562e-16 
         8196.988  2.520399e-16 
         8199.368  2.506033e-16 
         8201.748  2.586812e-16 
         8204.129  2.672444e-16 
         8206.509  2.647379e-16 
         8208.889   2.53728e-16 
         8211.269   2.47348e-16 
         8213.649   2.48992e-16 
         8216.029  2.492905e-16 
         8218.409  2.418233e-16 
         8220.789  2.354764e-16 
          8223.17  2.333074e-16 
          8225.55  2.300243e-16 
          8227.93  2.243764e-16 
          8230.31   2.23875e-16 
          8232.69  2.327361e-16 
          8235.07  2.431044e-16 
          8237.45  2.456183e-16 
          8239.83  2.466849e-16 
         8242.211  2.549328e-16 
         8244.591  2.581231e-16 
         8246.971    2.4603e-16 
         8249.351  2.309765e-16 
         8251.731  2.194649e-16 
         8254.111  2.179971e-16 
         8256.491  2.349283e-16 
         8258.871  2.406871e-16 
         8261.252  2.293417e-16 
         8263.632   2.21266e-16 
         8266.012  2.272107e-16 
         8268.392  2.284827e-16 
         8270.772   2.05682e-16 
         8273.152   1.87809e-16 
         8275.532  2.073156e-16 
         8277.912  2.509862e-16 
         8280.293  2.731378e-16 
         8282.673  2.615167e-16 
         8285.053  2.706092e-16 
         8287.433  2.902819e-16 
         8289.813  2.668476e-16 
         8292.193  2.198089e-16 
         8294.573  2.415323e-16 
         8296.953  3.024619e-16 
         8299.334  3.031039e-16 
         8301.714   2.43511e-16 
         8304.094  2.047775e-16 
         8306.474  2.261316e-16 
         8308.854  2.554284e-16 
         8311.234  2.533488e-16 
         8313.614  2.268806e-16 
         8315.994  2.071856e-16 
         8318.375  2.069539e-16 
         8320.755   2.08223e-16 
         8323.135  2.100053e-16 
         8325.516  2.175109e-16 
         8327.896   2.17696e-16 
         8330.275  2.005946e-16 
         8332.655  1.825695e-16 
         8335.036  1.747719e-16 
         8337.416     1.663e-16 
         8339.796  2.293967e-16 
         8342.176  3.564444e-16 
         8344.557  3.906284e-16 
         8346.937  2.770519e-16 
         8349.316  2.182681e-16 
         8351.696  2.513576e-16 
         8354.077   2.66823e-16 
         8356.457  2.179677e-16 
         8358.837  1.833202e-16 
         8361.217   1.96428e-16 
         8363.598  2.229061e-16 
         8365.978  2.218064e-16 
         8368.357  1.975209e-16 
         8370.737   1.83773e-16 
         8373.118  1.790593e-16 
         8375.498  1.871128e-16 
         8377.878  2.126213e-16 
         8380.258  2.406918e-16 
         8382.639  2.356685e-16 
         8385.019  1.810411e-16 
         8387.398  1.414594e-16 
         8389.778  1.238109e-16 
         8392.159  1.190645e-16 
         8394.539  1.779432e-16 
         8396.919   3.32611e-16 
         8399.299  3.786963e-16 
          8401.68  2.632012e-16 
          8404.06  1.498481e-16 
         8406.439  1.529143e-16 
         8408.819  1.878533e-16 
           8411.2  2.354025e-16 
          8413.58  2.723406e-16 
          8415.96  2.405835e-16 
          8418.34  1.517449e-16 
         8420.721  1.014915e-16 
         8423.101  1.242909e-16 
          8425.48  2.340943e-16 
          8427.86  3.677934e-16 
         8430.241  3.909768e-16 
         8432.621  2.690635e-16 
         8435.001  1.749245e-16 
         8437.381  1.762061e-16 
         8439.762  1.911034e-16 
         8442.142   1.96276e-16 
         8444.521  2.208993e-16 
         8446.901  2.354861e-16 
         8449.282  2.329729e-16 
         8451.662   2.24527e-16 
         8454.042   1.95718e-16 
         8456.422  1.590098e-16 
         8458.803  1.732379e-16 
         8461.183  2.490531e-16 
         8463.563  3.100991e-16 
         8465.942  2.762326e-16 
         8468.323  1.917517e-16 
         8470.703  1.685048e-16 
         8473.083  2.042953e-16 
         8475.463  2.047535e-16 
         8477.844  1.962364e-16 
         8480.224  1.994453e-16 
         8482.604  1.968076e-16 
         8484.983  1.950204e-16 
         8487.364  1.838108e-16 
         8489.744  1.992572e-16 
         8492.124  2.306193e-16 
         8494.505  2.288508e-16 
         8496.885  1.912117e-16 
         8499.265  1.881274e-16 
         8501.645   2.38485e-16 
         8504.025  2.713702e-16 
         8506.405  2.425017e-16 
         8508.785  1.976359e-16 
         8511.165   1.94884e-16 
         8513.546  2.062255e-16 
         8515.926   2.10502e-16 
         8518.306  2.015622e-16 
         8520.686  1.878677e-16 
         8523.066  1.903101e-16 
         8525.446  2.082332e-16 
         8527.826  2.177536e-16 
         8530.206  2.154815e-16 
         8532.587  2.109198e-16 
         8534.967  2.111872e-16 
         8537.347   2.27626e-16 
         8539.727  2.250671e-16 
         8542.107  2.113081e-16 
         8544.487  2.170079e-16 
         8546.867  2.382218e-16 
         8549.247  2.377211e-16 
         8551.628  2.188746e-16 
         8554.008  2.074804e-16 
         8556.388  2.086792e-16 
         8558.768  2.120792e-16 
         8561.148   2.17323e-16 
         8563.528  2.210594e-16 
         8565.908  2.201296e-16 
         8568.288   2.21629e-16 
         8570.669   2.24345e-16 
         8573.049  2.191062e-16 
         8575.429  2.186921e-16 
         8577.809  2.150322e-16 
         8580.189  2.147422e-16 
         8582.569  2.142156e-16 
         8584.949  2.019766e-16 
         8587.329   1.93977e-16 
          8589.71  1.961167e-16 
          8592.09  2.035887e-16 
          8594.47  2.147885e-16 
          8596.85  2.218479e-16 
          8599.23  2.126604e-16 
          8601.61  2.130355e-16 
          8603.99  2.155167e-16 
          8606.37  2.174696e-16 
         8608.751  2.209203e-16 
         8611.131   2.20905e-16 
         8613.511  2.243089e-16 
         8615.891  2.342339e-16 
         8618.271  2.416846e-16 
         8620.651  2.449809e-16 
         8623.031  2.465524e-16 
         8625.411   2.36131e-16 
         8627.792  2.272652e-16 
         8630.172  2.374177e-16 
         8632.552  2.543552e-16 
         8634.932  2.539573e-16 
         8637.313  2.381919e-16 
         8639.692  2.240336e-16 
         8642.072  2.162044e-16 
 8644.45200000002  2.155423e-16 
         8646.833   2.22879e-16 
         8649.213  2.311532e-16 
         8651.593  2.272541e-16 
         8653.973  2.387985e-16 
         8656.354   2.53759e-16 
         8658.733  2.540166e-16 
         8661.113   2.46322e-16 
         8663.494  2.342784e-16 
         8665.874  2.239942e-16 
         8668.254  2.294749e-16 
         8670.634  2.464723e-16 
         8673.015  2.530031e-16 
         8675.395  2.431585e-16 
         8677.774  2.460795e-16 
         8680.154  2.475708e-16 
         8682.535  2.410166e-16 
         8684.915  2.391232e-16 
         8687.295  2.431129e-16 
         8689.675  2.342052e-16 
         8692.056  2.223317e-16 
         8694.436  2.234143e-16 
         8696.815  2.317861e-16 
         8699.195  2.323606e-16 
         8701.576  2.308521e-16 
         8703.956  2.299692e-16 
         8706.336  2.254631e-16 
         8708.716  2.250747e-16 
         8711.097  2.281604e-16 
         8713.477  2.161632e-16 
         8715.856  2.138288e-16 
         8718.236  2.116513e-16 
         8720.617  2.181499e-16 
         8722.997  2.344023e-16 
         8725.377  2.339957e-16 
         8727.757  2.270724e-16 
         8730.138  2.241453e-16 
         8732.518  2.290764e-16 
         8734.897  2.289556e-16 
         8737.277  2.154688e-16 
         8739.658  2.104766e-16 
         8742.038  2.099899e-16 
         8744.418  1.987828e-16 
         8746.798   1.80015e-16 
         8749.179  1.704974e-16 
         8751.559  1.741162e-16 
         8753.938  1.823718e-16 
         8756.318  2.224426e-16 
         8758.699  2.529835e-16 
         8761.079   2.39211e-16 
         8763.459  2.402324e-16 
         8765.839   2.94967e-16 
          8768.22  2.864415e-16 
           8770.6  2.260081e-16 
         8772.979  2.501979e-16 
         8775.359  3.640422e-16 
          8777.74  3.446984e-16 
          8780.12   2.19376e-16 
           8782.5  1.544954e-16 
          8784.88  1.968843e-16 
         8787.261  2.546874e-16 
         8789.641  2.627361e-16 
         8792.021  2.299854e-16 
           8794.4  1.977843e-16 
         8796.781  1.902072e-16 
         8799.161  2.014804e-16 
         8801.541  2.104064e-16 
         8803.921  2.008696e-16 
         8806.302  1.909376e-16 
         8808.682  1.849924e-16 
         8811.062  1.816165e-16 
         8813.441  1.768043e-16 
         8815.822  1.520433e-16 
         8818.202  1.332854e-16 
         8820.582  1.777289e-16 
         8822.962  3.356918e-16 
         8825.343  4.784703e-16 
         8827.723  3.545173e-16 
         8830.103  1.543576e-16 
         8832.482  1.979693e-16 
         8834.863  3.375809e-16 
         8837.243  3.207882e-16 
         8839.623   2.50405e-16 
         8842.004  2.231049e-16 
         8844.384  2.250703e-16 
         8846.764  2.345256e-16 
         8849.144  2.301245e-16 
         8851.524  1.972507e-16 
         8853.904  1.691039e-16 
         8856.284  1.605629e-16 
         8858.664  1.541996e-16 
         8861.045   1.66456e-16 
         8863.425  2.236767e-16 
         8865.805  2.776131e-16 
         8868.185   2.37214e-16 
         8870.565   1.75968e-16 
         8872.945  1.495089e-16 
         8875.325  1.336052e-16 
         8877.705  1.176008e-16 
         8880.086  1.581784e-16 
         8882.466  2.809205e-16 
         8884.846  3.640506e-16 
         8887.226  3.032569e-16 
         8889.606   1.77974e-16 
         8891.986  1.506938e-16 
         8894.366  1.554329e-16 
         8896.746  1.702953e-16 
         8899.127   2.09828e-16 
         8901.507  2.456961e-16 
         8903.887  2.208027e-16 
         8906.267  1.351824e-16 
         8908.647  8.821879e-17 
         8911.027   9.08551e-17 
         8913.407  1.401795e-16 
         8915.787  2.832608e-16 
         8918.168  4.051183e-16 
         8920.548  3.344469e-16 
         8922.928  1.876472e-16 
         8925.308  1.476142e-16 
         8927.688  1.877042e-16 
         8930.068  1.800444e-16 
         8932.448  1.644762e-16 
         8934.828  1.598979e-16 
         8937.209  1.792952e-16 
         8939.589  2.278938e-16 
         8941.969  2.507208e-16 
         8944.349  1.972019e-16 
         8946.729  1.437869e-16 
         8949.109  1.268764e-16 
         8951.489  1.533714e-16 
         8953.869    2.4548e-16 
          8956.25  3.186231e-16 
          8958.63  2.903846e-16 
          8961.01  2.153034e-16 
          8963.39  1.772055e-16 
         8965.771  1.740029e-16 
          8968.15  1.656377e-16 
          8970.53  1.552698e-16 
          8972.91  1.514226e-16 
         8975.291  1.472615e-16 
         8977.671  1.344256e-16 
         8980.051  1.231091e-16 
         8982.431  1.319401e-16 
         8984.812  1.802024e-16 
         8987.191  2.132834e-16 
         8989.571  1.843398e-16 
         8991.951  1.388997e-16 
         8994.332  1.247066e-16 
         8996.712  1.579246e-16 
         8999.092   2.22109e-16 
         9001.472  2.467603e-16 
         9003.853  1.879749e-16 
         9006.232  1.397035e-16 
         9008.612  1.459976e-16 
         9010.993  1.593504e-16 
         9013.373  1.538832e-16 
         9015.753  1.494354e-16 
         9018.133  1.458545e-16 
         9020.514  1.460214e-16 
         9022.894  1.489023e-16 
         9025.273  1.418981e-16 
         9027.653  1.306775e-16 
         9030.034  1.400875e-16 
         9032.414  1.533443e-16 
         9034.794  1.602816e-16 
         9037.174  1.531993e-16 
         9039.555   1.38072e-16 
         9041.935  1.365647e-16 
         9044.314  1.602156e-16 
         9046.694  1.891847e-16 
         9049.075  1.986777e-16 
         9051.455  1.795263e-16 
         9053.835  1.523253e-16 
         9056.215  1.489479e-16 
         9058.596  1.484587e-16 
         9060.976  1.478909e-16 
         9063.355  1.524338e-16 
         9065.735  1.564271e-16 
         9068.116   1.49468e-16 
         9070.496  1.369402e-16 
         9072.876   1.31185e-16 
         9075.256  1.359128e-16 
         9077.637  1.436024e-16 
         9080.017  1.449765e-16 
         9082.396  1.410298e-16 
         9084.776  1.453051e-16 
         9087.157  1.585805e-16 
         9089.537  1.643363e-16 
         9091.917  1.514182e-16 
         9094.297   1.34666e-16 
         9096.678  1.353603e-16 
         9099.058   1.58529e-16 
         9101.437  1.714844e-16 
         9103.817  1.545466e-16 
         9106.198  1.378737e-16 
         9108.578  1.400346e-16 
         9110.958  1.447582e-16 
         9113.338  1.472424e-16 
         9115.719  1.444382e-16 
         9118.099  1.343928e-16 
         9120.479  1.410003e-16 
         9122.858  1.447099e-16 
         9125.239  1.468489e-16 
         9127.619  1.508284e-16 
         9129.999  1.496808e-16 
         9132.379  1.446432e-16 
          9134.76   1.34853e-16 
          9137.14  1.237046e-16 
          9139.52  1.256088e-16 
         9141.899  1.396325e-16 
          9144.28  1.420839e-16 
          9146.66  1.364167e-16 
          9149.04  1.437655e-16 
          9151.42  1.488867e-16 
         9153.801  1.435977e-16 
         9156.181  1.451308e-16 
         9158.561  1.415833e-16 
          9160.94  1.374287e-16 
         9163.321   1.29535e-16 
         9165.701  1.225095e-16 
         9168.081  1.269231e-16 
         9170.461  1.366054e-16 
         9172.842  1.394401e-16 
         9175.222  1.327207e-16 
         9177.602  1.280416e-16 
         9179.981   1.35996e-16 
         9182.362  1.451992e-16 
         9184.742  1.283411e-16 
         9187.122  1.169955e-16 
         9189.503  1.187399e-16 
         9191.883  1.249537e-16 
         9194.263  1.358652e-16 
         9196.643   1.38286e-16 
         9199.023  1.420557e-16 
         9201.403  1.448462e-16 
         9203.783  1.433361e-16 
         9206.163  1.439976e-16 
         9208.544  1.490125e-16 
         9210.924  1.457395e-16 
         9213.304  1.493391e-16 
         9215.684  1.557816e-16 
         9218.064  1.496674e-16 
         9220.444  1.422425e-16 
         9222.824  1.496221e-16 
         9225.204  1.504208e-16 
         9227.585  1.402031e-16 
         9229.965  1.316277e-16 
         9232.345  1.301317e-16 
         9234.725  1.338623e-16 
         9237.105  1.340801e-16 
         9239.485   1.27317e-16 
         9241.865  1.274508e-16 
         9244.245  1.390184e-16 
         9246.626  1.347562e-16 
         9249.006  1.178175e-16 
         9251.386  1.150508e-16 
         9253.766  1.222983e-16 
         9256.146  1.265115e-16 
         9258.526  1.366226e-16 
         9260.906   1.34394e-16 
         9263.286  1.293772e-16 
         9265.667  1.188541e-16 
         9268.047    1.1073e-16 
         9270.427  1.225983e-16 
         9272.807  1.259137e-16 
         9275.187  1.111989e-16 
         9277.567  9.839137e-17 
         9279.947   9.64876e-17 
         9282.327   9.69461e-17 
         9284.708  1.022586e-16 
         9287.088  1.135995e-16 
         9289.468  1.220559e-16 
         9291.848    1.2486e-16 
         9294.229  1.314391e-16 
         9296.608  1.422789e-16 
         9298.988  1.292852e-16 
         9301.368      1.27e-16 
         9303.749  1.826433e-16 
         9306.129  2.861318e-16 
         9308.509  3.680376e-16 
         9310.889  3.717011e-16 
          9313.27  2.986483e-16 
         9315.649  1.520859e-16 
         9318.029  7.115221e-17 
         9320.409  1.459697e-16 
          9322.79  1.643396e-16 
          9325.17  9.663617e-17 
          9327.55  6.003018e-17 
          9329.93  8.719024e-17 
         9332.311  1.169998e-16 
          9334.69   1.27729e-16 
          9337.07  1.319441e-16 
          9339.45  1.145165e-16 
         9341.831  8.931825e-17 
         9344.211  8.937437e-17 
         9346.591   1.17194e-16 
         9348.971  1.379207e-16 
         9351.352  1.370539e-16 
         9353.731  1.314846e-16 
         9356.111  1.333334e-16 
         9358.492   1.34834e-16 
         9360.872  1.253813e-16 
         9363.252  9.225663e-17 
         9365.632  4.558963e-17 
         9368.013  3.706837e-17 
         9370.393  1.235871e-16 
         9372.772  2.698879e-16 
         9375.152  2.922176e-16 
         9377.533   1.55917e-16 
         9379.913  6.078777e-17 
         9382.293  1.016362e-16 
         9384.673   1.38521e-16 
         9387.054  1.364165e-16 
         9389.434  1.090031e-16 
         9391.813  8.547452e-17 
         9394.193  8.392715e-17 
         9396.574   1.02791e-16 
         9398.954  1.266516e-16 
         9401.334  1.328091e-16 
         9403.714  1.061123e-16 
         9406.095  7.676871e-17 
         9408.475  7.301613e-17 
         9410.854  7.144964e-17 
         9413.234  6.709845e-17 
         9415.615  1.098348e-16 
         9417.995  1.658926e-16 
         9420.375  1.581459e-16 
         9422.755  9.201697e-17 
         9425.136   5.67667e-17 
         9427.516  4.792613e-17 
         9429.896  3.344599e-17 
         9432.275  3.872923e-17 
         9434.656   1.25021e-16 
         9437.036  2.667019e-16 
         9439.416  2.821339e-16 
         9441.796  1.616648e-16 
         9444.177  6.394802e-17 
         9446.557  7.445022e-17 
         9448.937  9.613166e-17 
         9451.316  9.546787e-17 
         9453.697  9.879955e-17 
         9456.077  1.218157e-16 
         9458.457  1.276737e-16 
         9460.837  8.459714e-17 
         9463.218  5.296728e-17 
         9465.598  4.553384e-17 
         9467.978  3.277274e-17 
         9470.357  5.994844e-17 
         9472.738  1.921497e-16 
         9475.118  3.343459e-16 
         9477.498  3.244305e-16 
         9479.878  2.349109e-16 
         9482.259  1.657593e-16 
         9484.639  1.324143e-16 
         9487.019  1.301548e-16 
         9489.398  1.202505e-16 
         9491.779  8.053784e-17 
         9494.159  4.409869e-17 
         9496.539  5.607283e-17 
         9498.919   1.14375e-16 
           9501.3  1.709832e-16 
          9503.68  1.809002e-16 
          9506.06  1.317539e-16 
         9508.439  6.843951e-17 
          9510.82  4.751338e-17 
           9513.2  6.848781e-17 
          9515.58   1.24521e-16 
          9517.96   1.62143e-16 
         9520.341  1.406389e-16 
         9522.721  8.789073e-17 
         9525.101  6.957746e-17 
          9527.48  8.532387e-17 
         9529.861  9.992179e-17 
         9532.241  1.095662e-16 
         9534.621  1.178078e-16 
         9537.002  1.119955e-16 
         9539.382  1.042236e-16 
         9541.762  8.989864e-17 
         9544.142  7.670086e-17 
         9546.522  8.371025e-17 
         9548.902  1.101936e-16 
         9551.282  1.142393e-16 
         9553.662  5.249686e-17 
         9556.043  1.430172e-17 
         9558.423  2.747632e-17 
         9560.803  5.941892e-17 
         9563.183  1.377091e-16 
         9565.563  2.284731e-16 
         9567.943  2.460875e-16 
         9570.323  1.853592e-16 
         9572.703  1.194159e-16 
         9575.084  9.672794e-17 
         9577.464  8.777778e-17 
         9579.844  8.042273e-17 
         9582.224  8.090732e-17 
         9584.604  8.465018e-17 
         9586.984  7.844068e-17 
         9589.364  6.905619e-17 
         9591.744  6.905741e-17 
         9594.125   7.30779e-17 
         9596.505  7.540384e-17 
         9598.885   7.58899e-17 
         9601.265  7.571383e-17 
         9603.646  8.881428e-17 
         9606.025  1.098134e-16 
         9608.405  9.921119e-17 
         9610.785  6.164963e-17 
         9613.166  6.085677e-17 
         9615.546   1.00194e-16 
         9617.926   1.50754e-16 
         9620.306  1.721667e-16 
         9622.687  1.451125e-16 
         9625.066  1.010283e-16 
         9627.446  9.579227e-17 
         9629.826  8.895363e-17 
         9632.207  7.369931e-17 
         9634.587  7.099618e-17 
         9636.967  8.341922e-17 
         9639.347  8.682067e-17 
         9641.728  6.549162e-17 
         9644.107  4.910553e-17 
         9646.487   4.68621e-17 
         9648.867   5.55042e-17 
         9651.248  7.543875e-17 
         9653.628  7.536947e-17 
         9656.008  7.435184e-17 
         9658.388  7.111992e-17 
         9660.769   6.48802e-17 
         9663.148  6.640906e-17 
         9665.528  6.329965e-17 
         9667.908  5.954192e-17 
         9670.289  4.777024e-17 
         9672.669  3.386573e-17 
         9675.049  4.377886e-17 
         9677.429  9.015036e-17 
          9679.81  1.402794e-16 
         9682.189  1.607669e-16 
         9684.569    1.4016e-16 
         9686.949  9.659521e-17 
          9689.33  6.591183e-17 
          9691.71  6.939172e-17 
          9694.09  8.578198e-17 
          9696.47  1.075007e-16 
         9698.851  9.943607e-17 
          9701.23  4.665162e-17 
