# STATUS =
# OBJECT = 2015bn
# TELESCOPE = UH88
# INSTRUMENT = SNIFS
# DATE-OBS = 2015-06-21 00:00:00.00
# MJD = 57194.0
# EXPTIME = 1800
# AIRMASS = --
# SLIT = 0.0
# DISPERSER = --
# SOURCE = 2016ApJ...826...39N
# FILTER =
# RESOLUTION =
# FLUX_STANDARD =
# EXTINCTION_CORRECTED = --
# PHOTOMETRY_CALIBRATED =
# TELLURIC_CORRECTED =
# FLUX_UNITS = Other
# WAVE_UNITS = Angstrom
# QUALITY = High
# MIN_WAVE = 3301.06
# MAX_WAVE = 9701.23
# COMMENT = [Data obtained from:Nicholl, M.] [Prev. spec info - createdby: ilanm-UploadSet; modifiedby: ilanm-UploadSet]
       Wavelength          Flux 
          3303.44  1.446444e-16 
          3305.82   1.02055e-16 
           3308.2  8.912862e-17 
         3310.581  9.466072e-17 
         3312.961   1.02324e-16 
         3315.341  7.806492e-17 
         3317.721  8.774662e-17 
         3320.101  1.509209e-16 
         3322.481  1.482078e-16 
         3324.861  1.430139e-16 
         3327.241  1.056972e-16 
         3329.622  9.484561e-17 
         3332.002  2.417629e-16 
         3334.382  1.445417e-16 
         3336.762  1.111513e-16 
         3339.142   8.82553e-17 
         3341.522  1.039981e-16 
         3343.902  1.317836e-16 
         3346.282  7.440664e-17 
         3348.663  4.614417e-17 
         3351.043  1.866316e-16 
         3353.423  1.052123e-16 
         3355.803  1.020711e-16 
         3358.183  1.598567e-17 
         3360.563  4.725071e-17 
         3362.943  1.280267e-16 
         3365.323  1.171715e-16 
         3367.704  5.409624e-17 
         3370.084   1.74198e-17 
         3372.464  7.372636e-17 
         3374.844  2.920886e-17 
         3377.224  4.396263e-17 
         3379.604  9.742519e-17 
         3381.984  1.779648e-16 
         3384.365  1.636575e-16 
         3386.745  1.520953e-16 
         3389.125  2.134345e-16 
         3391.505  1.489032e-16 
         3393.885  9.807155e-17 
         3396.265   6.65078e-17 
         3398.646  2.398769e-17 
         3401.026  2.332342e-17 
         3403.406  8.307239e-17 
         3405.786   1.27334e-16 
         3408.166  2.391897e-16 
         3410.546  1.921179e-16 
         3412.926  1.355056e-16 
         3415.306  1.104143e-16 
         3417.687  6.473205e-17 
         3420.067  8.610079e-17 
         3422.447   1.45978e-16 
         3424.827  9.371623e-17 
         3427.207  1.207231e-16 
         3429.587  9.228112e-17 
         3431.967  1.008791e-16 
         3434.347  1.762732e-16 
         3436.728  1.469545e-16 
         3439.108   1.08113e-16 
         3441.488  6.226897e-17 
         3443.868  7.330363e-17 
         3446.248  1.209607e-16 
         3448.628  5.204099e-17 
         3451.008    8.8605e-17 
         3453.388  1.261315e-16 
         3455.769   1.49412e-16 
         3458.149  9.883739e-17 
         3460.529  9.535962e-17 
         3462.909  1.202359e-16 
         3465.289  1.179954e-16 
         3467.669  9.806664e-17 
         3470.049  9.415503e-17 
         3472.429  8.961407e-17 
          3474.81  1.476399e-16 
          3477.19  1.611759e-16 
          3479.57  1.296352e-16 
          3481.95  7.367501e-17 
          3484.33  4.164801e-17 
          3486.71  5.749398e-17 
          3489.09  9.858068e-17 
          3491.47  1.288798e-16 
         3493.851  1.618452e-16 
         3496.231   1.72311e-16 
         3498.611  1.647238e-16 
         3500.991  2.146576e-16 
         3503.371  1.990176e-16 
         3505.751  1.725531e-16 
         3508.131   1.19141e-16 
         3510.511  1.500378e-16 
         3512.892  1.881121e-16 
         3515.272  1.499939e-16 
         3517.652  1.249977e-16 
         3520.032  1.591648e-16 
         3522.412  1.593767e-16 
         3524.792   1.20702e-16 
         3527.172  1.626913e-16 
         3529.552  2.166906e-16 
         3531.933  1.825507e-16 
         3534.313  1.805916e-16 
         3536.693   1.71162e-16 
         3539.073  1.819016e-16 
         3541.453  1.543024e-16 
         3543.833   1.39841e-16 
         3546.213   1.33995e-16 
         3548.594  1.196361e-16 
         3550.974  1.544761e-16 
         3553.354  1.639301e-16 
         3555.734  1.511122e-16 
         3558.114  1.573921e-16 
         3560.494  1.919332e-16 
         3562.875   2.07622e-16 
         3565.255   1.73656e-16 
         3567.635  1.883157e-16 
         3570.015   1.80724e-16 
         3572.395  1.545214e-16 
         3574.775  1.649689e-16 
         3577.155  1.702071e-16 
         3579.535  1.711659e-16 
         3581.916  1.585446e-16 
         3584.296  1.806223e-16 
         3586.676   1.56718e-16 
         3589.056  1.671162e-16 
         3591.436  1.399591e-16 
         3593.816  1.542556e-16 
         3596.196  1.840798e-16 
         3598.576  1.988002e-16 
         3600.957  1.734884e-16 
         3603.337  1.645435e-16 
         3605.717   1.59697e-16 
         3608.097  1.274924e-16 
         3610.477   1.78648e-16 
         3612.857  1.934851e-16 
         3615.237  1.416859e-16 
         3617.617  1.287564e-16 
         3619.998  1.267046e-16 
         3622.378  1.698502e-16 
         3624.758  1.617114e-16 
         3627.138  1.331149e-16 
         3629.518  1.305733e-16 
         3631.898  1.516483e-16 
         3634.278  1.731359e-16 
         3636.658  1.644787e-16 
         3639.039  1.929917e-16 
         3641.419  1.998901e-16 
         3643.799  1.757254e-16 
         3646.179  1.434385e-16 
         3648.559   1.58108e-16 
         3650.939  1.504274e-16 
         3653.319  1.369161e-16 
         3655.699  1.364334e-16 
          3658.08  1.267916e-16 
          3660.46  1.331821e-16 
          3662.84  1.449045e-16 
          3665.22  1.678491e-16 
           3667.6   1.63093e-16 
          3669.98  1.555701e-16 
          3672.36   1.67899e-16 
          3674.74  1.522708e-16 
         3677.121  1.785658e-16 
         3679.501  1.860032e-16 
         3681.881   1.66746e-16 
         3684.261  1.579839e-16 
         3686.641  1.659476e-16 
         3689.021  1.732183e-16 
         3691.401  1.629145e-16 
         3693.781   1.68518e-16 
         3696.162  1.497315e-16 
         3698.542  1.728571e-16 
         3700.922  2.019723e-16 
         3703.302  1.921505e-16 
         3705.682  1.781235e-16 
         3708.062  1.868774e-16 
         3710.442  1.833498e-16 
         3712.823  2.125404e-16 
         3715.203  1.940863e-16 
         3717.583  1.573688e-16 
         3719.963  1.364902e-16 
         3722.343  1.504475e-16 
         3724.723  1.759757e-16 
         3727.103   1.74005e-16 
         3729.483  1.779075e-16 
         3731.864  1.660373e-16 
         3734.244  1.843221e-16 
         3736.624  2.119658e-16 
         3739.004  2.351089e-16 
         3741.384  2.249545e-16 
         3743.764  1.617225e-16 
         3746.145  1.699088e-16 
         3748.525  2.098503e-16 
         3750.905  2.030641e-16 
         3753.285  1.991665e-16 
         3755.665  1.869151e-16 
         3758.045  1.735797e-16 
         3760.425  1.618692e-16 
         3762.805  1.545436e-16 
         3765.186   1.39164e-16 
         3767.566  1.720667e-16 
         3769.946  2.103093e-16 
         3772.326  2.258241e-16 
         3774.706  2.062301e-16 
         3777.086  2.052661e-16 
         3779.466  1.825542e-16 
         3781.846   1.84943e-16 
         3784.227  2.092534e-16 
         3786.607  2.176616e-16 
         3788.987  2.235159e-16 
         3791.367  2.161203e-16 
         3793.747    1.8973e-16 
         3796.127  1.851599e-16 
         3798.507  1.784821e-16 
         3800.887  2.014292e-16 
         3803.268  2.348885e-16 
         3805.648  2.112579e-16 
         3808.028  2.007139e-16 
         3810.408   2.17197e-16 
         3812.788  2.116813e-16 
         3815.168  2.106429e-16 
         3817.548  2.053762e-16 
         3819.928  2.064319e-16 
         3822.309  1.928681e-16 
         3824.689  2.063619e-16 
         3827.069  2.098608e-16 
         3829.449  2.023587e-16 
         3831.829  2.023429e-16 
         3834.209   2.11204e-16 
         3836.589  1.919787e-16 
         3838.969  1.757284e-16 
          3841.35  1.847873e-16 
          3843.73  1.968185e-16 
          3846.11  1.792845e-16 
          3848.49  1.727073e-16 
          3850.87  1.924933e-16 
          3853.25  2.035566e-16 
          3855.63  2.069657e-16 
          3858.01  2.064028e-16 
         3860.391  1.962117e-16 
         3862.771    1.9142e-16 
         3865.151  2.087365e-16 
         3867.531  2.190528e-16 
         3869.911  2.105961e-16 
         3872.291  1.885516e-16 
         3874.671  1.768553e-16 
         3877.052  1.908728e-16 
         3879.432  2.213046e-16 
         3881.812  2.112392e-16 
         3884.192  1.938795e-16 
         3886.572  1.852222e-16 
         3888.952  1.969054e-16 
         3891.332  1.851213e-16 
         3893.712  1.814625e-16 
         3896.093   1.81726e-16 
         3898.473  2.038679e-16 
         3900.853   2.11077e-16 
         3903.233  2.193998e-16 
         3905.613  1.993688e-16 
         3907.993  2.165654e-16 
         3910.374   2.11206e-16 
         3912.754  2.164392e-16 
         3915.134  2.361505e-16 
         3917.514  2.232479e-16 
         3919.894  2.127462e-16 
         3922.274  2.204756e-16 
         3924.654  2.249232e-16 
         3927.034  2.173645e-16 
         3929.415   2.21339e-16 
         3931.795  2.167454e-16 
         3934.175  1.987636e-16 
         3936.555  2.140244e-16 
         3938.935  2.538192e-16 
         3941.315    2.4215e-16 
         3943.695  2.243846e-16 
         3946.075  2.099068e-16 
         3948.456  2.337528e-16 
         3950.836  2.532224e-16 
         3953.216  2.357616e-16 
         3955.596  2.139007e-16 
         3957.976  1.972705e-16 
         3960.356   2.06577e-16 
         3962.736  2.173594e-16 
         3965.116  2.229617e-16 
         3967.497   2.30689e-16 
         3969.877  2.050634e-16 
         3972.257  1.848601e-16 
         3974.637  1.724465e-16 
         3977.017  1.476387e-16 
         3979.397  1.676679e-16 
         3981.777  1.701831e-16 
         3984.157  2.008818e-16 
         3986.538  2.217248e-16 
         3988.918  1.984888e-16 
         3991.298  1.907803e-16 
         3993.678  2.272813e-16 
         3996.058  2.337497e-16 
         3998.438  2.439722e-16 
         4000.818  2.545755e-16 
         4003.198  2.375303e-16 
         4005.579   2.21406e-16 
         4007.959  2.223328e-16 
         4010.339  2.563078e-16 
         4012.719  2.446172e-16 
         4015.099  2.127499e-16 
         4017.479  2.191368e-16 
         4019.859  2.133157e-16 
          4022.24  2.090995e-16 
          4024.62  2.024122e-16 
           4027.0  2.152186e-16 
          4029.38  2.058669e-16 
          4031.76  2.032367e-16 
          4034.14  2.144973e-16 
          4036.52  1.947207e-16 
           4038.9    1.9651e-16 
         4041.281  2.021871e-16 
         4043.661  2.152485e-16 
         4046.041  1.941921e-16 
         4048.421  1.854934e-16 
         4050.801  1.910181e-16 
         4053.181  1.863498e-16 
         4055.561  2.070203e-16 
         4057.941   2.02051e-16 
         4060.322  1.981423e-16 
         4062.702  1.767621e-16 
         4065.082  1.826851e-16 
         4067.462   1.86446e-16 
         4069.842  1.735259e-16 
         4072.222  2.035213e-16 
         4074.602  2.047735e-16 
         4076.982  1.836072e-16 
         4079.363  1.722614e-16 
         4081.743  1.662667e-16 
         4084.123  1.956738e-16 
         4086.503     2.133e-16 
         4088.883  2.127487e-16 
         4091.263  1.943592e-16 
         4093.644  1.742327e-16 
         4096.023   1.91409e-16 
         4098.404  2.381169e-16 
         4100.784  2.420991e-16 
         4103.164  2.284909e-16 
         4105.544  2.036183e-16 
         4107.924  2.017538e-16 
         4110.304  2.222082e-16 
         4112.685  2.530749e-16 
         4115.064  2.361488e-16 
         4117.445  2.292216e-16 
         4119.825  2.657313e-16 
         4122.205  2.623939e-16 
         4124.585  2.404135e-16 
         4126.965  2.397011e-16 
         4129.345  2.503763e-16 
         4131.726  2.278818e-16 
         4134.105  2.615298e-16 
         4136.486  2.652849e-16 
         4138.866  2.419304e-16 
         4141.246  2.267708e-16 
         4143.626  2.282987e-16 
         4146.006  2.379143e-16 
         4148.386  2.582528e-16 
         4150.767  2.744701e-16 
         4153.146  2.795124e-16 
         4155.527  2.616698e-16 
         4157.907  2.405083e-16 
         4160.287  2.215426e-16 
         4162.667    2.1144e-16 
         4165.047  2.333221e-16 
         4167.428  2.260466e-16 
         4169.808  2.256636e-16 
         4172.188  2.383459e-16 
         4174.568  2.266676e-16 
         4176.948   2.25455e-16 
         4179.328  2.286135e-16 
         4181.708  2.290229e-16 
         4184.088  2.057183e-16 
         4186.469  2.082607e-16 
         4188.849  2.282804e-16 
         4191.229  2.475843e-16 
         4193.609  2.100801e-16 
         4195.989  1.928324e-16 
         4198.369   1.96475e-16 
          4200.75  2.079515e-16 
         4203.129  1.917612e-16 
          4205.51  1.861204e-16 
          4207.89  1.895707e-16 
          4210.27   2.02651e-16 
          4212.65  2.084929e-16 
          4215.03  2.049783e-16 
          4217.41  2.013458e-16 
         4219.791  2.008114e-16 
          4222.17  1.813575e-16 
         4224.551  1.878394e-16 
         4226.931  2.084095e-16 
         4229.311  2.113662e-16 
         4231.691  1.981133e-16 
         4234.071  1.970917e-16 
         4236.451  2.031677e-16 
         4238.832  2.058073e-16 
         4241.211  2.233757e-16 
         4243.592  2.143622e-16 
         4245.972  2.224547e-16 
         4248.352  2.080111e-16 
         4250.732  2.073102e-16 
         4253.112  2.279089e-16 
         4255.492  2.396857e-16 
         4257.873  2.336568e-16 
         4260.252  2.291226e-16 
         4262.633  2.055577e-16 
         4265.013  2.078767e-16 
         4267.393  2.177926e-16 
         4269.773  2.250217e-16 
         4272.153  2.028209e-16 
         4274.533  1.916371e-16 
         4276.914  2.133455e-16 
         4279.293  2.494594e-16 
         4281.674  2.467346e-16 
         4284.054   2.19672e-16 
         4286.434  2.366645e-16 
         4288.814  2.377031e-16 
         4291.194  2.356771e-16 
         4293.574  2.444427e-16 
         4295.955  2.333196e-16 
         4298.334   2.23604e-16 
         4300.715  2.364077e-16 
         4303.095  2.358905e-16 
         4305.475  2.398763e-16 
         4307.855   2.44039e-16 
         4310.235  2.436398e-16 
         4312.615   2.47778e-16 
         4314.996  2.398843e-16 
         4317.375  2.376579e-16 
         4319.756   2.51767e-16 
         4322.136  2.622984e-16 
         4324.516  2.410382e-16 
         4326.896  2.211411e-16 
         4329.276  2.458923e-16 
         4331.656  2.423207e-16 
         4334.037  2.251541e-16 
         4336.417  2.296936e-16 
         4338.797  2.561504e-16 
         4341.177  2.392909e-16 
         4343.557  2.326548e-16 
         4345.937   2.41232e-16 
         4348.317   2.31066e-16 
         4350.698   1.96378e-16 
         4353.078  2.028836e-16 
         4355.458  2.297981e-16 
         4357.838  2.363781e-16 
         4360.218  2.610329e-16 
         4362.598  2.496369e-16 
         4364.979  2.450727e-16 
         4367.358  2.387855e-16 
         4369.739  2.357628e-16 
         4372.119  2.583912e-16 
         4374.499  2.724359e-16 
         4376.879  2.625167e-16 
         4379.259  2.397209e-16 
         4381.639  2.360929e-16 
          4384.02  2.388914e-16 
         4386.399  2.433299e-16 
          4388.78  2.492736e-16 
          4391.16  2.533288e-16 
          4393.54  2.659215e-16 
          4395.92  2.706676e-16 
           4398.3  2.750856e-16 
          4400.68  2.835951e-16 
         4403.061  2.806101e-16 
          4405.44  2.704361e-16 
         4407.821  2.801873e-16 
         4410.201  2.928875e-16 
         4412.581  2.835637e-16 
         4414.961  2.688121e-16 
         4417.341  2.625085e-16 
         4419.721  2.566242e-16 
         4422.102  2.437989e-16 
         4424.481  2.521653e-16 
         4426.862  2.733004e-16 
         4429.242  2.819481e-16 
         4431.622  2.766155e-16 
         4434.002  2.755149e-16 
         4436.382  2.765658e-16 
         4438.762  2.641322e-16 
         4441.143  2.472161e-16 
         4443.522  2.438971e-16 
         4445.903  2.510148e-16 
         4448.283  2.718481e-16 
         4450.663  2.743712e-16 
         4453.043  2.621973e-16 
         4455.423  2.481358e-16 
         4457.803  2.346899e-16 
         4460.184  2.261512e-16 
         4462.563  2.208084e-16 
         4464.944  2.379308e-16 
         4467.324  2.466857e-16 
         4469.704  2.355622e-16 
         4472.084  2.196307e-16 
         4474.464  2.260987e-16 
         4476.844  2.268115e-16 
         4479.225  2.305972e-16 
         4481.604  2.413243e-16 
         4483.985  2.388018e-16 
         4486.365  2.086655e-16 
         4488.745  2.084476e-16 
         4491.125  2.267327e-16 
         4493.505  2.342228e-16 
         4495.885  2.327265e-16 
         4498.266  2.321059e-16 
         4500.646  2.313396e-16 
         4503.026  2.425254e-16 
         4505.406  2.393939e-16 
         4507.786   2.29771e-16 
         4510.166  2.304017e-16 
         4512.546  2.185927e-16 
         4514.927  2.054257e-16 
         4517.307  1.942999e-16 
         4519.687  1.957613e-16 
         4522.067  2.123431e-16 
         4524.447  2.337805e-16 
         4526.827  2.129293e-16 
         4529.208  2.094045e-16 
         4531.587  2.104418e-16 
         4533.968  2.230411e-16 
         4536.348  2.261731e-16 
         4538.728  2.024557e-16 
         4541.108  1.970985e-16 
         4543.488  2.157982e-16 
         4545.868  2.224666e-16 
         4548.249  1.967033e-16 
         4550.628  1.973681e-16 
         4553.009  2.096193e-16 
         4555.389  1.904602e-16 
         4557.769  1.849295e-16 
         4560.149  1.859133e-16 
         4562.529  1.922253e-16 
         4564.909  2.036382e-16 
          4567.29  2.126185e-16 
         4569.669  2.352003e-16 
          4572.05  2.246282e-16 
          4574.43  2.178453e-16 
          4576.81  2.263386e-16 
          4579.19  2.213882e-16 
          4581.57  2.314681e-16 
          4583.95  2.351285e-16 
         4586.331  2.169457e-16 
          4588.71  2.004949e-16 
         4591.091  2.187556e-16 
         4593.471  2.405246e-16 
         4595.851  2.395759e-16 
         4598.231  2.078161e-16 
         4600.611  1.918137e-16 
         4602.991  1.926932e-16 
         4605.372  2.088032e-16 
         4607.751  2.123994e-16 
         4610.132  2.112177e-16 
         4612.512  2.085047e-16 
         4614.892  2.213465e-16 
         4617.272  2.195393e-16 
         4619.652  2.065077e-16 
         4622.032  2.007391e-16 
         4624.413  2.112482e-16 
         4626.792  1.827383e-16 
         4629.173  1.815937e-16 
         4631.553   1.87525e-16 
         4633.933  1.926337e-16 
         4636.313  1.983806e-16 
         4638.693  1.933468e-16 
         4641.073  2.014058e-16 
         4643.454  2.055798e-16 
         4645.833  1.953795e-16 
         4648.214  2.043371e-16 
         4650.594  1.809842e-16 
         4652.974  1.720794e-16 
         4655.354  1.773909e-16 
         4657.734  1.729107e-16 
         4660.114  1.718917e-16 
         4662.495  1.649023e-16 
         4664.875  1.777303e-16 
         4667.255  1.703708e-16 
         4669.635  1.713373e-16 
         4672.015  1.783736e-16 
         4674.395  1.889658e-16 
         4676.775  1.750479e-16 
         4679.155  1.816169e-16 
         4681.536  1.776245e-16 
         4683.916  1.683595e-16 
         4686.296  1.768131e-16 
         4688.676  1.874851e-16 
         4691.056  1.786866e-16 
         4693.437  1.608609e-16 
         4695.816  1.703046e-16 
         4698.197   1.89228e-16 
         4700.577  1.884104e-16 
         4702.957  1.769515e-16 
         4705.337  1.761764e-16 
         4707.717  1.938699e-16 
         4710.097   1.86943e-16 
         4712.478  1.763978e-16 
         4714.857  1.797433e-16 
         4717.238    1.7458e-16 
         4719.618  1.826176e-16 
         4721.998  1.871996e-16 
         4724.378  1.816525e-16 
         4726.758    1.8364e-16 
         4729.138   1.81533e-16 
         4731.519  1.730102e-16 
         4733.898  1.863404e-16 
         4736.279  1.777148e-16 
         4738.659  1.621754e-16 
         4741.039  1.850369e-16 
         4743.419   1.96019e-16 
         4745.799  1.909512e-16 
         4748.179  1.906717e-16 
          4750.56  1.910082e-16 
         4752.939  1.940772e-16 
          4755.32  1.962174e-16 
           4757.7  2.063607e-16 
          4760.08  2.076505e-16 
          4762.46  1.923049e-16 
          4764.84  1.890794e-16 
          4767.22  2.041794e-16 
         4769.601  2.031219e-16 
          4771.98   2.06376e-16 
         4774.361  2.150809e-16 
         4776.741  2.001849e-16 
         4779.121  1.874615e-16 
         4781.501  1.881845e-16 
         4783.881  1.959508e-16 
         4786.261  2.017585e-16 
         4788.642  1.947431e-16 
         4791.021  1.830266e-16 
         4793.402  1.860523e-16 
         4795.782  1.854617e-16 
         4798.162  1.921578e-16 
         4800.542  2.041936e-16 
         4802.922  2.052957e-16 
         4805.302  2.091571e-16 
         4807.683  2.234676e-16 
         4810.062  2.313306e-16 
         4812.443  2.231937e-16 
         4814.823  2.119873e-16 
         4817.203  2.031579e-16 
         4819.583  2.039482e-16 
         4821.963  1.915416e-16 
         4824.343  1.853137e-16 
         4826.724  1.988618e-16 
         4829.104  2.110621e-16 
         4831.484   1.95633e-16 
         4833.864  1.713575e-16 
         4836.244  1.802341e-16 
         4838.624  1.979584e-16 
         4841.004  1.751512e-16 
         4843.384  1.687753e-16 
         4845.765  1.899063e-16 
         4848.145  1.924584e-16 
         4850.525   1.83887e-16 
         4852.905  1.882845e-16 
         4855.285  1.902882e-16 
         4857.665  1.939094e-16 
         4860.045  1.958221e-16 
         4862.426  1.926054e-16 
         4864.806  2.034212e-16 
         4867.186  1.944631e-16 
         4869.566  1.810846e-16 
         4871.946  1.733072e-16 
         4874.326  1.660021e-16 
         4876.707   1.65005e-16 
         4879.086  1.827837e-16 
         4881.467  1.862657e-16 
         4883.847  1.613694e-16 
         4886.227  1.577651e-16 
         4888.607  1.642463e-16 
         4890.987   1.71173e-16 
         4893.367  1.802249e-16 
         4895.748  1.580339e-16 
         4898.127  1.692259e-16 
         4900.508  1.693455e-16 
         4902.888  1.722419e-16 
         4905.268  1.751366e-16 
         4907.648  1.894662e-16 
         4910.028  1.729782e-16 
         4912.408  1.821713e-16 
         4914.789  1.865263e-16 
         4917.168  1.795013e-16 
         4919.549   1.70311e-16 
         4921.929  1.675995e-16 
         4924.309  1.910595e-16 
         4926.689  2.021968e-16 
         4929.069  1.859438e-16 
         4931.449  1.879096e-16 
          4933.83  2.132986e-16 
         4936.209  1.975413e-16 
          4938.59  1.473571e-16 
          4940.97  1.578796e-16 
          4943.35  1.742859e-16 
          4945.73  1.661545e-16 
          4948.11  1.671134e-16 
          4950.49   1.81466e-16 
         4952.871  2.130678e-16 
          4955.25  2.062505e-16 
         4957.631  2.035558e-16 
         4960.011  1.739019e-16 
         4962.391  1.808137e-16 
         4964.771  2.210853e-16 
         4967.151  1.975717e-16 
         4969.531  2.136535e-16 
         4971.912  2.325561e-16 
         4974.292  2.386356e-16 
         4976.672  2.225475e-16 
         4979.052  2.315854e-16 
         4981.432  2.175437e-16 
         4983.812  2.293162e-16 
         4986.192  2.342509e-16 
         4988.572  2.181478e-16 
         4990.953  2.350003e-16 
         4993.333  2.496665e-16 
         4995.713  2.405685e-16 
         4998.093  2.526512e-16 
         5000.473  2.323472e-16 
         5002.853  2.305245e-16 
         5005.233  2.549235e-16 
         5007.613  2.419685e-16 
         5009.994   2.23166e-16 
         5012.374  2.521562e-16 
         5014.754  2.569183e-16 
         5017.134  2.478089e-16 
         5019.514   2.56175e-16 
         5021.894  2.534683e-16 
         5024.274  2.632935e-16 
         5026.654  2.415592e-16 
         5029.035  2.284338e-16 
         5031.415  2.436078e-16 
         5033.795  2.511739e-16 
         5036.175  2.705473e-16 
         5038.555  2.596792e-16 
         5040.936  2.668942e-16 
         5043.315  2.573461e-16 
         5045.696  2.595139e-16 
         5048.076  2.655605e-16 
         5050.456  2.780458e-16 
         5052.836  2.669618e-16 
         5055.216  2.630866e-16 
         5057.596  2.788929e-16 
         5059.977  2.801988e-16 
         5062.356  2.692928e-16 
         5064.737  2.513908e-16 
         5067.117   2.65873e-16 
         5069.497  2.892442e-16 
         5071.877  2.837779e-16 
         5074.257  2.838405e-16 
         5076.637  2.892889e-16 
         5079.018  2.841437e-16 
         5081.397  2.883654e-16 
         5083.778  2.830972e-16 
         5086.158  2.718139e-16 
         5088.538  2.694468e-16 
         5090.918  2.622075e-16 
         5093.298  2.622907e-16 
         5095.678  2.785285e-16 
         5098.059  2.870999e-16 
         5100.438  2.705753e-16 
         5102.819  2.843715e-16 
         5105.199  2.776775e-16 
         5107.579   2.76612e-16 
         5109.959  2.843505e-16 
         5112.339  2.834635e-16 
         5114.719  2.855771e-16 
           5117.1  2.826144e-16 
         5119.479  2.750011e-16 
          5121.86  2.878675e-16 
          5124.24   2.73559e-16 
          5126.62  2.731639e-16 
           5129.0  2.712594e-16 
          5131.38  2.420621e-16 
          5133.76  2.353459e-16 
         5136.141  2.694969e-16 
         5138.521    2.8038e-16 
         5140.901  3.028272e-16 
         5143.281  3.077653e-16 
         5145.661  2.643555e-16 
         5148.041  2.319377e-16 
         5150.421  2.456243e-16 
         5152.801  2.778774e-16 
         5155.182  2.793837e-16 
         5157.562  2.751608e-16 
         5159.942  2.595558e-16 
         5162.322  2.552314e-16 
         5164.702  2.646548e-16 
         5167.082  2.774376e-16 
         5169.462  2.740543e-16 
         5171.842  2.576611e-16 
         5174.223  2.524216e-16 
         5176.603  2.533384e-16 
         5178.983  2.687182e-16 
         5181.363    2.6422e-16 
         5183.743  2.420832e-16 
         5186.123  2.404221e-16 
         5188.503   2.35472e-16 
         5190.883  2.234772e-16 
         5193.264  2.311575e-16 
         5195.644  2.454461e-16 
         5198.024  2.328488e-16 
         5200.404  2.248343e-16 
         5202.784  2.238297e-16 
         5205.165  2.097705e-16 
         5207.544  1.975008e-16 
         5209.925  1.983901e-16 
         5212.305  1.915837e-16 
         5214.685  1.873616e-16 
         5217.065  2.024979e-16 
         5219.445  2.099679e-16 
         5221.825  2.042654e-16 
         5224.206  2.013905e-16 
         5226.585  1.748151e-16 
         5228.966   1.65174e-16 
         5231.346  1.728021e-16 
         5233.726  1.797209e-16 
         5236.106  1.887424e-16 
         5238.486  2.076169e-16 
         5240.866   2.07359e-16 
         5243.247  1.855879e-16 
         5245.626  1.816772e-16 
         5248.007  2.011752e-16 
         5250.387  2.004651e-16 
         5252.767  1.915223e-16 
         5255.147  1.885578e-16 
         5257.527   1.99238e-16 
         5259.907  2.084729e-16 
         5262.288  1.968333e-16 
         5264.667  1.786686e-16 
         5267.048  1.699807e-16 
         5269.428  1.574127e-16 
         5271.808  1.611635e-16 
         5274.188  1.884716e-16 
         5276.568  1.835618e-16 
         5278.948  1.721618e-16 
         5281.329  1.642014e-16 
         5283.708  1.568493e-16 
         5286.089  1.516982e-16 
         5288.469  1.504522e-16 
         5290.849  1.457085e-16 
         5293.229  1.600988e-16 
         5295.609   1.61359e-16 
         5297.989  1.442334e-16 
          5300.37  1.499547e-16 
          5302.75  1.635617e-16 
          5305.13  1.639051e-16 
          5307.51  1.582229e-16 
          5309.89   1.60392e-16 
          5312.27  1.690561e-16 
          5314.65  1.719271e-16 
          5317.03  1.644704e-16 
         5319.411  1.689973e-16 
         5321.791  1.745103e-16 
         5324.171  1.711038e-16 
         5326.551  1.776407e-16 
         5328.931  1.745142e-16 
         5331.311  1.567768e-16 
         5333.691  1.553645e-16 
         5336.071  1.679184e-16 
         5338.452  1.675571e-16 
         5340.832  1.795319e-16 
         5343.212  1.780246e-16 
         5345.592   1.77037e-16 
         5347.972  1.772708e-16 
         5350.352  1.641575e-16 
         5352.732  1.560784e-16 
         5355.112  1.603731e-16 
         5357.493  1.726495e-16 
         5359.873  1.703392e-16 
         5362.253   1.60143e-16 
         5364.633  1.711663e-16 
         5367.013  1.656777e-16 
         5369.393  1.680917e-16 
         5371.773  1.785259e-16 
         5374.153  1.800109e-16 
         5376.534  1.787996e-16 
         5378.914  1.882273e-16 
         5381.294  1.817675e-16 
         5383.674  1.860925e-16 
         5386.054  2.019177e-16 
         5388.435  1.958124e-16 
         5390.814  1.766531e-16 
         5393.195  1.768002e-16 
         5395.575  1.897961e-16 
         5397.955  1.821463e-16 
         5400.335  1.603959e-16 
         5402.715    1.6399e-16 
         5405.095  1.617822e-16 
         5407.476  1.563887e-16 
         5409.855  1.593691e-16 
         5412.236  1.592635e-16 
         5414.616  1.512107e-16 
         5416.996  1.703867e-16 
         5419.376  1.798158e-16 
         5421.756  1.859132e-16 
         5424.136  1.895581e-16 
         5426.517  1.805282e-16 
         5428.896  1.792583e-16 
         5431.277  1.761985e-16 
         5433.657  1.853506e-16 
         5436.037  2.015025e-16 
         5438.417  2.015051e-16 
         5440.797  1.860911e-16 
         5443.177  1.878616e-16 
         5445.558  2.074733e-16 
         5447.937  2.071419e-16 
         5450.318  1.880385e-16 
         5452.698  1.909207e-16 
         5455.078  2.045763e-16 
         5457.458  2.044739e-16 
         5459.838  1.985718e-16 
         5462.218  1.985794e-16 
         5464.599  1.963637e-16 
         5466.979  1.862345e-16 
         5469.359  1.971707e-16 
         5471.739  2.125176e-16 
         5474.119  2.081312e-16 
         5476.499  1.923595e-16 
         5478.879  1.913604e-16 
         5481.259  2.008489e-16 
          5483.64  2.006597e-16 
          5486.02  1.977385e-16 
           5488.4  2.030923e-16 
          5490.78  2.114779e-16 
          5493.16   2.20897e-16 
          5495.54  2.240739e-16 
          5497.92  2.113325e-16 
           5500.3  1.991613e-16 
         5502.681  2.067237e-16 
         5505.061  2.138615e-16 
         5507.441  2.003692e-16 
         5509.821  1.844621e-16 
         5512.201  1.760582e-16 
         5514.581  1.734549e-16 
         5516.961  1.800435e-16 
         5519.341   1.85847e-16 
         5521.722  1.924201e-16 
         5524.102  1.928051e-16 
         5526.482  1.928086e-16 
         5528.862  2.009944e-16 
         5531.242  1.916909e-16 
         5533.622  1.861963e-16 
         5536.002  1.888158e-16 
         5538.382  1.949742e-16 
         5540.763   2.02883e-16 
         5543.143  2.036017e-16 
         5545.523  1.915338e-16 
         5547.903   1.93421e-16 
         5550.283  1.932427e-16 
         5552.664  1.767398e-16 
         5555.043  1.758821e-16 
         5557.424  1.755659e-16 
         5559.804  1.765043e-16 
         5562.184   1.76303e-16 
         5564.564  1.670697e-16 
         5566.944   1.54449e-16 
         5569.324  1.590406e-16 
         5571.705  1.618443e-16 
         5574.084   2.06039e-16 
         5576.465  2.612871e-16 
         5578.845  2.509003e-16 
         5581.225  2.083512e-16 
         5583.605  1.740131e-16 
         5585.985  1.719306e-16 
         5588.365  1.822527e-16 
         5590.746  1.807528e-16 
         5593.125  1.771815e-16 
         5595.506  1.775151e-16 
         5597.886  1.766104e-16 
         5600.266  1.802257e-16 
         5602.646  1.879229e-16 
         5605.026  1.875991e-16 
         5607.406  1.821375e-16 
         5609.787  1.746395e-16 
         5612.167  1.754064e-16 
         5614.547  1.804688e-16 
         5616.927   1.76699e-16 
         5619.307  1.679116e-16 
         5621.687  1.638728e-16 
         5624.067  1.684227e-16 
         5626.447  1.720987e-16 
         5628.828  1.705318e-16 
         5631.208  1.714808e-16 
         5633.588  1.670974e-16 
         5635.968  1.642229e-16 
         5638.348  1.690562e-16 
         5640.728  1.708244e-16 
         5643.108  1.628053e-16 
         5645.488  1.684133e-16 
         5647.869  1.668932e-16 
         5650.249  1.706439e-16 
         5652.629  1.729687e-16 
         5655.009  1.615618e-16 
         5657.389  1.719776e-16 
         5659.769  1.789219e-16 
         5662.149  1.706304e-16 
         5664.529  1.602172e-16 
          5666.91  1.610242e-16 
          5669.29  1.662824e-16 
          5671.67  1.604074e-16 
          5674.05   1.62557e-16 
          5676.43  1.681739e-16 
          5678.81  1.668539e-16 
          5681.19  1.636396e-16 
          5683.57  1.526159e-16 
         5685.951  1.473175e-16 
         5688.331  1.600808e-16 
         5690.711  1.748766e-16 
         5693.091  1.734995e-16 
         5695.471  1.729089e-16 
         5697.851  1.765449e-16 
         5700.231  1.732631e-16 
         5702.611  1.693148e-16 
         5704.992  1.725488e-16 
         5707.372  1.747427e-16 
         5709.752  1.856132e-16 
         5712.132  1.821938e-16 
         5714.512  1.747932e-16 
         5716.892  1.804847e-16 
         5719.272  1.862652e-16 
         5721.652   1.82035e-16 
         5724.033  1.759795e-16 
         5726.413   1.77379e-16 
         5728.793  1.858075e-16 
         5731.173  1.912087e-16 
         5733.553  1.866122e-16 
         5735.934  1.879534e-16 
         5738.313  1.918033e-16 
         5740.694  1.917713e-16 
         5743.074   1.90693e-16 
         5745.454  1.919279e-16 
         5747.834  1.900784e-16 
         5750.214   1.76939e-16 
         5752.594  1.735823e-16 
         5754.975  1.822415e-16 
         5757.354  1.796962e-16 
         5759.735  1.853543e-16 
         5762.115  1.908712e-16 
         5764.495  1.860274e-16 
         5766.875  1.798044e-16 
         5769.255  1.868045e-16 
         5771.635  2.002608e-16 
         5774.016  2.012067e-16 
         5776.396  2.012861e-16 
         5778.776  2.038622e-16 
         5781.156  2.028649e-16 
         5783.536  2.033893e-16 
         5785.916  2.015351e-16 
         5788.296   2.04852e-16 
         5790.676  2.018477e-16 
         5793.057  1.927839e-16 
         5795.437  1.942281e-16 
         5797.817  1.900456e-16 
         5800.197  1.985889e-16 
         5802.577  2.030734e-16 
         5804.957  1.924419e-16 
         5807.337  1.869941e-16 
         5809.717  1.956936e-16 
         5812.098  1.963589e-16 
         5814.478  1.918587e-16 
         5816.858  1.918269e-16 
         5819.238  1.942055e-16 
         5821.618  1.931157e-16 
         5823.998  1.923265e-16 
         5826.378  1.960611e-16 
         5828.758  2.064595e-16 
         5831.139  2.160725e-16 
         5833.519  2.138846e-16 
         5835.899  2.050257e-16 
         5838.279  1.988304e-16 
         5840.659  1.973743e-16 
         5843.039  1.983982e-16 
         5845.419  2.026457e-16 
         5847.799  2.124195e-16 
          5850.18   2.18726e-16 
          5852.56  2.209098e-16 
          5854.94  2.222104e-16 
          5857.32  2.263229e-16 
           5859.7  2.320886e-16 
          5862.08  2.235387e-16 
          5864.46  2.213531e-16 
          5866.84  2.226798e-16 
         5869.221  2.185106e-16 
         5871.601  2.176794e-16 
         5873.981  2.146211e-16 
         5876.361  2.204215e-16 
         5878.741  2.368017e-16 
         5881.121  2.429249e-16 
         5883.501  2.292837e-16 
         5885.881  2.232885e-16 
         5888.262  2.163024e-16 
         5890.642  2.241682e-16 
         5893.022  2.403901e-16 
         5895.402   2.42816e-16 
         5897.782  2.380212e-16 
         5900.163  2.393421e-16 
         5902.542  2.393407e-16 
         5904.923  2.356489e-16 
         5907.303  2.321174e-16 
         5909.683  2.287713e-16 
         5912.063  2.265049e-16 
         5914.443   2.26476e-16 
         5916.823  2.292095e-16 
         5919.204  2.254228e-16 
         5921.583  2.140858e-16 
         5923.964  2.175489e-16 
         5926.344  2.225906e-16 
         5928.724  2.310419e-16 
         5931.104  2.376363e-16 
         5933.484  2.343042e-16 
         5935.864  2.286074e-16 
         5938.245  2.178726e-16 
         5940.625  2.115651e-16 
         5943.005  2.102173e-16 
         5945.385  2.117401e-16 
         5947.765  2.167697e-16 
         5950.145  2.139651e-16 
         5952.525  2.101914e-16 
         5954.905  2.106938e-16 
         5957.286  2.108704e-16 
         5959.666  2.092739e-16 
         5962.046   2.15352e-16 
         5964.426  2.187003e-16 
         5966.806  2.187529e-16 
         5969.186  2.144629e-16 
         5971.566  2.073482e-16 
         5973.946  2.076836e-16 
         5976.327  2.116236e-16 
         5978.707  2.239383e-16 
         5981.087  2.265473e-16 
         5983.467   2.14762e-16 
         5985.847  2.125082e-16 
         5988.227  2.126706e-16 
         5990.607  2.074979e-16 
         5992.987  2.040037e-16 
         5995.368  2.080778e-16 
         5997.748  2.146984e-16 
         6000.128  2.182986e-16 
         6002.508  2.177919e-16 
         6004.888  2.124022e-16 
         6007.268  2.088513e-16 
         6009.648  2.133949e-16 
         6012.028  2.179556e-16 
         6014.409  2.094513e-16 
         6016.789   2.01531e-16 
         6019.169  2.101278e-16 
         6021.549  2.216615e-16 
         6023.929  2.142341e-16 
         6026.309  2.102893e-16 
         6028.689  2.007737e-16 
         6031.069  2.010289e-16 
          6033.45  2.141682e-16 
          6035.83  2.141601e-16 
          6038.21  1.980461e-16 
          6040.59   1.98729e-16 
          6042.97  2.031627e-16 
          6045.35  2.048681e-16 
          6047.73  2.052071e-16 
          6050.11  1.874451e-16 
         6052.491  1.780302e-16 
         6054.871   1.84964e-16 
         6057.251  1.979314e-16 
         6059.631  2.055821e-16 
         6062.011  2.042641e-16 
         6064.391  1.957619e-16 
         6066.771  1.922581e-16 
         6069.152  1.950206e-16 
         6071.532  2.012331e-16 
         6073.912  2.115166e-16 
         6076.292  2.199736e-16 
         6078.672  2.076973e-16 
         6081.052  2.001192e-16 
         6083.433  2.017283e-16 
         6085.812  1.965166e-16 
         6088.193   1.95383e-16 
         6090.573  1.993012e-16 
         6092.953  2.018878e-16 
         6095.333   2.03164e-16 
         6097.713  2.065261e-16 
         6100.093  2.091301e-16 
         6102.474  2.049153e-16 
         6104.854   1.99559e-16 
         6107.234  1.949776e-16 
         6109.614  1.919351e-16 
         6111.994  1.929816e-16 
         6114.374  1.965205e-16 
         6116.754  2.000223e-16 
         6119.134  1.995255e-16 
         6121.515  1.974265e-16 
         6123.895  1.977765e-16 
         6126.275  1.988946e-16 
         6128.655  2.024437e-16 
         6131.035  1.976553e-16 
         6133.415  1.879005e-16 
         6135.795  1.879923e-16 
         6138.175  1.978592e-16 
         6140.556  1.965947e-16 
         6142.936  1.925798e-16 
         6145.316  1.957278e-16 
         6147.696   2.02195e-16 
         6150.076  2.019988e-16 
         6152.456  1.944245e-16 
         6154.836  1.911362e-16 
         6157.216  1.860024e-16 
         6159.597  1.817357e-16 
         6161.977  1.844295e-16 
         6164.357   1.82879e-16 
         6166.737   1.81663e-16 
         6169.117  1.838505e-16 
         6171.497  1.884205e-16 
         6173.877  1.867293e-16 
         6176.257  1.757112e-16 
         6178.638  1.786025e-16 
         6181.018  1.847376e-16 
         6183.398  1.823714e-16 
         6185.778  1.774132e-16 
         6188.158  1.784835e-16 
         6190.538   1.78121e-16 
         6192.918  1.769124e-16 
         6195.298  1.728485e-16 
         6197.679  1.675504e-16 
         6200.059   1.63807e-16 
         6202.439  1.592005e-16 
         6204.819  1.570645e-16 
         6207.199  1.606768e-16 
         6209.579   1.66281e-16 
         6211.959  1.678889e-16 
         6214.339  1.658824e-16 
          6216.72  1.657702e-16 
           6219.1  1.645703e-16 
          6221.48  1.674457e-16 
          6223.86  1.731622e-16 
          6226.24  1.691727e-16 
          6228.62  1.552783e-16 
           6231.0  1.511417e-16 
          6233.38  1.507366e-16 
         6235.761  1.489697e-16 
         6238.141  1.478961e-16 
         6240.521  1.429117e-16 
         6242.901  1.471624e-16 
         6245.281  1.484329e-16 
         6247.662  1.486366e-16 
         6250.042  1.529084e-16 
         6252.422  1.507642e-16 
         6254.802  1.477517e-16 
         6257.182  1.441017e-16 
         6259.562  1.452107e-16 
         6261.942  1.507795e-16 
         6264.322  1.533642e-16 
         6266.703  1.538185e-16 
         6269.083  1.497014e-16 
         6271.463  1.440249e-16 
         6273.843  1.397888e-16 
         6276.223  1.336413e-16 
         6278.603  1.239057e-16 
         6280.983  1.280057e-16 
         6283.363  1.373356e-16 
         6285.744  1.373947e-16 
         6288.124   1.28813e-16 
         6290.504  1.227083e-16 
         6292.884  1.228332e-16 
         6295.264  1.358933e-16 
         6297.644  1.729014e-16 
         6300.024  1.908117e-16 
         6302.404  1.502615e-16 
         6304.785  1.282341e-16 
         6307.165  1.227862e-16 
         6309.545  1.256521e-16 
         6311.925  1.316668e-16 
         6314.305  1.340665e-16 
         6316.685  1.331309e-16 
         6319.065  1.325597e-16 
         6321.445  1.313627e-16 
         6323.826  1.334196e-16 
         6326.206  1.358952e-16 
         6328.586  1.290102e-16 
         6330.966  1.254997e-16 
         6333.346   1.24477e-16 
         6335.726  1.255264e-16 
         6338.106  1.262153e-16 
         6340.486  1.223288e-16 
         6342.867  1.198748e-16 
         6345.247  1.246449e-16 
         6347.627  1.280822e-16 
         6350.007  1.265369e-16 
         6352.387  1.247153e-16 
         6354.767   1.22936e-16 
         6357.147  1.245556e-16 
         6359.527  1.303313e-16 
         6361.908  1.288771e-16 
         6364.288  1.191088e-16 
         6366.668  1.179687e-16 
         6369.048  1.213516e-16 
         6371.428  1.186782e-16 
         6373.808  1.181933e-16 
         6376.188  1.212039e-16 
         6378.568  1.183729e-16 
         6380.949  1.212328e-16 
         6383.329  1.229355e-16 
         6385.709  1.214163e-16 
         6388.089  1.207756e-16 
         6390.469  1.210487e-16 
         6392.849  1.177499e-16 
         6395.229  1.172785e-16 
         6397.609  1.185914e-16 
          6399.99  1.147282e-16 
          6402.37  1.097081e-16 
          6404.75  1.139104e-16 
          6407.13  1.127704e-16 
          6409.51  1.095885e-16 
          6411.89   1.09795e-16 
         6414.271  1.126566e-16 
         6416.651  1.133532e-16 
         6419.031  1.086586e-16 
         6421.411  1.096321e-16 
         6423.791  1.118387e-16 
         6426.171  1.124147e-16 
         6428.551  1.136994e-16 
         6430.932  1.110588e-16 
         6433.312  1.108354e-16 
         6435.692  1.090942e-16 
         6438.072  1.092997e-16 
         6440.452  1.127259e-16 
         6442.832  1.113999e-16 
         6445.212  1.151067e-16 
         6447.592  1.119203e-16 
         6449.973  1.088535e-16 
         6452.353  1.131097e-16 
         6454.733  1.154406e-16 
         6457.113  1.156962e-16 
         6459.493  1.136528e-16 
         6461.873  1.084846e-16 
         6464.253  1.072483e-16 
         6466.633  1.116799e-16 
         6469.014  1.082268e-16 
         6471.394  1.067583e-16 
         6473.774  1.109433e-16 
         6476.154   1.14161e-16 
         6478.534  1.147931e-16 
         6480.914  1.187795e-16 
         6483.294  1.193815e-16 
         6485.674  1.236535e-16 
         6488.055  1.247417e-16 
         6490.435  1.164099e-16 
         6492.815  1.081734e-16 
         6495.195   1.07765e-16 
         6497.575  1.158575e-16 
         6499.955  1.224156e-16 
         6502.335   1.21289e-16 
         6504.715  1.180111e-16 
         6507.096  1.197638e-16 
         6509.476   1.20697e-16 
         6511.856  1.172483e-16 
         6514.236  1.154317e-16 
         6516.616  1.183153e-16 
         6518.996  1.193759e-16 
         6521.376  1.204192e-16 
         6523.756  1.248607e-16 
         6526.137  1.254553e-16 
         6528.517  1.201685e-16 
         6530.897  1.185518e-16 
         6533.277  1.213701e-16 
         6535.657  1.209024e-16 
         6538.037  1.184147e-16 
         6540.417  1.205406e-16 
         6542.797  1.249298e-16 
         6545.178  1.215095e-16 
         6547.558  1.214761e-16 
         6549.938  1.253092e-16 
         6552.318  1.294585e-16 
         6554.698  1.301823e-16 
         6557.078  1.255853e-16 
         6559.458  1.258916e-16 
         6561.838  1.259509e-16 
         6564.219  1.198315e-16 
         6566.599  1.141729e-16 
         6568.979  1.194355e-16 
         6571.359  1.293755e-16 
         6573.739  1.295697e-16 
         6576.119   1.26353e-16 
           6578.5  1.257103e-16 
         6580.879  1.258393e-16 
          6583.26  1.304629e-16 
          6585.64  1.327059e-16 
          6588.02  1.365265e-16 
           6590.4  1.374192e-16 
          6592.78  1.311143e-16 
         6595.161  1.277725e-16 
         6597.541  1.283937e-16 
         6599.921  1.278479e-16 
         6602.301   1.32321e-16 
         6604.681  1.384296e-16 
         6607.061  1.328297e-16 
         6609.441  1.268278e-16 
         6611.821  1.220964e-16 
         6614.202   1.23127e-16 
         6616.582   1.27866e-16 
         6618.962  1.299707e-16 
         6621.342  1.323945e-16 
         6623.722  1.349863e-16 
         6626.102  1.337119e-16 
         6628.482  1.348588e-16 
         6630.862  1.406466e-16 
         6633.243  1.377235e-16 
         6635.623  1.268463e-16 
         6638.003  1.184822e-16 
         6640.383  1.206735e-16 
         6642.763   1.29171e-16 
         6645.143   1.33351e-16 
         6647.523  1.325439e-16 
         6649.903  1.294836e-16 
         6652.284  1.301006e-16 
         6654.664  1.306285e-16 
         6657.044  1.265081e-16 
         6659.424  1.270541e-16 
         6661.804  1.257303e-16 
         6664.184  1.223851e-16 
         6666.564  1.193474e-16 
         6668.944  1.171424e-16 
         6671.325  1.177164e-16 
         6673.705  1.253328e-16 
         6676.085  1.326344e-16 
         6678.465   1.30445e-16 
         6680.845  1.242494e-16 
         6683.225  1.244877e-16 
         6685.605  1.212537e-16 
         6687.985  1.210458e-16 
         6690.366  1.218152e-16 
         6692.746  1.214312e-16 
         6695.126  1.208769e-16 
         6697.506  1.160275e-16 
         6699.886  1.150552e-16 
         6702.266  1.181261e-16 
         6704.646  1.205066e-16 
         6707.026  1.212621e-16 
         6709.407    1.2283e-16 
         6711.787   1.22378e-16 
         6714.167  1.216369e-16 
         6716.547  1.220806e-16 
         6718.927  1.219418e-16 
         6721.307   1.20366e-16 
         6723.688  1.215793e-16 
         6726.067   1.22599e-16 
         6728.448  1.207979e-16 
         6730.828  1.196423e-16 
         6733.208  1.221998e-16 
         6735.588  1.239092e-16 
         6737.968  1.260152e-16 
         6740.348  1.300214e-16 
         6742.729  1.319734e-16 
         6745.108  1.288674e-16 
         6747.489  1.248851e-16 
         6749.869  1.226068e-16 
         6752.249  1.238635e-16 
         6754.629  1.240091e-16 
         6757.009  1.214459e-16 
         6759.389  1.225521e-16 
          6761.77  1.289419e-16 
          6764.15  1.337112e-16 
          6766.53  1.348596e-16 
          6768.91  1.352763e-16 
          6771.29  1.356379e-16 
          6773.67  1.333179e-16 
          6776.05  1.325536e-16 
         6778.431    1.3547e-16 
         6780.811  1.384111e-16 
         6783.191   1.38414e-16 
         6785.571  1.376362e-16 
         6787.951  1.353053e-16 
         6790.331  1.320666e-16 
         6792.711  1.354902e-16 
         6795.091  1.433461e-16 
         6797.472  1.433881e-16 
         6799.852  1.410381e-16 
         6802.232  1.410023e-16 
         6804.612  1.393393e-16 
         6806.992   1.37119e-16 
         6809.372  1.406312e-16 
         6811.752  1.453862e-16 
         6814.132  1.415055e-16 
         6816.513  1.370912e-16 
         6818.893  1.383268e-16 
         6821.273  1.402196e-16 
         6823.653  1.391174e-16 
         6826.033  1.411895e-16 
         6828.413  1.440282e-16 
         6830.793  1.452478e-16 
         6833.173  1.452383e-16 
         6835.554  1.442809e-16 
         6837.934  1.432003e-16 
         6840.314  1.457129e-16 
         6842.694  1.459476e-16 
         6845.074  1.419273e-16 
         6847.454  1.406227e-16 
         6849.834  1.430262e-16 
         6852.214  1.402453e-16 
         6854.595  1.339534e-16 
         6856.975  1.330754e-16 
         6859.355  1.396047e-16 
         6861.735  1.444167e-16 
         6864.115  1.412616e-16 
         6866.495   1.35536e-16 
         6868.875  1.338085e-16 
         6871.255  1.366429e-16 
         6873.636  1.374853e-16 
         6876.016  1.405575e-16 
         6878.396  1.421308e-16 
         6880.776  1.383908e-16 
         6883.156   1.34712e-16 
         6885.536   1.37178e-16 
         6887.917  1.379199e-16 
         6890.296  1.318825e-16 
         6892.677  1.306173e-16 
         6895.057  1.353232e-16 
         6897.437  1.362318e-16 
         6899.817  1.340556e-16 
         6902.197  1.361836e-16 
         6904.577  1.335189e-16 
         6906.958  1.314022e-16 
         6909.337  1.356548e-16 
         6911.718  1.373304e-16 
         6914.098  1.378951e-16 
         6916.478  1.365439e-16 
         6918.858  1.362049e-16 
         6921.238  1.368232e-16 
         6923.618   1.34933e-16 
         6925.999  1.328624e-16 
         6928.378  1.340449e-16 
         6930.759  1.340704e-16 
         6933.139  1.334678e-16 
         6935.519  1.340804e-16 
         6937.899  1.314031e-16 
         6940.279  1.314297e-16 
          6942.66  1.320998e-16 
          6945.04    1.3689e-16 
          6947.42  1.411353e-16 
           6949.8  1.331525e-16 
          6952.18  1.283155e-16 
          6954.56  1.284597e-16 
          6956.94    1.3003e-16 
          6959.32  1.320286e-16 
         6961.701  1.334953e-16 
         6964.081  1.342166e-16 
         6966.461  1.292421e-16 
         6968.841  1.290168e-16 
         6971.221  1.363872e-16 
         6973.601  1.420072e-16 
         6975.981  1.423788e-16 
         6978.361  1.418597e-16 
         6980.742  1.383409e-16 
         6983.122  1.353754e-16 
         6985.502  1.372086e-16 
         6987.882  1.417765e-16 
         6990.262  1.488718e-16 
         6992.642  1.515725e-16 
         6995.022  1.490602e-16 
         6997.402  1.433375e-16 
         6999.783  1.367373e-16 
         7002.163  1.353358e-16 
         7004.543  1.386711e-16 
         7006.923  1.441392e-16 
         7009.303  1.458791e-16 
         7011.683  1.420653e-16 
         7014.063  1.401179e-16 
         7016.443  1.424281e-16 
         7018.824   1.47086e-16 
         7021.204  1.491854e-16 
         7023.584    1.4757e-16 
         7025.964  1.473977e-16 
         7028.344  1.516795e-16 
         7030.724  1.547274e-16 
         7033.104  1.545046e-16 
         7035.484  1.537339e-16 
         7037.865  1.550929e-16 
         7040.245   1.58671e-16 
         7042.625  1.616849e-16 
         7045.005  1.617912e-16 
         7047.385  1.628661e-16 
         7049.765  1.663608e-16 
         7052.146  1.652038e-16 
         7054.525  1.631798e-16 
         7056.906  1.640749e-16 
         7059.286  1.650251e-16 
         7061.666  1.641323e-16 
         7064.046  1.641209e-16 
         7066.426  1.624781e-16 
         7068.806  1.610457e-16 
         7071.187  1.640783e-16 
         7073.566  1.711716e-16 
         7075.947  1.764345e-16 
         7078.327  1.765402e-16 
         7080.707   1.76514e-16 
         7083.087   1.74814e-16 
         7085.467  1.742127e-16 
         7087.847  1.787538e-16 
         7090.228  1.829427e-16 
         7092.607  1.853035e-16 
         7094.988  1.847719e-16 
         7097.368  1.815017e-16 
         7099.748  1.766766e-16 
         7102.128  1.727393e-16 
         7104.508  1.736505e-16 
         7106.889   1.74756e-16 
         7109.269  1.742718e-16 
         7111.649  1.769488e-16 
         7114.029  1.833533e-16 
         7116.409  1.829105e-16 
         7118.789  1.797634e-16 
         7121.169   1.80052e-16 
         7123.549  1.802036e-16 
          7125.93  1.774769e-16 
          7128.31  1.797901e-16 
          7130.69  1.833285e-16 
          7133.07  1.836268e-16 
          7135.45  1.827738e-16 
          7137.83  1.837353e-16 
          7140.21  1.835333e-16 
          7142.59  1.783148e-16 
         7144.971  1.738553e-16 
         7147.351  1.732879e-16 
         7149.731  1.759714e-16 
         7152.111  1.784556e-16 
         7154.491  1.745089e-16 
         7156.871  1.691474e-16 
         7159.251  1.667865e-16 
         7161.631  1.689347e-16 
         7164.012  1.738946e-16 
         7166.392  1.769947e-16 
         7168.772  1.761273e-16 
         7171.152  1.721573e-16 
         7173.532  1.705402e-16 
         7175.912  1.739281e-16 
         7178.292   1.76759e-16 
         7180.672  1.738347e-16 
         7183.053  1.718423e-16 
         7185.433  1.686695e-16 
         7187.813  1.636321e-16 
         7190.193   1.63897e-16 
         7192.573   1.67924e-16 
         7194.953  1.642358e-16 
         7197.333  1.618837e-16 
         7199.713  1.645337e-16 
         7202.094   1.64398e-16 
         7204.474  1.628491e-16 
         7206.854  1.642464e-16 
         7209.234     1.679e-16 
         7211.614  1.688572e-16 
         7213.994  1.658965e-16 
         7216.375  1.637052e-16 
         7218.754  1.637007e-16 
         7221.135  1.659981e-16 
         7223.515    1.6775e-16 
         7225.895  1.665538e-16 
         7228.275  1.611392e-16 
         7230.655  1.509912e-16 
         7233.035  1.492808e-16 
         7235.416  1.539998e-16 
         7237.795   1.58708e-16 
         7240.176  1.627386e-16 
         7242.556   1.65882e-16 
         7244.936  1.662884e-16 
         7247.316  1.622844e-16 
         7249.696  1.585008e-16 
         7252.076  1.587846e-16 
         7254.457  1.596438e-16 
         7256.836  1.586403e-16 
         7259.217   1.54472e-16 
         7261.597  1.507932e-16 
         7263.977  1.513649e-16 
         7266.357  1.549626e-16 
         7268.737  1.577286e-16 
         7271.117  1.593366e-16 
         7273.498  1.572177e-16 
         7275.877  1.539128e-16 
         7278.258  1.539422e-16 
         7280.638  1.544106e-16 
         7283.018  1.533769e-16 
         7285.398  1.507526e-16 
         7287.778  1.488729e-16 
         7290.159   1.47856e-16 
         7292.539  1.455074e-16 
         7294.919   1.45649e-16 
         7297.299  1.471047e-16 
         7299.679  1.474903e-16 
         7302.059  1.496241e-16 
         7304.439  1.574868e-16 
         7306.819  1.650153e-16 
           7309.2  1.618797e-16 
          7311.58  1.582527e-16 
          7313.96  1.597305e-16 
          7316.34  1.588577e-16 
          7318.72  1.535922e-16 
           7321.1   1.46302e-16 
          7323.48  1.389478e-16 
          7325.86  1.386797e-16 
         7328.241  1.434346e-16 
         7330.621  1.399745e-16 
         7333.001  1.358348e-16 
         7335.381  1.345035e-16 
         7337.761  1.372777e-16 
         7340.141  1.394249e-16 
         7342.521  1.367013e-16 
         7344.901  1.380607e-16 
         7347.282  1.395566e-16 
         7349.662  1.403751e-16 
         7352.042  1.399789e-16 
         7354.422  1.364017e-16 
         7356.802  1.309627e-16 
         7359.182  1.250603e-16 
         7361.563  1.233644e-16 
         7363.942  1.290454e-16 
         7366.323  1.353611e-16 
         7368.703  1.321029e-16 
         7371.083  1.274285e-16 
         7373.463  1.252486e-16 
         7375.843  1.255158e-16 
         7378.223  1.263141e-16 
         7380.604  1.262075e-16 
         7382.983  1.266292e-16 
         7385.364  1.277881e-16 
         7387.744  1.285885e-16 
         7390.124  1.298388e-16 
         7392.504  1.313333e-16 
         7394.884  1.297377e-16 
         7397.264  1.298267e-16 
         7399.645  1.268292e-16 
         7402.024  1.205205e-16 
         7404.405  1.180631e-16 
         7406.785  1.224703e-16 
         7409.165  1.271768e-16 
         7411.545  1.264317e-16 
         7413.925  1.224875e-16 
         7416.305  1.204771e-16 
         7418.686   1.20308e-16 
         7421.065  1.174213e-16 
         7423.446  1.150382e-16 
         7425.826  1.129253e-16 
         7428.206  1.117936e-16 
         7430.586  1.121235e-16 
         7432.966  1.104637e-16 
         7435.346  1.143635e-16 
         7437.727  1.198441e-16 
         7440.106  1.222564e-16 
         7442.487  1.225977e-16 
         7444.867  1.219765e-16 
         7447.247  1.185547e-16 
         7449.627  1.170944e-16 
         7452.007  1.206844e-16 
         7454.388  1.240909e-16 
         7456.768  1.213169e-16 
         7459.148  1.179574e-16 
         7461.528  1.154464e-16 
         7463.908  1.122163e-16 
         7466.288    1.1111e-16 
         7468.668  1.142443e-16 
         7471.048   1.15325e-16 
         7473.429  1.153269e-16 
         7475.809  1.173867e-16 
         7478.189  1.205086e-16 
         7480.569  1.203161e-16 
         7482.949  1.159729e-16 
         7485.329  1.142813e-16 
         7487.709  1.148797e-16 
         7490.089  1.179441e-16 
          7492.47  1.213056e-16 
          7494.85  1.218644e-16 
          7497.23  1.242995e-16 
          7499.61  1.208895e-16 
          7501.99   1.17919e-16 
          7504.37  1.177858e-16 
          7506.75  1.153612e-16 
          7509.13  1.140746e-16 
         7511.511  1.088969e-16 
         7513.891  1.057004e-16 
         7516.271  1.075319e-16 
         7518.651  1.102676e-16 
         7521.031  1.102617e-16 
         7523.411  1.063991e-16 
         7525.792   1.06461e-16 
         7528.171  1.089578e-16 
         7530.552  1.072777e-16 
         7532.932  1.020754e-16 
         7535.312  9.962063e-17 
         7537.692  1.002254e-16 
         7540.072  1.047517e-16 
         7542.452  1.099265e-16 
         7544.833  1.110682e-16 
         7547.212  1.104912e-16 
         7549.593  1.086686e-16 
         7551.973  1.026792e-16 
         7554.353  9.715672e-17 
         7556.733  9.800982e-17 
         7559.113   1.01388e-16 
         7561.493  1.022455e-16 
         7563.874   9.92552e-17 
         7566.253  9.688711e-17 
         7568.634  9.861897e-17 
         7571.014  1.012986e-16 
         7573.394  1.001692e-16 
         7575.774  1.009171e-16 
         7578.154  9.911261e-17 
         7580.534  9.497268e-17 
         7582.915  1.126763e-16 
         7585.294  1.161334e-16 
         7587.675  1.212858e-16 
         7590.055  1.183068e-16 
         7592.435  1.076704e-16 
         7594.815  9.762508e-17 
         7597.195  8.809325e-17 
         7599.575  7.867122e-17 
         7601.956  7.374943e-17 
         7604.335  7.527413e-17 
         7606.716  7.942308e-17 
         7609.096  8.284422e-17 
         7611.476  8.970559e-17 
         7613.856   9.82273e-17 
         7616.236  1.035906e-16 
         7618.616  1.076521e-16 
         7620.997   1.11961e-16 
         7623.376  1.085452e-16 
         7625.757  1.055983e-16 
         7628.137  1.039167e-16 
         7630.517  1.009873e-16 
         7632.897  9.682578e-17 
         7635.277  9.402776e-17 
         7637.658  9.674106e-17 
         7640.038  9.485397e-17 
         7642.418  9.083516e-17 
         7644.798  9.141715e-17 
         7647.178  9.366652e-17 
         7649.558  9.618251e-17 
         7651.938  9.512739e-17 
         7654.318  9.375438e-17 
         7656.699  9.497938e-17 
         7659.079  9.640347e-17 
         7661.459  9.590902e-17 
         7663.839  9.406797e-17 
         7666.219  8.930078e-17 
         7668.599  8.589563e-17 
         7670.979  8.893099e-17 
         7673.359  9.464102e-17 
          7675.74  9.766212e-17 
          7678.12  9.568986e-17 
           7680.5  9.398177e-17 
          7682.88  9.764416e-17 
          7685.26  1.035586e-16 
          7687.64  1.043666e-16 
         7690.021  9.814679e-17 
           7692.4  9.218407e-17 
         7694.781  8.799402e-17 
         7697.161  8.761003e-17 
         7699.541  9.452321e-17 
         7701.921  9.688683e-17 
         7704.301  9.815616e-17 
         7706.681  9.805331e-17 
         7709.062  9.475102e-17 
         7711.441  9.701764e-17 
         7713.822  1.020716e-16 
         7716.202  1.038741e-16 
         7718.582   1.04665e-16 
         7720.962  1.016261e-16 
         7723.342  8.959971e-17 
         7725.722  8.694229e-17 
         7728.103  9.062392e-17 
         7730.482  9.583603e-17 
         7732.863  9.898915e-17 
         7735.243  9.736483e-17 
         7737.623  9.398813e-17 
         7740.003    9.2012e-17 
         7742.383  9.239748e-17 
         7744.763  9.991877e-17 
         7747.144  1.110586e-16 
         7749.523  1.097476e-16 
         7751.904  1.003899e-16 
         7754.284   9.48186e-17 
         7756.664  9.357677e-17 
         7759.044  9.346614e-17 
         7761.424  9.573843e-17 
         7763.804  9.622161e-17 
         7766.185  9.398831e-17 
         7768.564  1.019753e-16 
         7770.945  1.149452e-16 
         7773.325  1.144282e-16 
         7775.705  1.082736e-16 
         7778.085  1.028199e-16 
         7780.465  9.603276e-17 
         7782.845  8.964293e-17 
         7785.226  9.002553e-17 
         7787.605   9.75699e-17 
         7789.986  1.049675e-16 
         7792.366  1.121161e-16 
         7794.746  1.118628e-16 
         7797.126  1.033506e-16 
         7799.506  9.819885e-17 
         7801.887  9.565338e-17 
         7804.267  9.651576e-17 
         7806.647  9.968905e-17 
         7809.027  9.950753e-17 
         7811.407  9.439903e-17 
         7813.787  9.351034e-17 
         7816.167    9.4829e-17 
         7818.547  1.022754e-16 
         7820.928  1.070904e-16 
         7823.308  1.021456e-16 
         7825.688  1.013438e-16 
         7828.068  1.034091e-16 
         7830.448  1.059158e-16 
         7832.828  1.049719e-16 
         7835.208  1.020637e-16 
         7837.588   1.02637e-16 
         7839.969   1.01351e-16 
         7842.349  9.822435e-17 
         7844.729  9.274478e-17 
         7847.109  8.785537e-17 
         7849.489  9.127504e-17 
         7851.869  1.046965e-16 
          7854.25  1.122541e-16 
         7856.629  1.096626e-16 
          7859.01  1.025999e-16 
          7861.39  9.757437e-17 
          7863.77  9.643209e-17 
          7866.15  9.374626e-17 
          7868.53  9.950539e-17 
          7870.91  1.018246e-16 
         7873.291  9.491303e-17 
          7875.67  9.768862e-17 
         7878.051  1.031945e-16 
         7880.431  1.065188e-16 
         7882.811  1.036871e-16 
         7885.191  1.003738e-16 
         7887.571  1.047995e-16 
         7889.951  1.102244e-16 
         7892.332  1.145055e-16 
         7894.711  1.104184e-16 
         7897.092  1.017437e-16 
         7899.472  9.684272e-17 
         7901.852  9.229145e-17 
         7904.232  8.879301e-17 
         7906.612   8.94164e-17 
         7908.992  9.542727e-17 
         7911.373  1.026562e-16 
         7913.752  1.061293e-16 
         7916.133  1.094289e-16 
         7918.513  1.109806e-16 
         7920.893  1.124567e-16 
         7923.273  1.136222e-16 
         7925.653  1.095841e-16 
         7928.033  1.020118e-16 
         7930.414  1.088872e-16 
         7932.793  1.110272e-16 
         7935.174  1.052468e-16 
         7937.554  1.052263e-16 
         7939.934  1.034166e-16 
         7942.314  1.066698e-16 
         7944.694  1.066824e-16 
         7947.074  1.034447e-16 
         7949.455  1.054833e-16 
         7951.834  1.113495e-16 
         7954.215  1.093519e-16 
         7956.595  1.083508e-16 
         7958.975   1.11755e-16 
         7961.355  1.187616e-16 
         7963.735  1.293543e-16 
         7966.115  1.372212e-16 
         7968.496  1.367597e-16 
         7970.875  1.248056e-16 
         7973.256  1.133827e-16 
         7975.636  1.153609e-16 
         7978.016  1.237081e-16 
         7980.396  1.301817e-16 
         7982.776  1.267431e-16 
         7985.157  1.174792e-16 
         7987.537  1.127036e-16 
         7989.917  1.186885e-16 
         7992.297  1.369482e-16 
         7994.677  1.462379e-16 
         7997.057  1.344694e-16 
         7999.438  1.205095e-16 
         8001.817  1.264406e-16 
         8004.198  1.358681e-16 
         8006.578  1.369324e-16 
         8008.958  1.360106e-16 
         8011.338  1.388096e-16 
         8013.718  1.404082e-16 
         8016.098  1.369972e-16 
         8018.479  1.381184e-16 
         8020.858  1.411308e-16 
         8023.239  1.460531e-16 
         8025.619  1.535667e-16 
         8027.999  1.570041e-16 
         8030.379   1.53264e-16 
         8032.759  1.471821e-16 
         8035.139  1.419468e-16 
          8037.52  1.446736e-16 
         8039.899  1.583776e-16 
          8042.28  1.657864e-16 
          8044.66  1.618109e-16 
          8047.04   1.54457e-16 
          8049.42  1.575588e-16 
           8051.8  1.665354e-16 
          8054.18  1.591725e-16 
         8056.561  1.555518e-16 
          8058.94  1.584135e-16 
         8061.321  1.677172e-16 
         8063.701  1.755061e-16 
         8066.081  1.691318e-16 
         8068.461  1.681309e-16 
         8070.841  1.680523e-16 
         8073.221  1.650503e-16 
         8075.602  1.626467e-16 
         8077.981  1.616972e-16 
         8080.362  1.584069e-16 
         8082.742  1.602727e-16 
         8085.122  1.597597e-16 
         8087.502  1.545942e-16 
         8089.882  1.521114e-16 
         8092.262  1.524962e-16 
         8094.643   1.55087e-16 
         8097.022  1.560043e-16 
         8099.403  1.567205e-16 
         8101.783  1.576494e-16 
         8104.163  1.549805e-16 
         8106.543  1.535795e-16 
         8108.923  1.445512e-16 
         8111.303  1.405507e-16 
         8113.684  1.454015e-16 
         8116.063  1.458076e-16 
         8118.444  1.505866e-16 
         8120.824  1.539996e-16 
         8123.204  1.566402e-16 
         8125.584  1.586838e-16 
         8127.964   1.54442e-16 
         8130.344  1.429791e-16 
         8132.725   1.38078e-16 
         8135.104  1.382177e-16 
         8137.485  1.405117e-16 
         8139.865  1.450134e-16 
         8142.245  1.484535e-16 
         8144.625  1.478483e-16 
         8147.005  1.476793e-16 
         8149.386  1.465998e-16 
         8151.766  1.380057e-16 
         8154.146  1.252032e-16 
         8156.526  1.246577e-16 
         8158.906  1.241733e-16 
         8161.286  1.273106e-16 
         8163.667  1.287145e-16 
         8166.046   1.22681e-16 
         8168.427  1.281987e-16 
         8170.807  1.340481e-16 
         8173.187  1.347754e-16 
         8175.567  1.336843e-16 
         8177.947  1.351421e-16 
         8180.327   1.39106e-16 
         8182.708    1.4125e-16 
         8185.087  1.413766e-16 
         8187.468  1.426626e-16 
         8189.848  1.455976e-16 
         8192.228  1.437037e-16 
         8194.608  1.317115e-16 
         8196.988  1.311827e-16 
         8199.368  1.365433e-16 
         8201.748   1.34583e-16 
         8204.129  1.300469e-16 
         8206.509  1.341014e-16 
         8208.889  1.378533e-16 
         8211.269  1.416446e-16 
         8213.649  1.408591e-16 
         8216.029  1.347971e-16 
         8218.409  1.343069e-16 
         8220.789  1.342396e-16 
          8223.17  1.287547e-16 
          8225.55  1.222789e-16 
          8227.93   1.19205e-16 
          8230.31  1.180746e-16 
          8232.69  1.197362e-16 
          8235.07  1.196161e-16 
          8237.45  1.198125e-16 
          8239.83  1.219879e-16 
         8242.211  1.231386e-16 
         8244.591  1.215544e-16 
         8246.971  1.193739e-16 
         8249.351  1.178116e-16 
         8251.731  1.171626e-16 
         8254.111  1.150191e-16 
         8256.491  1.106152e-16 
         8258.871   1.14381e-16 
         8261.252  1.194856e-16 
         8263.632  1.220808e-16 
         8266.012  1.237457e-16 
         8268.392  1.239644e-16 
         8270.772  1.214391e-16 
         8273.152    1.1967e-16 
         8275.532  1.182223e-16 
         8277.912  1.149125e-16 
         8280.293  1.106347e-16 
         8282.673  1.100772e-16 
         8285.053  1.178168e-16 
         8287.433  1.227679e-16 
         8289.813  1.168809e-16 
         8292.193  1.084253e-16 
         8294.573  1.119195e-16 
         8296.953  1.241573e-16 
         8299.334  1.222954e-16 
         8301.714  1.097865e-16 
         8304.094  1.015701e-16 
         8306.474  1.009104e-16 
         8308.854   1.09888e-16 
         8311.234  1.202223e-16 
         8313.614  1.199983e-16 
         8315.994  1.159782e-16 
         8318.375  1.169511e-16 
         8320.755  1.094209e-16 
         8323.135  1.035461e-16 
         8325.516  1.055961e-16 
         8327.896  1.086889e-16 
         8330.275  1.071689e-16 
         8332.655  1.037368e-16 
         8335.036   9.25988e-17 
         8337.416  8.374758e-17 
         8339.796  1.011977e-16 
         8342.176  1.387504e-16 
         8344.557  1.544875e-16 
         8346.937  1.319946e-16 
         8349.316  1.027037e-16 
         8351.696  9.950866e-17 
         8354.077  1.105078e-16 
         8356.457  1.070082e-16 
         8358.837  9.951787e-17 
         8361.217  1.024705e-16 
         8363.598  1.089049e-16 
         8365.978  1.085921e-16 
         8368.357  9.858374e-17 
         8370.737  8.418703e-17 
         8373.118   8.18643e-17 
         8375.498  7.785369e-17 
         8377.878  8.385741e-17 
         8380.258  9.750546e-17 
         8382.639  9.347365e-17 
         8385.019  9.254942e-17 
         8387.398  8.051034e-17 
         8389.778  7.060599e-17 
         8392.159  6.970354e-17 
         8394.539  7.368204e-17 
         8396.919  9.667563e-17 
         8399.299  1.110038e-16 
          8401.68   9.80386e-17 
          8404.06  7.528067e-17 
         8406.439  6.744073e-17 
         8408.819   7.25066e-17 
           8411.2  7.954338e-17 
          8413.58  8.266991e-17 
          8415.96  7.958972e-17 
          8418.34  7.439282e-17 
         8420.721  7.162813e-17 
         8423.101  6.605054e-17 
          8425.48  7.151561e-17 
          8427.86  1.018893e-16 
         8430.241  1.252943e-16 
         8432.621  1.064251e-16 
         8435.001  7.989908e-17 
         8437.381  7.408942e-17 
         8439.762  7.953587e-17 
         8442.142  8.482522e-17 
         8444.521  8.986042e-17 
         8446.901  9.207456e-17 
         8449.282  8.802143e-17 
         8451.662  8.840685e-17 
         8454.042  8.597754e-17 
         8456.422  7.535607e-17 
         8458.803  7.326374e-17 
         8461.183   8.92187e-17 
         8463.563   9.97478e-17 
         8465.942  9.286469e-17 
         8468.323  7.789678e-17 
         8470.703  6.720168e-17 
         8473.083  6.201679e-17 
         8475.463    6.4837e-17 
         8477.844  7.565984e-17 
         8480.224  7.915226e-17 
         8482.604  6.969468e-17 
         8484.983  6.533591e-17 
         8487.364  6.215706e-17 
         8489.744  6.764896e-17 
         8492.124  7.610704e-17 
         8494.505  7.978026e-17 
         8496.885  8.059784e-17 
         8499.265  7.548849e-17 
         8501.645  8.037912e-17 
         8504.025  8.634254e-17 
         8506.405  7.891961e-17 
         8508.785  6.845599e-17 
         8511.165  7.601761e-17 
         8513.546  8.142013e-17 
         8515.926  8.037944e-17 
         8518.306  7.737731e-17 
         8520.686   7.43028e-17 
         8523.066  7.449459e-17 
         8525.446  8.305642e-17 
         8527.826  9.313074e-17 
         8530.206  9.571093e-17 
         8532.587  9.527259e-17 
         8534.967   1.00766e-16 
         8537.347  1.011201e-16 
         8539.727  9.962737e-17 
         8542.107  9.512848e-17 
         8544.487  8.756208e-17 
         8546.867  8.401441e-17 
         8549.247  8.890889e-17 
         8551.628  9.522554e-17 
         8554.008  1.075596e-16 
         8556.388  1.155379e-16 
         8558.768  1.087364e-16 
         8561.148  1.020573e-16 
         8563.528  1.010612e-16 
         8565.908  1.026072e-16 
         8568.288  1.065925e-16 
         8570.669  1.095848e-16 
         8573.049  1.065946e-16 
         8575.429  1.076739e-16 
         8577.809  1.086376e-16 
         8580.189  1.091238e-16 
         8582.569   1.08771e-16 
         8584.949  1.069116e-16 
         8587.329  1.092409e-16 
          8589.71  1.109122e-16 
          8592.09     1.071e-16 
          8594.47  1.058585e-16 
          8596.85  1.120574e-16 
          8599.23  1.154811e-16 
          8601.61  1.196849e-16 
          8603.99  1.193493e-16 
          8606.37  1.142794e-16 
         8608.751   1.08107e-16 
         8611.131  1.050157e-16 
         8613.511  1.133879e-16 
         8615.891  1.134446e-16 
         8618.271  1.154564e-16 
         8620.651  1.259028e-16 
         8623.031  1.316108e-16 
         8625.411  1.345278e-16 
         8627.792  1.332189e-16 
         8630.172  1.272025e-16 
         8632.552  1.220578e-16 
         8634.932  1.216575e-16 
         8637.313  1.214968e-16 
         8639.692  1.203582e-16 
         8642.072  1.149033e-16 
 8644.45200000002  1.156579e-16 
         8646.833   1.23873e-16 
         8649.213  1.235832e-16 
         8651.593  1.194711e-16 
         8653.973  1.211085e-16 
         8656.354  1.299084e-16 
         8658.733   1.31433e-16 
         8661.113  1.207017e-16 
         8663.494  1.250047e-16 
         8665.874  1.447659e-16 
         8668.254  1.509417e-16 
         8670.634  1.385431e-16 
         8673.015  1.265923e-16 
         8675.395     1.237e-16 
         8677.774  1.351658e-16 
         8680.154  1.344042e-16 
         8682.535  1.252428e-16 
         8684.915  1.275216e-16 
         8687.295  1.359349e-16 
         8689.675  1.365419e-16 
         8692.056  1.386567e-16 
         8694.436  1.388386e-16 
         8696.815  1.312777e-16 
         8699.195  1.229922e-16 
         8701.576  1.228731e-16 
         8703.956  1.303471e-16 
         8706.336  1.321701e-16 
         8708.716  1.286727e-16 
         8711.097   1.30479e-16 
         8713.477  1.355354e-16 
         8715.856  1.349311e-16 
         8718.236   1.33643e-16 
         8720.617  1.370796e-16 
         8722.997  1.397864e-16 
         8725.377  1.342352e-16 
         8727.757  1.281189e-16 
         8730.138  1.255813e-16 
         8732.518  1.269916e-16 
         8734.897  1.297468e-16 
         8737.277  1.290045e-16 
         8739.658  1.226201e-16 
         8742.038  1.212139e-16 
         8744.418  1.262311e-16 
         8746.798  1.261471e-16 
         8749.179  1.189088e-16 
         8751.559  1.180334e-16 
         8753.938  1.124331e-16 
         8756.318  1.134109e-16 
         8758.699  1.182072e-16 
         8761.079  1.140724e-16 
         8763.459  1.079731e-16 
         8765.839  1.203482e-16 
          8768.22  1.332415e-16 
           8770.6  1.267224e-16 
         8772.979  1.226771e-16 
         8775.359  1.516476e-16 
          8777.74   1.80061e-16 
          8780.12  1.544879e-16 
           8782.5  1.174298e-16 
          8784.88  1.079741e-16 
         8787.261  1.143109e-16 
         8789.641  1.237574e-16 
         8792.021  1.327594e-16 
           8794.4  1.283215e-16 
         8796.781  1.187016e-16 
         8799.161  1.180162e-16 
         8801.541  1.209669e-16 
         8803.921  1.194952e-16 
         8806.302   1.12657e-16 
         8808.682  1.075338e-16 
         8811.062  1.094067e-16 
         8813.441  1.145437e-16 
         8815.822  1.143602e-16 
         8818.202  1.072065e-16 
         8820.582  9.734639e-17 
         8822.962  1.214325e-16 
         8825.343  1.735362e-16 
         8827.723  1.681612e-16 
         8830.103   1.25632e-16 
         8832.482  1.033702e-16 
         8834.863  1.040601e-16 
         8837.243  1.060452e-16 
         8839.623  1.111715e-16 
         8842.004  1.096257e-16 
         8844.384  1.109283e-16 
         8846.764  1.127959e-16 
         8849.144  1.118805e-16 
         8851.524  1.084144e-16 
         8853.904  9.446939e-17 
         8856.284  9.143317e-17 
         8858.664  9.311061e-17 
         8861.045  9.546792e-17 
         8863.425  1.068993e-16 
         8865.805  1.214818e-16 
         8868.185    1.2145e-16 
         8870.565  1.089651e-16 
         8872.945  9.630555e-17 
         8875.325  8.500251e-17 
         8877.705  7.236576e-17 
         8880.086  7.965778e-17 
         8882.466  1.089814e-16 
         8884.846   1.23593e-16 
         8887.226   1.07744e-16 
         8889.606  9.187192e-17 
         8891.986   9.63228e-17 
         8894.366  9.656021e-17 
         8896.746  9.004452e-17 
         8899.127  9.076864e-17 
         8901.507  9.649262e-17 
         8903.887  8.829845e-17 
         8906.267  7.522517e-17 
         8908.647   7.30281e-17 
         8911.027  7.712589e-17 
         8913.407  8.371219e-17 
         8915.787  1.003489e-16 
         8918.168  1.088124e-16 
         8920.548  1.048449e-16 
         8922.928  9.069162e-17 
         8925.308  8.103049e-17 
         8927.688  8.474268e-17 
         8930.068  7.995974e-17 
         8932.448  7.710088e-17 
         8934.828  7.537857e-17 
         8937.209  7.412757e-17 
         8939.589  8.239484e-17 
         8941.969  9.888452e-17 
         8944.349  9.494127e-17 
         8946.729  8.239912e-17 
         8949.109  7.283666e-17 
         8951.489  6.811569e-17 
         8953.869  7.519724e-17 
          8956.25  9.209717e-17 
          8958.63  9.850804e-17 
          8961.01  8.668468e-17 
          8963.39  7.532835e-17 
         8965.771  7.989833e-17 
          8968.15  8.066658e-17 
          8970.53  7.977676e-17 
          8972.91  7.795281e-17 
         8975.291  7.202745e-17 
         8977.671  6.405108e-17 
         8980.051  6.221537e-17 
         8982.431  6.694999e-17 
         8984.812  7.219194e-17 
         8987.191  7.189862e-17 
         8989.571  6.655127e-17 
         8991.951  6.414742e-17 
         8994.332  7.270772e-17 
         8996.712   8.84098e-17 
         8999.092  9.881562e-17 
         9001.472  9.163077e-17 
         9003.853   7.23061e-17 
         9006.232  6.733013e-17 
         9008.612   6.90288e-17 
         9010.993  7.000044e-17 
         9013.373  7.260436e-17 
         9015.753  7.541977e-17 
         9018.133  6.955826e-17 
         9020.514  6.517667e-17 
         9022.894  6.698685e-17 
         9025.273  6.880143e-17 
         9027.653  6.591051e-17 
         9030.034  6.320783e-17 
         9032.414  6.456343e-17 
         9034.794   6.74385e-17 
         9037.174  6.924659e-17 
         9039.555  6.958538e-17 
         9041.935  6.998544e-17 
         9044.314  7.282821e-17 
         9046.694  7.529015e-17 
         9049.075  7.910075e-17 
         9051.455  8.241021e-17 
         9053.835  8.093246e-17 
         9056.215  7.767802e-17 
         9058.596  7.656218e-17 
         9060.976  7.455427e-17 
         9063.355  7.068326e-17 
         9065.735   6.87197e-17 
         9068.116  7.020445e-17 
         9070.496  6.953585e-17 
         9072.876  6.745695e-17 
         9075.256  6.444585e-17 
         9077.637  6.046608e-17 
         9080.017  5.933071e-17 
         9082.396  6.618104e-17 
         9084.776  7.149755e-17 
         9087.157  7.244053e-17 
         9089.537  7.029712e-17 
         9091.917   6.55772e-17 
         9094.297  6.133773e-17 
         9096.678  6.340196e-17 
         9099.058  6.682223e-17 
         9101.437  6.808933e-17 
         9103.817   6.96071e-17 
         9106.198  7.307822e-17 
         9108.578  7.588167e-17 
         9110.958  7.848756e-17 
         9113.338  7.517582e-17 
         9115.719  6.330888e-17 
         9118.099  5.321959e-17 
         9120.479  5.704354e-17 
         9122.858  6.231414e-17 
         9125.239   6.37591e-17 
         9127.619  6.293688e-17 
         9129.999  6.019179e-17 
         9132.379   5.73815e-17 
          9134.76  6.207891e-17 
          9137.14  6.280388e-17 
          9139.52  6.044847e-17 
         9141.899   6.30717e-17 
          9144.28  6.498445e-17 
          9146.66  6.301009e-17 
          9149.04  6.257388e-17 
          9151.42  6.199618e-17 
         9153.801  5.795014e-17 
         9156.181  5.491129e-17 
         9158.561  5.846738e-17 
          9160.94   6.21451e-17 
         9163.321  6.073361e-17 
         9165.701  6.024032e-17 
         9168.081  6.307324e-17 
         9170.461  5.807705e-17 
         9172.842  5.778422e-17 
         9175.222  6.324212e-17 
         9177.602  6.460492e-17 
         9179.981  6.116048e-17 
         9182.362  6.364015e-17 
         9184.742  6.714134e-17 
         9187.122  6.394812e-17 
         9189.503  6.059631e-17 
         9191.883   6.23477e-17 
         9194.263  6.338024e-17 
         9196.643   6.27729e-17 
         9199.023  6.219571e-17 
         9201.403  6.064907e-17 
         9203.783  6.051764e-17 
         9206.163   6.30286e-17 
         9208.544  6.332201e-17 
         9210.924  7.145365e-17 
         9213.304  7.471906e-17 
         9215.684   7.17145e-17 
         9218.064  6.747397e-17 
         9220.444  5.802029e-17 
         9222.824  5.964277e-17 
         9225.204  6.586943e-17 
         9227.585  6.586283e-17 
         9229.965   6.17556e-17 
         9232.345  6.258579e-17 
         9234.725  6.620555e-17 
         9237.105  6.550803e-17 
         9239.485  6.264786e-17 
         9241.865  6.379617e-17 
         9244.245  6.647401e-17 
         9246.626    6.1529e-17 
         9249.006  5.785391e-17 
         9251.386  5.520373e-17 
         9253.766  5.915834e-17 
         9256.146  7.009421e-17 
         9258.526  7.287598e-17 
         9260.906  6.971746e-17 
         9263.286   6.31458e-17 
         9265.667   5.66716e-17 
         9268.047  5.655176e-17 
         9270.427  6.400587e-17 
         9272.807  6.618596e-17 
         9275.187  6.328158e-17 
         9277.567  6.228491e-17 
         9279.947   6.64263e-17 
         9282.327  7.007053e-17 
         9284.708   6.58251e-17 
         9287.088  6.208548e-17 
         9289.468  6.405225e-17 
         9291.848  6.490061e-17 
         9294.229  6.068664e-17 
         9296.608   5.95061e-17 
         9298.988  6.074401e-17 
         9301.368  6.235867e-17 
         9303.749  7.210089e-17 
         9306.129  9.414178e-17 
         9308.509  1.323742e-16 
         9310.889  1.306031e-16 
          9313.27  9.275278e-17 
         9315.649  5.869733e-17 
         9318.029  5.928225e-17 
         9320.409  7.456533e-17 
          9322.79  5.349639e-17 
          9325.17   2.57387e-17 
          9327.55   2.67583e-17 
          9329.93  4.545438e-17 
         9332.311  5.835012e-17 
          9334.69    6.6005e-17 
          9337.07  7.068173e-17 
          9339.45  7.179885e-17 
         9341.831  6.593565e-17 
         9344.211  5.749502e-17 
         9346.591  5.668291e-17 
         9348.971  6.090579e-17 
         9351.352  6.760995e-17 
         9353.731  6.748713e-17 
         9356.111  6.273476e-17 
         9358.492  6.335888e-17 
         9360.872  6.575525e-17 
         9363.252  6.934004e-17 
         9365.632  6.370756e-17 
         9368.013  5.354371e-17 
         9370.393  6.018066e-17 
         9372.772  7.737126e-17 
         9375.152  3.886393e-17 
         9377.533  7.510685e-18 
         9379.913  2.666248e-17 
         9382.293  6.395338e-17 
         9384.673  7.322969e-17 
         9387.054  7.246062e-17 
         9389.434  7.094287e-17 
         9391.813  7.077023e-17 
         9394.193  7.128465e-17 
         9396.574  7.198017e-17 
         9398.954  7.213957e-17 
         9401.334  6.309767e-17 
         9403.714  5.703105e-17 
         9406.095  5.921378e-17 
         9408.475  6.194588e-17 
         9410.854  6.266957e-17 
         9413.234  6.595627e-17 
         9415.615  8.557288e-17 
         9417.995  1.062008e-16 
         9420.375  1.042512e-16 
         9422.755  8.448285e-17 
         9425.136  7.020726e-17 
         9427.516  6.092668e-17 
         9429.896  5.641505e-17 
         9432.275  5.921752e-17 
         9434.656  7.674197e-17 
         9437.036  1.154758e-16 
         9439.416  1.349599e-16 
         9441.796  1.263279e-16 
         9444.177  1.120431e-16 
         9446.557  1.013022e-16 
         9448.937  8.054334e-17 
         9451.316  6.796511e-17 
         9453.697  6.680718e-17 
         9456.077  6.275653e-17 
         9458.457  5.229543e-17 
         9460.837  5.130637e-17 
         9463.218  6.398366e-17 
         9465.598  7.124182e-17 
         9467.978  7.457401e-17 
         9470.357  8.632649e-17 
         9472.738  1.021159e-16 
         9475.118  1.017504e-16 
         9477.498  8.527095e-17 
         9479.878  7.028378e-17 
         9482.259  6.526987e-17 
         9484.639  6.385586e-17 
         9487.019  6.101904e-17 
         9489.398  6.204819e-17 
         9491.779  6.365074e-17 
         9494.159  6.469231e-17 
         9496.539  7.092338e-17 
         9498.919  8.391044e-17 
           9501.3   9.01295e-17 
          9503.68  8.505189e-17 
          9506.06  8.118489e-17 
         9508.439  8.034424e-17 
          9510.82  7.553576e-17 
           9513.2  7.632474e-17 
          9515.58  7.731666e-17 
          9517.96  8.895238e-17 
         9520.341  9.797319e-17 
         9522.721  9.118954e-17 
         9525.101  9.068529e-17 
          9527.48  9.076873e-17 
         9529.861  8.461286e-17 
         9532.241  7.749426e-17 
         9534.621   7.41661e-17 
         9537.002  7.000354e-17 
         9539.382  6.395018e-17 
         9541.762  5.842596e-17 
         9544.142  5.753729e-17 
         9546.522  6.495157e-17 
         9548.902   7.32086e-17 
         9551.282  6.671096e-17 
         9553.662  6.993807e-17 
         9556.043  7.228432e-17 
         9558.423  6.739596e-17 
         9560.803  7.119911e-17 
         9563.183  8.805731e-17 
         9565.563    9.4636e-17 
         9567.943  8.942424e-17 
         9570.323  8.440436e-17 
         9572.703  8.673835e-17 
         9575.084  9.304183e-17 
         9577.464  9.654775e-17 
         9579.844  9.213218e-17 
         9582.224  8.615272e-17 
         9584.604  8.347112e-17 
         9586.984  8.052101e-17 
         9589.364  7.611641e-17 
         9591.744  7.665344e-17 
         9594.125  8.670776e-17 
         9596.505  9.479102e-17 
         9598.885  9.139108e-17 
         9601.265  8.901799e-17 
         9603.646  9.626813e-17 
         9606.025    1.1507e-16 
         9608.405  1.162709e-16 
         9610.785  9.458385e-17 
         9613.166  8.524591e-17 
         9615.546  8.110981e-17 
         9617.926  7.727662e-17 
         9620.306  7.575596e-17 
         9622.687  7.989661e-17 
         9625.066  8.858609e-17 
         9627.446  9.419552e-17 
         9629.826  8.627904e-17 
         9632.207   8.40953e-17 
         9634.587  9.070131e-17 
         9636.967  8.998901e-17 
         9639.347  8.220691e-17 
         9641.728  7.510789e-17 
         9644.107  7.994355e-17 
         9646.487  8.935941e-17 
         9648.867   9.12163e-17 
         9651.248   8.61916e-17 
         9653.628  7.787013e-17 
         9656.008  8.319788e-17 
         9658.388  9.013573e-17 
         9660.769  8.496036e-17 
         9663.148  7.606734e-17 
         9665.528  7.236975e-17 
         9667.908  7.114236e-17 
         9670.289  6.892419e-17 
         9672.669  7.078329e-17 
         9675.049  8.051494e-17 
         9677.429  8.983459e-17 
          9679.81  9.310005e-17 
         9682.189  9.061678e-17 
         9684.569  8.854111e-17 
         9686.949  9.134141e-17 
          9689.33  9.509455e-17 
          9691.71  9.177183e-17 
          9694.09  8.485019e-17 
          9696.47  7.947616e-17 
         9698.851  7.363886e-17 
          9701.23  6.587728e-17 
