# STATUS =
# OBJECT = 2018bgv
# TELESCOPE = NOT
# INSTRUMENT = ALFOSC
# DATE-OBS = 2018-06-04 00:00:00.000
# MJD = 58273.0
# EXPTIME =
# AIRMASS =
# SLIT =
# DISPERSER =
# SOURCE = DOI 10.3847/1538-4357/aca161
# FILTER =
# RESOLUTION =
# FLUX_STANDARD =
# EXTINCTION_CORRECTED =
# PHOTOMETRY_CALIBRATED =
# TELLURIC_CORRECTED =
# FLUX_UNITS =
# WAVE_UNITS =
# QUALITY =
# MIN_WAVE = 3422.623
# MAX_WAVE = 9100.723
# COMMENT =
 Wavelength           Flux 
   3425.337   2.050958e-16 
   3428.054   1.718371e-16 
   3430.772  -4.967233e-17 
   3433.492   1.500619e-16 
   3436.214  -8.902856e-19 
   3438.938   1.850258e-16 
   3441.664  -5.485518e-18 
   3444.392   2.195812e-16 
   3447.122   1.819666e-16 
   3449.854   1.695761e-18 
   3452.587   1.392851e-16 
   3455.323   1.650509e-17 
    3458.06   1.577108e-16 
   3460.799   1.625016e-16 
   3463.541   2.105949e-16 
   3466.283   9.838009e-17 
   3469.029   1.869852e-16 
   3471.775    1.40209e-16 
   3474.524   1.316137e-16 
   3477.275   9.233102e-18 
   3480.027   4.247985e-17 
   3482.782  -4.958357e-17 
   3485.538   1.610252e-16 
   3488.296   1.962319e-16 
   3491.056    2.86607e-17 
   3493.818   1.970744e-17 
   3496.582   1.015593e-16 
   3499.347  -2.520092e-17 
   3502.115   9.517095e-17 
   3504.884   8.947742e-17 
   3507.655   -6.35685e-18 
   3510.428   5.650257e-17 
   3513.203    3.22414e-17 
    3515.98   5.487118e-17 
   3518.758   1.242673e-16 
   3521.539   3.212435e-17 
   3524.321   1.752589e-16 
   3527.105   1.373666e-16 
   3529.891   1.739908e-16 
   3532.678   1.052882e-16 
   3535.468   8.098064e-17 
   3538.259   1.342749e-16 
   3541.052   8.086886e-17 
   3543.847   9.060434e-17 
   3546.644   2.613728e-17 
   3549.443   8.388925e-17 
   3552.243   1.280923e-16 
   3555.045     1.2384e-16 
   3557.849   1.183072e-16 
   3560.655   1.003008e-16 
   3563.463   5.281535e-17 
   3566.272   1.407373e-16 
   3569.083  -1.676821e-17 
   3571.896    8.53339e-17 
   3574.711   1.195501e-16 
   3577.527    1.93848e-17 
   3580.346  -2.510068e-18 
   3583.166   9.371244e-17 
   3585.988   8.853633e-17 
   3588.811   3.317865e-17 
   3591.637   4.251367e-17 
   3594.464   1.047721e-16 
   3597.293   8.246435e-17 
   3600.123   9.539476e-17 
   3602.956   2.535023e-17 
    3605.79   1.452021e-16 
   3608.626   1.154737e-16 
   3611.464    6.37985e-17 
   3614.303   1.256014e-16 
   3617.144   4.668002e-17 
   3619.987   6.381731e-17 
   3622.832   5.725793e-17 
   3625.678   9.077736e-17 
   3628.526   1.041988e-16 
   3631.376   6.609301e-17 
   3634.228   1.156872e-16 
   3637.081    1.40472e-16 
   3639.936   9.534419e-17 
   3642.792   6.268297e-17 
   3645.651   1.073632e-16 
   3648.511    8.98037e-17 
   3651.373   9.828811e-17 
   3654.237   1.172884e-16 
   3657.102   1.042376e-16 
   3659.969   8.532938e-17 
   3662.837   1.093085e-16 
   3665.708   8.943987e-17 
    3668.58    1.02878e-16 
   3671.454    8.52194e-17 
   3674.329   9.324708e-17 
   3677.206    8.49576e-17 
   3680.085   1.096594e-16 
   3682.965   1.200657e-16 
   3685.847   1.139392e-16 
   3688.731    1.12051e-16 
   3691.617   1.371129e-16 
   3694.504   9.839261e-17 
   3697.393   1.145437e-16 
   3700.283   1.372762e-16 
   3703.176   1.177682e-16 
   3706.069   1.308515e-16 
   3708.965   1.127791e-16 
   3711.862   1.186147e-16 
   3714.761   1.211263e-16 
   3717.661   1.244364e-16 
   3720.563   1.316406e-16 
   3723.467   1.228763e-16 
   3726.372   1.134547e-16 
   3729.279    9.69455e-17 
   3732.188   1.151302e-16 
   3735.098   1.074528e-16 
    3738.01   1.109672e-16 
   3740.924   1.128953e-16 
   3743.839   1.302515e-16 
   3746.755   1.186465e-16 
   3749.674   1.214123e-16 
   3752.594   1.025735e-16 
   3755.515   1.027027e-16 
   3758.438    9.17977e-17 
   3761.363   1.118858e-16 
    3764.29   1.099961e-16 
   3767.218   1.262408e-16 
   3770.147   1.237416e-16 
   3773.079   1.265612e-16 
   3776.011   1.452754e-16 
   3778.946   1.442532e-16 
   3781.882    1.52203e-16 
    3784.82   1.372246e-16 
   3787.759   1.266475e-16 
   3790.699   1.446609e-16 
   3793.642   1.287827e-16 
   3796.586   1.460748e-16 
   3799.531   1.558375e-16 
   3802.478   1.411377e-16 
   3805.427    1.63774e-16 
   3808.377   1.423475e-16 
   3811.329   1.369732e-16 
   3814.282   1.375828e-16 
   3817.237   1.542979e-16 
   3820.194   1.664747e-16 
   3823.152   1.449712e-16 
   3826.111   1.564251e-16 
   3829.072   1.403331e-16 
   3832.035   1.558898e-16 
   3834.999   1.477641e-16 
   3837.965   1.513176e-16 
   3840.932    1.52203e-16 
   3843.901    1.49509e-16 
   3846.871   1.686226e-16 
   3849.843   1.838774e-16 
   3852.816   1.611818e-16 
   3855.792   1.652148e-16 
   3858.768   1.756302e-16 
   3861.746   1.790978e-16 
   3864.725   1.892511e-16 
   3867.706   1.735909e-16 
   3870.689   1.935122e-16 
   3873.673   1.836598e-16 
   3876.658   1.780274e-16 
   3879.645   1.706511e-16 
   3882.634   1.696235e-16 
   3885.624   2.004364e-16 
   3888.615   1.711281e-16 
   3891.609   1.933025e-16 
   3894.603   1.792231e-16 
   3897.599   1.860142e-16 
   3900.597    1.76021e-16 
   3903.595   1.779982e-16 
   3906.596   1.782098e-16 
   3909.598   1.666519e-16 
   3912.601   1.665131e-16 
   3915.606   1.786252e-16 
   3918.613   1.670408e-16 
   3921.621   1.783066e-16 
    3924.63   1.723032e-16 
   3927.641   1.569754e-16 
   3930.653   1.536196e-16 
   3933.667   1.463332e-16 
   3936.682   1.608172e-16 
   3939.698   1.571432e-16 
   3942.717     1.5357e-16 
   3945.736   1.438089e-16 
   3948.757   1.313247e-16 
   3951.779   1.269419e-16 
   3954.803   1.392609e-16 
   3957.829   1.304397e-16 
   3960.855    1.28334e-16 
   3963.884   1.323632e-16 
   3966.913   1.186285e-16 
   3969.944   1.324351e-16 
   3972.977   1.322377e-16 
    3976.01   1.183118e-16 
   3979.046   1.152067e-16 
   3982.083   1.199817e-16 
   3985.121   1.266768e-16 
    3988.16   1.173334e-16 
   3991.201   1.148515e-16 
   3994.244   1.173943e-16 
   3997.288   1.194158e-16 
   4000.333   1.086619e-16 
   4003.379   1.109293e-16 
   4006.427   1.175982e-16 
   4009.477   1.227254e-16 
   4012.528   1.193978e-16 
    4015.58   1.323864e-16 
   4018.634   1.377541e-16 
   4021.688   1.425128e-16 
   4024.745   1.394424e-16 
   4027.803    1.45956e-16 
   4030.862   1.273415e-16 
   4033.922   1.180122e-16 
   4036.984   1.213969e-16 
   4040.048   1.209866e-16 
   4043.112    1.15847e-16 
   4046.178   1.189685e-16 
   4049.246   1.201175e-16 
   4052.315   1.316178e-16 
   4055.385   1.279341e-16 
   4058.456   1.327322e-16 
   4061.529   1.269051e-16 
   4064.603   1.377984e-16 
   4067.679    1.38728e-16 
   4070.756   1.412854e-16 
   4073.834   1.336259e-16 
   4076.914   1.493095e-16 
   4079.995    1.40287e-16 
   4083.077   1.444618e-16 
   4086.161   1.418622e-16 
   4089.246   1.344337e-16 
   4092.332   1.464131e-16 
    4095.42   1.471141e-16 
   4098.509   1.532127e-16 
   4101.599   1.452016e-16 
    4104.69    1.57664e-16 
   4107.784   1.538947e-16 
   4110.878   1.542991e-16 
   4113.974   1.633254e-16 
    4117.07   1.648244e-16 
   4120.168   1.664356e-16 
   4123.268   1.670015e-16 
   4126.369   1.788037e-16 
   4129.471   1.768299e-16 
   4132.575   1.754623e-16 
    4135.68   1.665128e-16 
   4138.786   1.748864e-16 
   4141.893   1.688917e-16 
   4145.001   1.662409e-16 
   4148.111   1.781698e-16 
   4151.223   1.911902e-16 
   4154.335   1.775788e-16 
   4157.449   1.768638e-16 
   4160.564   1.925377e-16 
   4163.681   1.808775e-16 
   4166.798   1.849685e-16 
   4169.917   1.940052e-16 
   4173.038   1.849999e-16 
   4176.159   1.860761e-16 
   4179.282   1.854219e-16 
   4182.406    1.91315e-16 
   4185.531   1.887107e-16 
   4188.658   1.904795e-16 
   4191.786   1.912473e-16 
   4194.915   1.774731e-16 
   4198.045   1.900454e-16 
   4201.177   1.800385e-16 
    4204.31   1.809566e-16 
   4207.444   1.833957e-16 
   4210.579   1.811735e-16 
   4213.716   1.814982e-16 
   4216.854   1.830039e-16 
   4219.993   1.845636e-16 
   4223.133   1.761916e-16 
   4226.275   1.754363e-16 
   4229.417   1.825695e-16 
   4232.562   1.659165e-16 
   4235.707   1.755532e-16 
   4238.854   1.749097e-16 
   4242.001   1.694038e-16 
    4245.15   1.677926e-16 
     4248.3   1.795081e-16 
   4251.452   1.858244e-16 
   4254.604   1.718705e-16 
   4257.758   1.731742e-16 
   4260.913   1.754015e-16 
   4264.069   1.738818e-16 
   4267.227   1.778911e-16 
   4270.386   1.741206e-16 
   4273.545     1.7183e-16 
   4276.707    1.67202e-16 
   4279.869    1.64174e-16 
   4283.032   1.686362e-16 
   4286.197   1.653826e-16 
   4289.363   1.704714e-16 
    4292.53   1.630357e-16 
   4295.698   1.683684e-16 
   4298.868   1.740618e-16 
   4302.039   1.660333e-16 
    4305.21   1.629961e-16 
   4308.383   1.629564e-16 
   4311.557   1.700661e-16 
   4314.733   1.646003e-16 
   4317.909   1.672725e-16 
   4321.087   1.624091e-16 
   4324.266   1.584515e-16 
   4327.446   1.574639e-16 
   4330.627   1.503204e-16 
   4333.809    1.54496e-16 
   4336.993   1.544105e-16 
   4340.178   1.567206e-16 
   4343.363   1.573736e-16 
    4346.55   1.584033e-16 
   4349.738   1.540825e-16 
   4352.928   1.540504e-16 
   4356.118   1.519547e-16 
    4359.31   1.538012e-16 
   4362.502   1.574745e-16 
   4365.696   1.542526e-16 
   4368.892   1.498266e-16 
   4372.087   1.524962e-16 
   4375.285   1.555723e-16 
   4378.483   1.520053e-16 
   4381.683    1.57437e-16 
   4384.883   1.533739e-16 
   4388.085   1.564253e-16 
   4391.288   1.466521e-16 
   4394.492   1.508302e-16 
   4397.697   1.517901e-16 
   4400.904   1.489512e-16 
   4404.111   1.458664e-16 
    4407.32   1.556048e-16 
   4410.529   1.543653e-16 
    4413.74   1.461407e-16 
   4416.952    1.49183e-16 
   4420.165   1.439563e-16 
   4423.379   1.449671e-16 
   4426.594   1.494095e-16 
   4429.811   1.469862e-16 
   4433.028   1.477583e-16 
   4436.246   1.489284e-16 
   4439.466   1.481421e-16 
   4442.687   1.450934e-16 
   4445.908   1.531709e-16 
   4449.131   1.507441e-16 
   4452.355   1.500502e-16 
    4455.58   1.489076e-16 
   4458.806   1.503031e-16 
   4462.033   1.509013e-16 
   4465.261   1.487448e-16 
   4468.491   1.474314e-16 
   4471.721   1.448039e-16 
   4474.953    1.51782e-16 
   4478.185   1.517908e-16 
   4481.418   1.499851e-16 
   4484.653   1.476229e-16 
   4487.889   1.532297e-16 
   4491.126   1.515663e-16 
   4494.364   1.543219e-16 
   4497.603   1.485669e-16 
   4500.842   1.519549e-16 
   4504.083   1.522321e-16 
   4507.326   1.528117e-16 
   4510.568    1.51374e-16 
   4513.813   1.603268e-16 
   4517.058   1.522294e-16 
   4520.304   1.502181e-16 
   4523.551   1.462244e-16 
     4526.8   1.452011e-16 
   4530.049   1.436318e-16 
   4533.299   1.497439e-16 
   4536.551   1.464176e-16 
   4539.803   1.480458e-16 
   4543.057   1.495509e-16 
   4546.312   1.388827e-16 
   4549.567   1.488731e-16 
   4552.824   1.489283e-16 
   4556.081   1.382362e-16 
    4559.34   1.425972e-16 
     4562.6   1.396887e-16 
    4565.86   1.369298e-16 
   4569.122   1.343924e-16 
   4572.384   1.400587e-16 
   4575.648   1.388596e-16 
   4578.913   1.333232e-16 
   4582.178   1.331478e-16 
   4585.445   1.312239e-16 
   4588.713   1.353789e-16 
   4591.981    1.31199e-16 
   4595.251   1.306459e-16 
   4598.522   1.317767e-16 
   4601.793   1.329168e-16 
   4605.066   1.281833e-16 
    4608.34   1.303982e-16 
   4611.615   1.307752e-16 
    4614.89   1.337417e-16 
   4618.167   1.330437e-16 
   4621.444   1.232105e-16 
   4624.723   1.245271e-16 
   4628.002   1.206769e-16 
   4631.283   1.228586e-16 
   4634.564   1.218266e-16 
   4637.847   1.330597e-16 
    4641.13   1.266436e-16 
   4644.415   1.303773e-16 
     4647.7   1.336981e-16 
   4650.987   1.268878e-16 
   4654.274   1.268025e-16 
   4657.562    1.29054e-16 
   4660.852   1.298732e-16 
   4664.142   1.352138e-16 
   4667.433   1.302435e-16 
   4670.725   1.324752e-16 
   4674.018   1.330775e-16 
   4677.312   1.366885e-16 
   4680.607   1.374298e-16 
   4683.903   1.314375e-16 
     4687.2   1.345708e-16 
   4690.498   1.395046e-16 
   4693.796   1.358281e-16 
   4697.096   1.382352e-16 
   4700.397   1.458599e-16 
   4703.698   1.428977e-16 
   4707.001    1.45441e-16 
   4710.304   1.492101e-16 
   4713.609   1.473219e-16 
   4716.914   1.439455e-16 
    4720.22   1.454468e-16 
   4723.527   1.501297e-16 
   4726.835   1.509251e-16 
   4730.145   1.513705e-16 
   4733.454   1.533455e-16 
   4736.765   1.518392e-16 
   4740.077   1.547861e-16 
   4743.389   1.563835e-16 
   4746.703   1.567482e-16 
   4750.018   1.577211e-16 
   4753.333   1.586428e-16 
   4756.649   1.606947e-16 
   4759.966   1.599426e-16 
   4763.284   1.638076e-16 
   4766.604   1.645371e-16 
   4769.923   1.679494e-16 
   4773.244    1.65844e-16 
   4776.565   1.698309e-16 
   4779.888   1.575591e-16 
   4783.211   1.522528e-16 
   4786.536   1.500277e-16 
   4789.861   1.557036e-16 
   4793.187    1.50941e-16 
   4796.514   1.493705e-16 
   4799.842   1.531185e-16 
   4803.171    1.62041e-16 
     4806.5   1.664338e-16 
   4809.831   1.754685e-16 
   4813.163   1.737337e-16 
   4816.495   1.806312e-16 
   4819.828   1.821128e-16 
   4823.162   1.840613e-16 
   4826.497   1.892384e-16 
   4829.833   1.940035e-16 
   4833.169   1.986328e-16 
   4836.507   1.965044e-16 
   4839.845   1.938083e-16 
   4843.185   1.978526e-16 
   4846.524   2.010304e-16 
   4849.865   1.981467e-16 
   4853.207   1.913041e-16 
    4856.55   1.959822e-16 
   4859.893   1.947072e-16 
   4863.238   1.892273e-16 
   4866.583   1.927645e-16 
   4869.929   1.933158e-16 
   4873.276   1.944439e-16 
   4876.624   1.941619e-16 
   4879.972    1.87661e-16 
   4883.321   1.778957e-16 
   4886.671   1.733843e-16 
   4890.022   1.736802e-16 
   4893.375    1.80287e-16 
   4896.727   1.808846e-16 
   4900.081   1.799906e-16 
   4903.435   1.781003e-16 
   4906.791    1.79929e-16 
   4910.146    1.73977e-16 
   4913.503   1.730811e-16 
   4916.861   1.723981e-16 
    4920.22   1.745452e-16 
   4923.579   1.720516e-16 
   4926.939   1.718451e-16 
     4930.3   1.736683e-16 
   4933.662   1.705798e-16 
   4937.024   1.676577e-16 
   4940.388   1.676476e-16 
   4943.752   1.676584e-16 
   4947.117   1.670354e-16 
   4950.483   1.649614e-16 
   4953.849   1.655361e-16 
   4957.217   1.677279e-16 
   4960.585   1.639327e-16 
   4963.954   1.601655e-16 
   4967.324   1.656857e-16 
   4970.694    1.62346e-16 
   4974.066   1.613525e-16 
   4977.438   1.622949e-16 
   4980.811   1.619481e-16 
   4984.185   1.597447e-16 
    4987.56   1.544501e-16 
   4990.935   1.589151e-16 
   4994.311    1.57985e-16 
   4997.688   1.565339e-16 
   5001.065   1.551197e-16 
   5004.444   1.544845e-16 
   5007.823   1.531452e-16 
   5011.203   1.527676e-16 
   5014.584   1.550464e-16 
   5017.966   1.536185e-16 
   5021.348   1.527972e-16 
   5024.731   1.556997e-16 
   5028.115   1.563849e-16 
     5031.5   1.555179e-16 
   5034.885    1.53636e-16 
   5038.271   1.501152e-16 
   5041.658    1.51952e-16 
   5045.046    1.48213e-16 
   5048.434   1.530605e-16 
   5051.823   1.464827e-16 
   5055.213   1.476602e-16 
   5058.604   1.500935e-16 
   5061.996   1.469892e-16 
   5065.388   1.503329e-16 
   5068.781   1.460451e-16 
   5072.174   1.479703e-16 
   5075.569   1.507361e-16 
   5078.964     1.4964e-16 
    5082.36   1.553513e-16 
   5085.757   1.478011e-16 
   5089.154   1.519841e-16 
   5092.552   1.574728e-16 
   5095.951   1.589584e-16 
   5099.351   1.566912e-16 
   5102.751   1.538076e-16 
   5106.152   1.547209e-16 
   5109.554   1.526296e-16 
   5112.957   1.544956e-16 
    5116.36   1.563404e-16 
   5119.764   1.539627e-16 
   5123.169   1.573338e-16 
   5126.574   1.501935e-16 
    5129.98   1.537181e-16 
   5133.387   1.469055e-16 
   5136.795   1.467277e-16 
   5140.203   1.474323e-16 
   5143.612   1.514155e-16 
   5147.022   1.509439e-16 
   5150.433   1.475142e-16 
   5153.844   1.459971e-16 
   5157.256   1.487524e-16 
   5160.668   1.558779e-16 
   5164.082   1.515298e-16 
   5167.496   1.496355e-16 
    5170.91   1.510467e-16 
   5174.326   1.482105e-16 
   5177.742   1.479525e-16 
   5181.159   1.501049e-16 
   5184.576   1.477271e-16 
   5187.994    1.45769e-16 
   5191.413   1.389708e-16 
   5194.833   1.407238e-16 
   5198.253   1.406434e-16 
   5201.674   1.418235e-16 
   5205.096   1.376964e-16 
   5208.518   1.387355e-16 
   5211.941   1.351815e-16 
   5215.365   1.388523e-16 
   5218.789   1.345367e-16 
   5222.214   1.330215e-16 
    5225.64   1.313478e-16 
   5229.066   1.286347e-16 
   5232.493    1.33003e-16 
   5235.921   1.284974e-16 
    5239.35   1.313216e-16 
   5242.779   1.314081e-16 
   5246.208   1.294438e-16 
   5249.639   1.308675e-16 
    5253.07   1.256376e-16 
   5256.502   1.248137e-16 
   5259.934   1.214974e-16 
   5263.367   1.219366e-16 
   5266.801   1.217652e-16 
   5270.235   1.267645e-16 
    5273.67   1.224814e-16 
   5277.106   1.266477e-16 
   5280.543   1.243682e-16 
    5283.98   1.219188e-16 
   5287.417   1.205663e-16 
   5290.856   1.260712e-16 
   5294.295   1.262614e-16 
   5297.734   1.225141e-16 
   5301.175   1.219574e-16 
   5304.616   1.236001e-16 
   5308.058   1.254701e-16 
     5311.5   1.234576e-16 
   5314.942   1.202004e-16 
   5318.386   1.239505e-16 
    5321.83    1.21081e-16 
   5325.275   1.253738e-16 
    5328.72   1.214484e-16 
   5332.167   1.250551e-16 
   5335.613   1.251008e-16 
   5339.061   1.234081e-16 
   5342.508   1.295976e-16 
   5345.957   1.326569e-16 
   5349.406   1.267887e-16 
   5352.856   1.296193e-16 
   5356.307   1.305396e-16 
   5359.758   1.296375e-16 
   5363.209   1.251072e-16 
   5366.662   1.241423e-16 
   5370.115   1.303631e-16 
   5373.568   1.280296e-16 
   5377.022   1.318967e-16 
   5380.477   1.276808e-16 
   5383.933   1.280295e-16 
   5387.389   1.286451e-16 
   5390.845   1.332463e-16 
   5394.303   1.443664e-16 
    5397.76   1.493763e-16 
   5401.219   1.463844e-16 
   5404.678   1.418395e-16 
   5408.138   1.454997e-16 
   5411.598   1.351707e-16 
   5415.059    1.29439e-16 
   5418.521   1.328917e-16 
   5421.982   1.315103e-16 
   5425.445   1.312124e-16 
   5428.908   1.319431e-16 
   5432.372    1.26961e-16 
   5435.837   1.337059e-16 
   5439.302   1.309463e-16 
   5442.768   1.344089e-16 
   5446.234   1.354447e-16 
   5449.701    1.36943e-16 
   5453.168   1.301947e-16 
   5456.636   1.303326e-16 
   5460.104   1.335977e-16 
   5463.574    1.36569e-16 
   5467.043   1.374549e-16 
   5470.514   1.446544e-16 
   5473.985   1.403562e-16 
   5477.456   1.343793e-16 
   5480.928   1.460856e-16 
   5484.401    1.44448e-16 
   5487.874   1.433385e-16 
   5491.348   1.457327e-16 
   5494.822   1.429891e-16 
   5498.297   1.410722e-16 
   5501.773   1.428157e-16 
   5505.249   1.446104e-16 
   5508.726    1.49686e-16 
   5512.203   1.481374e-16 
   5515.681   1.449083e-16 
   5519.159   1.446915e-16 
   5522.638   1.502589e-16 
   5526.117   1.473673e-16 
   5529.597   1.505639e-16 
   5533.078   1.539492e-16 
   5536.559   1.502132e-16 
   5540.041    1.52339e-16 
   5543.523   1.487203e-16 
   5547.006   1.457694e-16 
   5550.489   1.485242e-16 
   5553.973   1.525343e-16 
   5557.458   1.502379e-16 
   5560.943   1.502067e-16 
   5564.428   1.501755e-16 
   5567.915   1.501443e-16 
   5571.401   1.501131e-16 
   5574.888   1.500819e-16 
   5578.376   1.500506e-16 
   5581.864   1.500194e-16 
   5585.353   1.499881e-16 
   5588.842   1.499569e-16 
   5592.333   1.499256e-16 
   5595.823   1.505565e-16 
   5599.314   1.513709e-16 
   5602.805   1.492347e-16 
   5606.297   1.484063e-16 
    5609.79   1.514259e-16 
   5613.283   1.521592e-16 
   5616.776   1.575222e-16 
   5620.271   1.507623e-16 
   5623.766   1.554899e-16 
   5627.261   1.578271e-16 
   5630.756   1.519156e-16 
   5634.252   1.483914e-16 
    5637.75   1.517642e-16 
   5641.247   1.472252e-16 
   5644.745   1.459661e-16 
   5648.243   1.431756e-16 
   5651.742   1.457002e-16 
   5655.241    1.52024e-16 
   5658.741   1.530821e-16 
   5662.242   1.553069e-16 
   5665.743   1.546158e-16 
   5669.244    1.51524e-16 
   5672.746   1.508248e-16 
   5676.249   1.530409e-16 
   5679.751   1.450427e-16 
   5683.255   1.371438e-16 
   5686.759   1.435006e-16 
   5690.263   1.498979e-16 
   5693.768   1.509399e-16 
   5697.274   1.448665e-16 
    5700.78   1.479269e-16 
   5704.286   1.500321e-16 
   5707.793   1.455211e-16 
   5711.301   1.472778e-16 
   5714.809    1.48467e-16 
   5718.317   1.447699e-16 
   5721.826   1.493737e-16 
   5725.336   1.465489e-16 
   5728.846   1.418796e-16 
   5732.356   1.460597e-16 
   5735.867   1.455328e-16 
   5739.378   1.425824e-16 
   5742.891   1.493853e-16 
   5746.403   1.477583e-16 
   5749.916   1.465168e-16 
   5753.429   1.471846e-16 
   5756.943   1.471356e-16 
   5760.458   1.462511e-16 
   5763.973   1.406585e-16 
   5767.488    1.42085e-16 
   5771.003   1.493814e-16 
    5774.52   1.454868e-16 
   5778.037   1.414787e-16 
   5781.554   1.409612e-16 
   5785.072    1.42799e-16 
    5788.59   1.429371e-16 
   5792.108   1.411677e-16 
   5795.627   1.393714e-16 
   5799.147   1.394812e-16 
   5802.667   1.391206e-16 
   5806.188   1.388085e-16 
   5809.709   1.420884e-16 
    5813.23   1.451925e-16 
   5816.752   1.466593e-16 
   5820.275   1.457994e-16 
   5823.798   1.417925e-16 
   5827.321    1.44144e-16 
   5830.845   1.430387e-16 
   5834.369   1.454884e-16 
   5837.894   1.477334e-16 
   5841.419   1.427943e-16 
   5844.945   1.429914e-16 
   5848.471   1.427579e-16 
   5851.998   1.447078e-16 
   5855.525   1.420098e-16 
   5859.052   1.413365e-16 
    5862.58   1.420001e-16 
   5866.108   1.418699e-16 
   5869.637   1.385641e-16 
   5873.167   1.397096e-16 
   5876.696    1.39443e-16 
   5880.227    1.43761e-16 
   5883.757   1.421565e-16 
   5887.289   1.417698e-16 
    5890.82   1.404262e-16 
   5894.352   1.378219e-16 
   5897.884   1.385055e-16 
   5901.417   1.303798e-16 
   5904.951   1.388889e-16 
   5908.484   1.387757e-16 
   5912.019   1.427511e-16 
   5915.553    1.36605e-16 
   5919.088    1.42491e-16 
   5922.624   1.384175e-16 
    5926.16   1.367855e-16 
   5929.696   1.320784e-16 
   5933.233    1.33974e-16 
    5936.77   1.307683e-16 
   5940.308   1.333283e-16 
   5943.846   1.372316e-16 
   5947.384    1.38699e-16 
   5950.923   1.388887e-16 
   5954.463   1.371169e-16 
   5958.002   1.370739e-16 
   5961.543   1.398832e-16 
   5965.083   1.368599e-16 
   5968.625   1.341495e-16 
   5972.166   1.352854e-16 
   5975.708   1.370064e-16 
    5979.25   1.380469e-16 
   5982.793   1.337134e-16 
   5986.336    1.37562e-16 
    5989.88   1.368523e-16 
   5993.424   1.356237e-16 
   5996.969   1.358241e-16 
   6000.514    1.36793e-16 
   6004.059   1.353251e-16 
   6007.604   1.309571e-16 
   6011.151   1.304471e-16 
   6014.697   1.265113e-16 
   6018.244    1.28435e-16 
   6021.792   1.323199e-16 
   6025.339   1.324099e-16 
   6028.888   1.346087e-16 
   6032.437   1.327773e-16 
   6035.985   1.347348e-16 
   6039.535   1.319714e-16 
   6043.084   1.343847e-16 
   6046.635   1.350852e-16 
   6050.186   1.256592e-16 
   6053.736    1.31585e-16 
   6057.288   1.315819e-16 
    6060.84   1.255104e-16 
   6064.392    1.31078e-16 
   6067.945   1.317153e-16 
   6071.498   1.322668e-16 
   6075.051   1.293754e-16 
   6078.605   1.242973e-16 
   6082.159   1.237948e-16 
   6085.714    1.24809e-16 
   6089.269   1.272688e-16 
   6092.824   1.235301e-16 
    6096.38   1.270929e-16 
   6099.937   1.211938e-16 
   6103.493   1.256706e-16 
    6107.05   1.259427e-16 
   6110.607   1.230638e-16 
   6114.165   1.219774e-16 
   6117.723   1.260964e-16 
   6121.282   1.236568e-16 
   6124.841    1.25013e-16 
     6128.4   1.163087e-16 
   6131.959   1.220369e-16 
    6135.52   1.187054e-16 
    6139.08    1.19801e-16 
   6142.641   1.192305e-16 
   6146.202   1.231232e-16 
   6149.764   1.198327e-16 
   6153.326   1.188378e-16 
   6156.888   1.238796e-16 
   6160.451   1.182772e-16 
   6164.014   1.168961e-16 
   6167.578   1.178975e-16 
   6171.142   1.158459e-16 
   6174.706   1.173343e-16 
   6178.271   1.149607e-16 
   6181.835   1.175171e-16 
   6185.401   1.166169e-16 
   6188.967   1.138181e-16 
   6192.533   1.163438e-16 
     6196.1   1.132903e-16 
   6199.666   1.156814e-16 
   6203.233   1.114856e-16 
   6206.801   1.190283e-16 
   6210.369   1.136429e-16 
   6213.937   1.148517e-16 
   6217.506   1.093309e-16 
   6221.075   1.112311e-16 
   6224.645   1.112996e-16 
   6228.214   1.155726e-16 
   6231.785   1.144655e-16 
   6235.355   1.087469e-16 
   6238.926   1.116423e-16 
   6242.498   1.110672e-16 
   6246.069   1.089279e-16 
   6249.641   1.117056e-16 
   6253.213   1.067265e-16 
   6256.786   1.114695e-16 
   6260.359   1.111268e-16 
   6263.933   1.100613e-16 
   6267.506   1.102124e-16 
   6271.081   1.111276e-16 
   6274.655   1.097644e-16 
    6278.23   1.075323e-16 
   6281.805   1.069861e-16 
    6285.38   1.045662e-16 
   6288.957   1.106939e-16 
   6292.533   1.133579e-16 
   6296.109   1.105695e-16 
   6299.686   1.097073e-16 
   6303.264    1.19816e-16 
   6306.841   1.224145e-16 
   6310.419   1.012516e-16 
   6313.998   1.054301e-16 
   6317.576   1.028401e-16 
   6321.155   1.044282e-16 
   6324.735   1.090601e-16 
   6328.314   1.095579e-16 
   6331.895    1.08546e-16 
   6335.475   1.077427e-16 
   6339.056   1.071818e-16 
   6342.637   1.077484e-16 
   6346.218   1.104084e-16 
     6349.8   1.066219e-16 
   6353.382   1.084025e-16 
   6356.964   1.081325e-16 
   6360.547   1.092865e-16 
    6364.13   1.081288e-16 
   6367.714   1.078467e-16 
   6371.298    1.05493e-16 
   6374.882   1.065381e-16 
   6378.466   1.039537e-16 
   6382.051   1.014285e-16 
   6385.636   1.037356e-16 
   6389.222    1.03712e-16 
   6392.808   1.040079e-16 
   6396.394   1.024239e-16 
    6399.98   1.024726e-16 
   6403.567   1.058306e-16 
   6407.154   1.013544e-16 
   6410.742   1.010056e-16 
    6414.33   1.012679e-16 
   6417.918   1.007269e-16 
   6421.506   1.033441e-16 
   6425.095   9.899451e-17 
   6428.684    1.01039e-16 
   6432.274    9.94975e-17 
   6435.863   9.961393e-17 
   6439.454   9.905872e-17 
   6443.044   9.697226e-17 
   6446.635   9.904019e-17 
   6450.226   9.496387e-17 
   6453.817   9.527341e-17 
   6457.409   9.615015e-17 
   6461.001   9.972523e-17 
   6464.593   9.326062e-17 
   6468.186   9.231441e-17 
   6471.779   9.294692e-17 
   6475.373   8.956581e-17 
   6478.966    8.73134e-17 
    6482.56   9.236727e-17 
   6486.154   9.009658e-17 
   6489.749   9.067002e-17 
   6493.344   8.680322e-17 
   6496.939   8.850019e-17 
   6500.535   8.823737e-17 
    6504.13   8.989858e-17 
   6507.727   8.589456e-17 
   6511.323   8.716002e-17 
    6514.92   8.540321e-17 
   6518.517   8.632236e-17 
   6522.115   8.856087e-17 
   6525.712     8.1299e-17 
   6529.311   8.234036e-17 
   6532.909   8.502159e-17 
   6536.507   8.705122e-17 
   6540.106   8.432959e-17 
   6543.706   8.241126e-17 
   6547.305   8.354637e-17 
   6550.905   8.703136e-17 
   6554.505    8.79155e-17 
   6558.106   8.735541e-17 
   6561.707   8.355279e-17 
   6565.308   8.370746e-17 
    6568.91   8.940652e-17 
   6572.511   8.355322e-17 
   6576.113   8.669206e-17 
   6579.716   8.421875e-17 
   6583.318   8.268141e-17 
   6586.921   8.336204e-17 
   6590.524   8.486443e-17 
   6594.128   8.396343e-17 
   6597.732   8.455842e-17 
   6601.336   8.404897e-17 
   6604.941   8.062277e-17 
   6608.545   8.516639e-17 
   6612.151    8.60153e-17 
   6615.756   9.007005e-17 
   6619.362   8.892377e-17 
   6622.968   8.871513e-17 
   6626.574   8.642037e-17 
   6630.181   8.497178e-17 
   6633.788   8.687375e-17 
   6637.395   8.487143e-17 
   6641.002   8.646471e-17 
    6644.61    8.72608e-17 
   6648.218   8.998079e-17 
   6651.826   9.104789e-17 
   6655.435    8.84014e-17 
   6659.044   8.980859e-17 
   6662.653   8.808146e-17 
   6666.263   9.151812e-17 
   6669.873   9.379538e-17 
   6673.483   9.227269e-17 
   6677.093   9.254729e-17 
   6680.704   9.331814e-17 
   6684.315   9.047882e-17 
   6687.926    9.31139e-17 
   6691.538   9.194139e-17 
   6695.149   9.400995e-17 
   6698.762   9.262027e-17 
   6702.374   9.365977e-17 
   6705.987   9.334662e-17 
     6709.6   9.294531e-17 
   6713.213   9.033131e-17 
   6716.827   9.411524e-17 
   6720.441   9.582732e-17 
   6724.055    9.41034e-17 
   6727.669   9.776735e-17 
   6731.284    9.71659e-17 
   6734.899   9.653493e-17 
   6738.515   9.600136e-17 
    6742.13   9.923987e-17 
   6745.746   9.501456e-17 
   6749.362   9.777331e-17 
   6752.979   9.861964e-17 
   6756.595   9.795999e-17 
   6760.212   9.777231e-17 
    6763.83   1.018849e-16 
   6767.447   1.006733e-16 
   6771.065   9.896553e-17 
   6774.684    1.01103e-16 
   6778.302   1.020826e-16 
    6781.92   9.948233e-17 
    6785.54   1.003948e-16 
   6789.159   1.024772e-16 
   6792.778   1.062865e-16 
   6796.398   1.050174e-16 
   6800.019   1.046342e-16 
   6803.639   1.015676e-16 
   6807.259   1.045998e-16 
    6810.88   1.020036e-16 
   6814.501   9.630751e-17 
   6818.123   1.036261e-16 
   6821.745   1.029295e-16 
   6825.367   1.068299e-16 
   6828.989   1.090335e-16 
   6832.612   1.047916e-16 
   6836.235   1.027708e-16 
   6839.858   1.062326e-16 
   6843.481   1.046792e-16 
   6847.105   1.001632e-16 
   6850.729   1.022349e-16 
   6854.354   1.067864e-16 
   6857.978   1.060873e-16 
   6861.603   1.123442e-16 
   6865.228   1.037248e-16 
   6868.854   1.060173e-16 
   6872.479   1.019934e-16 
   6876.105   1.034308e-16 
   6879.731   1.032256e-16 
   6883.358   1.049955e-16 
   6886.984   1.045524e-16 
   6890.611   9.977855e-17 
   6894.239   1.011061e-16 
   6897.866   1.031657e-16 
   6901.494   1.030477e-16 
   6905.122   9.750823e-17 
    6908.75   9.940701e-17 
   6912.379   9.831463e-17 
   6916.008   9.890628e-17 
   6919.637   1.003281e-16 
   6923.267   1.022779e-16 
   6926.896   1.018477e-16 
   6930.526   1.001584e-16 
   6934.157   1.031541e-16 
   6937.787    1.03585e-16 
   6941.418   1.024919e-16 
   6945.049   9.509298e-17 
   6948.681   9.810126e-17 
   6952.312   9.696834e-17 
   6955.944   1.012721e-16 
   6959.576   9.919905e-17 
   6963.208   9.826393e-17 
   6966.841   9.996433e-17 
   6970.474   1.048393e-16 
   6974.107   9.860238e-17 
   6977.741   9.229103e-17 
   6981.375   8.557116e-17 
   6985.008   8.808186e-17 
   6988.643   8.788939e-17 
   6992.277   9.240499e-17 
   6995.912   9.839648e-17 
   6999.547   9.923344e-17 
   7003.183   9.940772e-17 
   7006.818   9.885418e-17 
   7010.454   9.640382e-17 
    7014.09   9.892508e-17 
   7017.727    9.59064e-17 
   7021.363   9.538051e-17 
     7025.0   9.522219e-17 
   7028.637   9.678693e-17 
   7032.274   9.530845e-17 
   7035.912   9.557332e-17 
    7039.55   9.871538e-17 
   7043.188   9.743153e-17 
   7046.827   9.642276e-17 
   7050.466   9.497447e-17 
   7054.104   9.589153e-17 
   7057.744   9.586872e-17 
   7061.383   9.191056e-17 
   7065.023   9.607393e-17 
   7068.663   9.555704e-17 
   7072.304   1.044999e-16 
   7075.944   1.146605e-16 
   7079.585   1.153856e-16 
   7083.226   1.158982e-16 
   7086.868   1.123484e-16 
   7090.509   1.053881e-16 
   7094.151   9.614379e-17 
   7097.793   9.657026e-17 
   7101.436   9.402592e-17 
   7105.078   9.420468e-17 
   7108.721    9.74331e-17 
   7112.364   9.163061e-17 
   7116.008   9.131153e-17 
   7119.651   9.171769e-17 
   7123.295   9.164332e-17 
    7126.94   9.369773e-17 
   7130.584   9.515438e-17 
   7134.229   9.261998e-17 
   7137.874   9.088989e-17 
    7141.52   9.254301e-17 
   7145.165   9.012795e-17 
   7148.811    9.26299e-17 
   7152.457   8.752068e-17 
   7156.103   8.839553e-17 
    7159.75   8.759774e-17 
   7163.396   8.664444e-17 
   7167.043   8.897067e-17 
   7170.691   8.541375e-17 
   7174.338   8.639488e-17 
   7177.986   8.252468e-17 
   7181.634   8.403677e-17 
   7185.283   7.952804e-17 
   7188.932   8.113594e-17 
    7192.58   8.073812e-17 
   7196.229   7.987096e-17 
   7199.879   7.756153e-17 
   7203.528   7.473104e-17 
   7207.179    8.10658e-17 
   7210.829   8.178584e-17 
   7214.479   8.006867e-17 
    7218.13   8.150578e-17 
   7221.781   8.343049e-17 
   7225.432   8.187281e-17 
   7229.083   7.994646e-17 
   7232.735   8.198464e-17 
   7236.387   7.252514e-17 
    7240.04   7.491394e-17 
   7243.692   8.452099e-17 
   7247.345   7.870183e-17 
   7250.998   7.894332e-17 
   7254.651   8.107929e-17 
   7258.305   8.165219e-17 
   7261.958   7.619913e-17 
   7265.612   8.212811e-17 
   7269.267   8.091442e-17 
   7272.921   7.800491e-17 
   7276.576   7.505254e-17 
   7280.231   7.902991e-17 
   7283.887   7.583847e-17 
   7287.542   7.573837e-17 
   7291.198   7.442633e-17 
   7294.854   7.072003e-17 
    7298.51    7.23074e-17 
   7302.167   7.113675e-17 
   7305.824   6.877628e-17 
   7309.481   7.751834e-17 
   7313.139   7.182403e-17 
   7316.796   7.729454e-17 
   7320.454   7.138368e-17 
   7324.112    7.36813e-17 
   7327.771   7.574427e-17 
   7331.429   7.638082e-17 
   7335.088   7.559849e-17 
   7338.748    7.52853e-17 
   7342.407   7.768162e-17 
   7346.067   7.169416e-17 
   7349.727   7.151326e-17 
   7353.387   7.410598e-17 
   7357.047   7.711566e-17 
   7360.708   7.691612e-17 
   7364.369   8.037138e-17 
   7368.031   7.932162e-17 
   7371.692   7.924981e-17 
   7375.354   8.173564e-17 
   7379.016   7.461468e-17 
   7382.678   7.346324e-17 
   7386.341   7.414277e-17 
   7390.003   7.694922e-17 
   7393.667   7.668208e-17 
    7397.33   7.606781e-17 
   7400.994   7.550147e-17 
   7404.658   7.552324e-17 
   7408.322   7.513015e-17 
   7411.986   7.686762e-17 
   7415.651   7.879296e-17 
   7419.315   7.572338e-17 
    7422.98   7.645689e-17 
   7426.646   7.910171e-17 
   7430.312   7.558945e-17 
   7433.978   7.641527e-17 
   7437.644   7.848879e-17 
   7441.311   7.773629e-17 
   7444.977   7.767395e-17 
   7448.644   7.195149e-17 
   7452.312   7.619903e-17 
   7455.979   7.729851e-17 
   7459.646   7.770228e-17 
   7463.314    7.53493e-17 
   7466.983    7.68822e-17 
   7470.651   7.576094e-17 
    7474.32   7.910768e-17 
   7477.989   7.117724e-17 
   7481.659   7.507225e-17 
   7485.328   7.305385e-17 
   7488.998   7.623357e-17 
   7492.668    7.74079e-17 
   7496.338   7.903778e-17 
   7500.009    7.93306e-17 
    7503.68   8.118565e-17 
   7507.351   8.377004e-17 
   7511.023   8.558585e-17 
   7514.694   8.834792e-17 
   7518.366   8.865616e-17 
   7522.039   8.718451e-17 
   7525.711    9.50244e-17 
   7529.384   8.858387e-17 
   7533.057   8.812927e-17 
    7536.73   8.702879e-17 
   7540.404   7.667943e-17 
   7544.078   7.736161e-17 
   7547.751    7.96517e-17 
   7551.426   8.395204e-17 
   7555.101   8.179736e-17 
   7558.775   7.452359e-17 
    7562.45   7.870798e-17 
   7566.126   7.958276e-17 
   7569.801   7.855769e-17 
   7573.478   7.572706e-17 
   7577.154   7.821155e-17 
    7580.83   7.442532e-17 
   7584.507   7.760959e-17 
   7588.184   7.395578e-17 
   7591.861    7.23311e-17 
   7595.539   7.233907e-17 
   7599.216   7.349553e-17 
   7602.895   6.851281e-17 
   7606.573   6.617386e-17 
   7610.251   7.675702e-17 
    7613.93   8.120039e-17 
   7617.609    8.21648e-17 
   7621.289   8.741613e-17 
   7624.968   7.760285e-17 
   7628.648   6.541702e-17 
   7632.329   7.491705e-17 
   7636.009   7.179695e-17 
   7639.689    7.87481e-17 
   7643.371     7.8376e-17 
   7647.052   7.725206e-17 
   7650.733   7.736607e-17 
   7654.416   7.165885e-17 
   7658.098    7.68698e-17 
    7661.78   7.445271e-17 
   7665.462   7.751757e-17 
   7669.146    7.69748e-17 
   7672.829   7.479448e-17 
   7676.512   7.332541e-17 
   7680.196   7.422161e-17 
    7683.88   8.006118e-17 
   7687.564   7.724467e-17 
   7691.249   7.633952e-17 
   7694.934   8.176915e-17 
   7698.619   8.106702e-17 
   7702.304   8.153279e-17 
    7705.99    8.24989e-17 
   7709.675   8.454019e-17 
   7713.362   7.830402e-17 
   7717.048   7.480642e-17 
   7720.735   6.788251e-17 
   7724.422   6.791774e-17 
   7728.109   7.694675e-17 
   7731.797     8.0992e-17 
   7735.485   7.715945e-17 
   7739.173   7.302446e-17 
   7742.861   7.463841e-17 
    7746.55   7.634467e-17 
   7750.239   7.789675e-17 
   7753.928   7.846752e-17 
   7757.618   7.513622e-17 
   7761.308   7.509544e-17 
   7764.998   6.998497e-17 
   7768.688   7.235363e-17 
   7772.378   7.475315e-17 
   7776.069   7.738179e-17 
   7779.761   7.570336e-17 
   7783.452   7.750314e-17 
   7787.144   6.890299e-17 
   7790.836   6.967064e-17 
   7794.528    6.79184e-17 
   7798.221    6.86345e-17 
   7801.914   7.036297e-17 
   7805.607   7.089658e-17 
   7809.301   6.732127e-17 
   7812.995   5.978743e-17 
   7816.688   6.454389e-17 
   7820.383   6.723904e-17 
   7824.078    7.13069e-17 
   7827.772   6.532091e-17 
   7831.467   5.775507e-17 
   7835.163   6.249435e-17 
   7838.859   6.743287e-17 
   7842.555   6.565387e-17 
   7846.251   6.064348e-17 
   7849.948   6.642015e-17 
   7853.645   5.997094e-17 
   7857.342   6.102714e-17 
    7861.04   5.426906e-17 
   7864.737   6.046866e-17 
   7868.435   6.095396e-17 
   7872.134   5.662096e-17 
   7875.833    5.38545e-17 
   7879.531   5.239099e-17 
    7883.23   6.284809e-17 
    7886.93   4.993215e-17 
    7890.63    6.02911e-17 
    7894.33   5.221265e-17 
    7898.03   5.288442e-17 
   7901.731    5.60156e-17 
   7905.432   5.643582e-17 
   7909.133   5.629462e-17 
   7912.835   5.161024e-17 
   7916.537   5.521901e-17 
   7920.239   5.046887e-17 
   7923.941   5.562049e-17 
   7927.645   5.319703e-17 
   7931.347   5.268805e-17 
   7935.051   5.498837e-17 
   7938.754   5.420418e-17 
   7942.458   5.340485e-17 
   7946.163   5.321902e-17 
   7949.867    5.51499e-17 
   7953.572   5.159726e-17 
   7957.277   5.010581e-17 
   7960.983   4.996327e-17 
   7964.688   5.487605e-17 
   7968.395   5.362302e-17 
   7972.101   5.160582e-17 
   7975.808   5.222803e-17 
   7979.515   5.117974e-17 
   7983.222    5.46416e-17 
    7986.93   5.117713e-17 
   7990.637   5.222674e-17 
   7994.346   5.563718e-17 
   7998.054   5.910491e-17 
   8001.763    5.15722e-17 
   8005.472   5.120081e-17 
   8009.182   5.314629e-17 
   8012.891   5.394392e-17 
   8016.602   5.463496e-17 
   8020.312   5.631551e-17 
   8024.022   5.905984e-17 
   8027.733   5.290814e-17 
   8031.445   5.518726e-17 
   8035.156   5.267799e-17 
   8038.868   5.461689e-17 
   8042.581   5.723839e-17 
   8046.293   5.540834e-17 
   8050.006   5.449674e-17 
   8053.719   5.234871e-17 
   8057.433   5.822707e-17 
   8061.146   5.492841e-17 
    8064.86   5.869173e-17 
   8068.575   5.720186e-17 
    8072.29   5.764475e-17 
   8076.004   5.687857e-17 
    8079.72   5.650225e-17 
   8083.436   5.760337e-17 
   8087.152   5.642532e-17 
   8090.868   5.501436e-17 
   8094.584   5.616038e-17 
   8098.302   5.808781e-17 
   8102.019   5.758483e-17 
   8105.736   5.861927e-17 
   8109.455    5.49087e-17 
   8113.173   5.767539e-17 
   8116.891   6.117283e-17 
    8120.61   5.943362e-17 
    8124.33   6.067689e-17 
   8128.049   5.843072e-17 
   8131.769   6.172137e-17 
   8135.489   5.804504e-17 
   8139.209    5.90009e-17 
   8142.931   5.838261e-17 
   8146.652   5.823247e-17 
   8150.373   6.289521e-17 
   8154.095   5.938997e-17 
   8157.817   5.851967e-17 
    8161.54   5.632453e-17 
   8165.263   6.242149e-17 
   8168.986   5.651019e-17 
   8172.709   6.105288e-17 
   8176.433   6.508785e-17 
   8180.157   6.330542e-17 
   8183.882   6.269833e-17 
   8187.606   6.324127e-17 
   8191.332   6.530662e-17 
   8195.058   6.631723e-17 
   8198.783   6.697571e-17 
    8202.51   6.920901e-17 
   8206.236   6.857611e-17 
   8209.963   7.111006e-17 
    8213.69   6.866694e-17 
   8217.418   6.972857e-17 
   8221.146   6.908596e-17 
   8224.874   5.882147e-17 
   8228.603   6.984075e-17 
   8232.331    6.52979e-17 
   8236.061   7.231544e-17 
    8239.79   7.015985e-17 
    8243.52   6.950253e-17 
    8247.25   7.119235e-17 
    8250.98   7.618214e-17 
   8254.712   7.307467e-17 
   8258.443   7.453294e-17 
   8262.175   7.567124e-17 
   8265.907   7.439462e-17 
   8269.639   7.261365e-17 
   8273.372   7.887753e-17 
   8277.104   7.325403e-17 
   8280.838   6.901075e-17 
   8284.572   7.521869e-17 
   8288.307   7.077815e-17 
   8292.041   6.996114e-17 
   8295.775   6.999521e-17 
   8299.511    7.65138e-17 
   8303.246    7.70873e-17 
   8306.982   7.097293e-17 
   8310.719   7.925568e-17 
   8314.455   7.543362e-17 
   8318.192   7.787769e-17 
    8321.93   7.264138e-17 
   8325.667   7.458759e-17 
   8329.405   7.312861e-17 
   8333.144   7.166962e-17 
   8336.882   7.021063e-17 
   8340.621   6.875127e-17 
    8344.36   7.324997e-17 
   8348.101   6.142483e-17 
   8351.841   7.162746e-17 
   8355.581   7.913597e-17 
   8359.322   8.108747e-17 
   8363.063   7.543106e-17 
   8366.806   7.634025e-17 
   8370.548    7.85236e-17 
    8374.29   7.169829e-17 
   8378.033   7.322916e-17 
   8381.776   7.330073e-17 
    8385.52   7.470479e-17 
   8389.264   7.775895e-17 
   8393.008    7.49407e-17 
   8396.752   7.365918e-17 
   8400.497   7.898632e-17 
   8404.243   7.029822e-17 
   8407.988   6.965099e-17 
   8411.734   7.551836e-17 
   8415.481    7.99178e-17 
   8419.229   7.670823e-17 
   8422.976   6.080376e-17 
   8426.723   6.849097e-17 
   8430.472   6.846029e-17 
    8434.22   6.471675e-17 
   8437.969   6.178297e-17 
   8441.718   7.237466e-17 
   8445.467   6.677574e-17 
   8449.217   7.289538e-17 
   8452.968   7.161702e-17 
   8456.719   7.156202e-17 
    8460.47   5.942628e-17 
   8464.221    6.88495e-17 
   8467.973   7.279221e-17 
   8471.726   7.516503e-17 
   8475.478   5.996214e-17 
    8479.23   6.971522e-17 
   8482.984   7.014063e-17 
   8486.738   6.570972e-17 
   8490.492   6.929062e-17 
   8494.247   6.009369e-17 
   8498.002   6.637608e-17 
   8501.758   6.637805e-17 
   8505.514   6.449601e-17 
    8509.27   6.592933e-17 
   8513.026   6.460658e-17 
   8516.783   6.543259e-17 
   8520.541   6.473903e-17 
   8524.299   6.124556e-17 
   8528.057    5.89789e-17 
   8531.815   5.982848e-17 
   8535.574   5.949146e-17 
   8539.334   5.904598e-17 
   8543.094   5.744123e-17 
   8546.854   6.120504e-17 
   8550.615   6.012993e-17 
   8554.376   5.318705e-17 
   8558.138   5.352739e-17 
   8561.899   5.249227e-17 
   8565.662   5.796963e-17 
   8569.425   5.389816e-17 
   8573.188   5.642595e-17 
   8576.951   5.745653e-17 
   8580.715   5.663358e-17 
   8584.479   5.705764e-17 
   8588.244   5.555776e-17 
    8592.01   5.539498e-17 
   8595.775   4.987349e-17 
   8599.541   5.440754e-17 
   8603.308    5.42153e-17 
   8607.074   5.368176e-17 
   8610.842   5.635267e-17 
   8614.609   5.003933e-17 
   8618.378   4.720696e-17 
   8622.146   5.324833e-17 
   8625.915   5.173356e-17 
   8629.685   5.000194e-17 
   8633.454    4.68873e-17 
   8637.225    5.04847e-17 
   8640.995   4.563485e-17 
   8644.767   4.946232e-17 
   8648.538   5.386373e-17 
   8652.311   4.229482e-17 
   8656.083   4.812488e-17 
   8659.855   4.391032e-17 
   8663.629   4.750903e-17 
   8667.402   5.111259e-17 
   8671.177   4.634147e-17 
   8674.951   4.815102e-17 
   8678.727   5.296233e-17 
   8682.502   5.176283e-17 
   8686.277   4.817848e-17 
   8690.054   4.876242e-17 
   8693.831   4.350866e-17 
   8697.608   4.806583e-17 
   8701.386   4.514141e-17 
   8705.164   4.637241e-17 
   8708.942    4.13137e-17 
   8712.722   4.246221e-17 
   8716.501   4.134134e-17 
   8720.281   4.243772e-17 
   8724.062   4.208061e-17 
   8727.843   4.267976e-17 
   8731.624   4.323911e-17 
   8735.405   4.516105e-17 
   8739.188   4.421491e-17 
   8742.971   4.311759e-17 
   8746.753   4.277493e-17 
   8750.537   4.454113e-17 
   8754.321   4.064226e-17 
   8758.105   3.966638e-17 
   8761.891   4.156736e-17 
   8765.676    2.85513e-17 
   8769.462   4.131778e-17 
   8773.248   4.000427e-17 
   8777.035   3.712809e-17 
   8780.822   4.007666e-17 
   8784.609   4.676084e-17 
   8788.397   4.006896e-17 
   8792.187   4.149237e-17 
   8795.976   3.729786e-17 
   8799.766   4.344174e-17 
   8803.556   4.406024e-17 
   8807.346   4.467874e-17 
   8811.137    4.52974e-17 
   8814.929   4.591622e-17 
   8818.721   4.653504e-17 
   8822.513   4.715387e-17 
   8826.306   4.777285e-17 
     8830.1   4.839199e-17 
   8833.893   4.854675e-17 
   8837.687   4.845191e-17 
   8841.482   4.835703e-17 
   8845.277   4.826217e-17 
   8849.073   4.923447e-17 
    8852.87   5.444882e-17 
   8856.666   4.913313e-17 
   8860.464    4.82722e-17 
   8864.262   5.220109e-17 
    8868.06   4.520557e-17 
   8871.858   4.470111e-17 
   8875.657   4.901626e-17 
   8879.457   4.676925e-17 
   8883.258   4.806914e-17 
   8887.059   5.542149e-17 
   8890.859   5.035333e-17 
   8894.661   4.215653e-17 
   8898.464   5.188085e-17 
   8902.266   5.374732e-17 
   8906.069   5.604197e-17 
   8909.873   5.335905e-17 
   8913.677   5.220812e-17 
   8917.481   4.874959e-17 
   8921.287   5.672803e-17 
   8925.093   6.261334e-17 
   8928.899    6.41786e-17 
   8932.706   4.493251e-17 
   8936.513   5.294096e-17 
    8940.32   5.292757e-17 
   8944.129   6.282609e-17 
   8947.938    5.14986e-17 
   8951.747   4.840339e-17 
   8955.557   5.209411e-17 
   8959.367   5.261306e-17 
   8963.178   5.127896e-17 
   8966.989   4.102891e-17 
   8970.801   4.818086e-17 
   8974.613   4.788346e-17 
   8978.427    5.21752e-17 
    8982.24   5.172248e-17 
   8986.054   5.017153e-17 
   8989.868   4.688567e-17 
   8993.684   5.444813e-17 
   8997.499   5.215202e-17 
   9001.315   4.487564e-17 
   9005.132   5.183273e-17 
   9008.949   5.480631e-17 
   9012.767    4.76757e-17 
   9016.585   5.376527e-17 
   9020.403   5.046523e-17 
   9024.223    4.94406e-17 
   9028.043   4.982315e-17 
   9031.863    4.93137e-17 
   9035.684   5.160091e-17 
   9039.505   5.190808e-17 
   9043.327    5.38358e-17 
   9047.149   5.377173e-17 
   9050.973   4.779782e-17 
   9054.796   4.875703e-17 
    9058.62   4.914817e-17 
   9062.445    4.53802e-17 
   9066.271   4.869019e-17 
   9070.096   4.951425e-17 
   9073.923   4.043555e-17 
   9077.749    4.79142e-17 
   9081.577   5.164859e-17 
   9085.405   5.009657e-17 
   9089.233    4.79502e-17 
   9093.062   4.774087e-17 
   9096.893   4.786647e-17 
   9100.723   5.205661e-17 
