# STATUS =
# OBJECT = 2018bgv
# TELESCOPE = P200
# INSTRUMENT = DBSP
# DATE-OBS = 2018-07-17 00:00:00.00
# MJD = 58316.0
# EXPTIME = --
# AIRMASS = --
# SLIT = --
# DISPERSER = --
# SOURCE = 2020ApJ...901...61L
# FILTER =
# RESOLUTION =
# FLUX_STANDARD =
# EXTINCTION_CORRECTED = --
# PHOTOMETRY_CALIBRATED =
# TELLURIC_CORRECTED =
# FLUX_UNITS = erg cm(-2) sec(-1) Ang(-1)
# WAVE_UNITS = Angstrom
# QUALITY = Low
# MIN_WAVE = 3500.0
# MAX_WAVE = 8999.15
# COMMENT = --
 Wavelength         Flux 
   3501.525   2.5022e-17 
    3503.05    5.291e-17 
   3504.575  -3.6284e-17 
     3506.1  -1.4247e-17 
   3507.625   5.3766e-17 
    3509.15   7.5688e-17 
   3510.675   4.9427e-17 
     3512.2   2.0627e-17 
   3513.725  -1.1657e-17 
    3515.25  -1.3705e-17 
   3516.775  -2.0838e-17 
     3518.3   2.5463e-17 
   3519.825    2.973e-17 
    3521.35   1.1138e-17 
   3522.875   6.4467e-17 
     3524.4   2.1488e-17 
   3525.925   4.5725e-17 
    3527.45  -1.0444e-19 
   3528.975   9.3904e-17 
     3530.5   9.0498e-17 
   3532.025   3.9296e-17 
    3533.55   4.3215e-17 
   3535.075   5.1099e-18 
     3536.6  -1.9345e-17 
   3538.125   4.3078e-18 
    3539.65  -3.6651e-17 
   3541.175  -8.1149e-18 
     3542.7   3.4747e-17 
   3544.225   3.2808e-17 
    3545.75   1.4134e-17 
   3547.275   8.6188e-17 
     3548.8   1.2183e-16 
   3550.325   1.2322e-16 
    3551.85   3.3015e-17 
   3553.375   2.5293e-18 
     3554.9  -3.1289e-18 
   3556.425   9.6147e-17 
    3557.95   -2.163e-17 
   3559.475   3.1042e-17 
     3561.0   5.8712e-17 
   3562.525   5.2685e-17 
    3564.05   3.7851e-18 
   3565.575   4.0068e-17 
     3567.1  -2.6847e-17 
   3568.625  -9.9383e-18 
    3570.15   2.5637e-17 
   3571.675   8.5213e-17 
     3573.2   -2.002e-17 
   3574.725   5.7616e-17 
    3576.25   4.8393e-17 
   3577.775   3.9102e-17 
     3579.3  -1.7803e-18 
   3580.825   1.8609e-17 
    3582.35   3.1502e-17 
   3583.875   3.0296e-17 
     3585.4   9.1391e-18 
   3586.925  -1.3919e-18 
    3588.45  -2.9927e-17 
   3589.975   3.5138e-17 
     3591.5   5.6793e-17 
   3593.025    2.295e-17 
    3594.55   6.0736e-17 
   3596.075   4.3665e-17 
     3597.6   6.0967e-17 
   3599.125   2.2861e-17 
    3600.65  -1.1374e-17 
   3602.175   2.3368e-17 
     3603.7   1.4093e-17 
   3605.225   3.7505e-17 
    3606.75   2.4876e-17 
   3608.275   2.0114e-17 
     3609.8   7.0814e-18 
   3611.325  -2.4262e-17 
    3612.85   -2.998e-18 
   3614.375   1.5075e-17 
     3615.9  -9.3322e-18 
   3617.425   6.3444e-18 
    3618.95  -8.5908e-18 
   3620.475  -6.9953e-18 
     3622.0   2.7126e-17 
   3623.525  -4.6516e-17 
    3625.05  -1.5336e-17 
   3626.575   5.0505e-17 
     3628.1   6.3864e-17 
   3629.625    3.305e-17 
    3631.15   6.4655e-18 
   3632.675   1.5129e-17 
     3634.2  -6.8428e-18 
   3635.725   7.9395e-18 
    3637.25   1.8463e-17 
   3638.775  -5.4611e-18 
     3640.3   2.6422e-17 
   3641.825   3.8885e-17 
    3643.35   6.8774e-18 
   3644.875   2.3377e-17 
     3646.4  -2.0456e-17 
   3647.925   7.4973e-18 
    3649.45  -2.8913e-17 
   3650.975  -7.1255e-19 
     3652.5   3.5393e-17 
   3654.025  -7.5064e-19 
    3655.55   1.7441e-17 
   3657.075   3.6818e-17 
     3658.6   5.1657e-17 
   3660.125   3.4852e-17 
    3661.65   1.7821e-17 
   3663.175   9.9658e-18 
     3664.7   1.4249e-17 
   3666.225   1.4465e-17 
    3667.75   5.7054e-17 
   3669.275   6.6603e-18 
     3670.8  -1.2778e-17 
   3672.325   8.4257e-18 
    3673.85   5.2928e-17 
   3675.375   5.1508e-17 
     3676.9  -5.0556e-17 
   3678.425   1.6718e-18 
    3679.95   7.2334e-17 
   3681.475   6.3431e-17 
     3683.0   5.3501e-17 
   3684.525   7.1759e-17 
    3686.05   1.0185e-17 
   3687.575   1.9215e-17 
     3689.1   3.0819e-17 
   3690.625   2.9323e-17 
    3692.15   3.9984e-17 
   3693.675  -2.9725e-17 
     3695.2   4.0208e-18 
   3696.725    4.475e-17 
    3698.25   3.4182e-17 
   3699.775   6.0978e-17 
     3701.3   7.2151e-17 
   3702.825   1.5935e-17 
    3704.35   2.2631e-17 
   3705.875   5.1545e-17 
     3707.4   3.1924e-17 
   3708.925   7.0191e-19 
    3710.45   2.0408e-17 
   3711.975   1.0572e-17 
     3713.5   4.6239e-17 
   3715.025   7.7691e-17 
    3716.55   2.9816e-18 
   3718.075   3.4934e-17 
     3719.6   3.6878e-17 
   3721.125   2.2927e-17 
    3722.65   4.0483e-17 
   3724.175    5.221e-17 
     3725.7   2.5889e-17 
   3727.225   9.9178e-17 
    3728.75   6.0048e-17 
   3730.275   -4.558e-18 
     3731.8   5.2042e-17 
   3733.325   4.8576e-17 
    3734.85   3.5615e-18 
   3736.375   3.4257e-17 
     3737.9   2.0153e-17 
   3739.425   6.3404e-18 
    3740.95   4.5204e-18 
   3742.475    3.747e-17 
     3744.0    1.532e-17 
   3745.525   2.6838e-17 
    3747.05   1.9887e-17 
   3748.575   2.4851e-17 
     3750.1   2.1475e-17 
   3751.625   3.3914e-17 
    3753.15     3.77e-17 
   3754.675   5.3893e-17 
     3756.2   4.2423e-17 
   3757.725   4.5784e-17 
    3759.25   4.3322e-17 
   3760.775   7.2073e-18 
     3762.3   1.1122e-17 
   3763.825   1.7468e-17 
    3765.35   5.6647e-17 
   3766.875   7.8382e-17 
     3768.4  -1.0535e-17 
   3769.925   4.6346e-17 
    3771.45   5.2368e-17 
   3772.975   4.3316e-17 
     3774.5   5.9249e-17 
   3776.025   1.6401e-17 
    3777.55   1.4254e-17 
   3779.075   5.3319e-17 
     3780.6   6.7316e-17 
   3782.125   5.8178e-17 
    3783.65   3.8702e-18 
   3785.175   1.7749e-17 
     3786.7  -4.7304e-18 
   3788.225   1.6067e-17 
    3789.75    1.105e-17 
   3791.275  -1.3542e-17 
     3792.8   3.0587e-17 
   3794.325   1.0567e-17 
    3795.85  -2.8521e-17 
   3797.375    1.068e-17 
     3798.9   1.4883e-17 
   3800.425   1.0281e-17 
    3801.95    3.675e-17 
   3803.475   2.6123e-17 
     3805.0   3.8581e-17 
   3806.525   5.0163e-17 
    3808.05   3.6662e-17 
   3809.575   2.9785e-17 
     3811.1   5.0596e-17 
   3812.625   3.1771e-17 
    3814.15   1.9977e-17 
   3815.675   5.2364e-17 
     3817.2   5.0853e-17 
   3818.725   2.4397e-17 
    3820.25    4.825e-17 
   3821.775   7.1838e-17 
     3823.3   9.0532e-17 
   3824.825   3.4088e-17 
    3826.35   4.8172e-17 
   3827.875   2.0917e-17 
     3829.4    3.395e-17 
   3830.925   4.2882e-17 
    3832.45   1.2248e-18 
   3833.975   2.7114e-18 
     3835.5  -1.2512e-17 
   3837.025   1.5272e-17 
    3838.55   3.8603e-17 
   3840.075   3.5165e-17 
     3841.6   5.2956e-17 
   3843.125   1.5989e-17 
    3844.65   1.3081e-17 
   3846.175   1.9335e-17 
     3847.7   4.6859e-17 
   3849.225   6.0301e-17 
    3850.75   2.2691e-17 
   3852.275   2.3451e-17 
     3853.8   5.1907e-17 
   3855.325   1.6393e-17 
    3856.85  -1.4287e-17 
   3858.375  -3.2504e-18 
     3859.9   1.4281e-17 
   3861.425   9.3254e-18 
    3862.95   4.3509e-17 
   3864.475   3.0499e-17 
     3866.0   1.0949e-17 
   3867.525   2.9878e-18 
    3869.05   2.5809e-17 
   3870.575   3.1256e-17 
     3872.1   2.3746e-17 
   3873.625   2.0429e-17 
    3875.15   1.8796e-17 
   3876.675   1.8111e-17 
     3878.2  -9.7193e-18 
   3879.725  -2.1559e-17 
    3881.25   5.2175e-18 
   3882.775   2.1916e-18 
     3884.3  -8.2838e-18 
   3885.825   2.2244e-17 
    3887.35   3.1694e-17 
   3888.875   1.0917e-17 
     3890.4   9.0799e-18 
   3891.925   2.3293e-17 
    3893.45   2.5901e-17 
   3894.975   2.2488e-18 
     3896.5   -3.555e-19 
   3898.025  -2.6116e-18 
    3899.55   -5.247e-18 
   3901.075   1.8668e-17 
     3902.6   1.6099e-17 
   3904.125   6.6381e-17 
    3905.65   2.5658e-17 
   3907.175   2.5651e-17 
     3908.7   5.1827e-17 
   3910.225   2.3132e-17 
    3911.75   1.2699e-17 
   3913.275   9.8364e-18 
     3914.8   6.2947e-17 
   3916.325   3.0673e-17 
    3917.85  -1.8959e-17 
   3919.375   2.9649e-18 
     3920.9   2.5174e-17 
   3922.425   2.6693e-17 
    3923.95   2.0754e-17 
   3925.475   2.3395e-17 
     3927.0   5.0565e-17 
   3928.525   1.5532e-17 
    3930.05   1.7607e-17 
   3931.575   3.6949e-17 
     3933.1   1.0777e-17 
   3934.625   4.8577e-17 
    3936.15    2.924e-17 
   3937.675   1.8551e-17 
     3939.2   2.3304e-17 
   3940.725   7.3854e-18 
    3942.25   2.8485e-17 
   3943.775   3.6761e-17 
     3945.3   5.0517e-17 
   3946.825   1.6814e-17 
    3948.35    2.308e-17 
   3949.875   3.5245e-17 
     3951.4   1.1337e-17 
   3952.925   7.3842e-17 
    3954.45   3.4055e-17 
   3955.975    8.363e-18 
     3957.5   2.7954e-17 
   3959.025  -4.0428e-18 
    3960.55   2.6534e-17 
   3962.075   4.2433e-17 
     3963.6   3.3631e-17 
   3965.125   1.8872e-17 
    3966.65  -6.9692e-18 
   3968.175   1.0677e-17 
     3969.7   1.3277e-17 
   3971.225    8.398e-19 
    3972.75   1.3091e-17 
   3974.275   1.2085e-18 
     3975.8   2.1398e-18 
   3977.325   7.8093e-17 
    3978.85   4.7246e-17 
   3980.375   3.5348e-17 
     3981.9   2.8077e-17 
   3983.425   1.5471e-17 
    3984.95   1.4827e-17 
   3986.475   1.2435e-17 
     3988.0   1.7633e-17 
   3989.525   -6.056e-18 
    3991.05   1.7225e-17 
   3992.575   3.6828e-17 
     3994.1   3.8004e-17 
   3995.625   2.5845e-17 
    3997.15   4.1969e-18 
   3998.675  -1.4646e-17 
     4000.2   1.5679e-18 
   4001.725   4.2101e-17 
    4003.25   4.6455e-17 
   4004.775   4.4568e-17 
     4006.3   3.6835e-17 
   4007.825   1.7179e-17 
    4009.35     4.83e-17 
   4010.875   5.1635e-17 
     4012.4   2.8059e-17 
   4013.925   2.4026e-17 
    4015.45   3.8699e-17 
   4016.975   1.8273e-17 
     4018.5   4.2903e-17 
   4020.025   9.7077e-17 
    4021.55   1.3907e-16 
   4023.075   1.3108e-16 
     4024.6   9.9963e-17 
   4026.125   1.2523e-16 
    4027.65   8.2532e-17 
   4029.175   6.6185e-17 
     4030.7   2.0729e-17 
   4032.225   1.7588e-17 
    4033.75   6.1337e-17 
   4035.275   2.0907e-17 
     4036.8   6.2475e-17 
   4038.325   3.7005e-17 
    4039.85   6.9512e-17 
   4041.375   4.1536e-17 
     4042.9    1.168e-17 
   4044.425  -7.1636e-19 
    4045.95   5.0001e-17 
   4047.475   6.1279e-17 
     4049.0  -1.1624e-18 
   4050.525   2.5024e-17 
    4052.05   6.5758e-17 
   4053.575   4.7749e-17 
     4055.1   3.4124e-17 
   4056.625   4.3099e-17 
    4058.15   7.4825e-17 
   4059.675    3.505e-17 
     4061.2   4.4112e-17 
   4062.725   2.8857e-17 
    4064.25   1.8808e-17 
   4065.775   4.5763e-17 
     4067.3   3.1006e-17 
   4068.825   2.8724e-17 
    4070.35    2.622e-17 
   4071.875   1.3169e-17 
     4073.4   1.0297e-17 
   4074.925    1.637e-17 
    4076.45   3.8258e-17 
   4077.975    4.155e-17 
     4079.5   1.2465e-17 
   4081.025   5.3869e-17 
    4082.55   5.4311e-17 
   4084.075   5.8858e-19 
     4085.6   1.4976e-17 
   4087.125   1.3923e-17 
    4088.65    1.869e-17 
   4090.175   3.6451e-17 
     4091.7   2.8289e-17 
   4093.225   4.6848e-17 
    4094.75    2.748e-17 
   4096.275   2.9504e-17 
     4097.8   5.0476e-17 
   4099.325   1.6913e-17 
    4100.85   2.6512e-17 
   4102.375   5.7422e-17 
     4103.9   3.7984e-17 
   4105.425   3.5974e-17 
    4106.95    5.353e-17 
   4108.475   8.3313e-17 
     4110.0   6.5725e-17 
   4111.525   3.3403e-17 
    4113.05   4.0298e-17 
   4114.575   3.0555e-17 
     4116.1   9.8803e-18 
   4117.625   2.5409e-17 
    4119.15   4.2253e-17 
   4120.675   4.4689e-17 
     4122.2   3.5927e-17 
   4123.725  -7.7817e-18 
    4125.25   5.5602e-17 
   4126.775   4.0362e-17 
     4128.3   5.2505e-18 
   4129.825   3.7461e-18 
    4131.35   4.5985e-17 
   4132.875   4.3337e-17 
     4134.4   4.4935e-17 
   4135.925   2.2241e-17 
    4137.45   5.6846e-17 
   4138.975   2.8118e-17 
     4140.5   2.2091e-17 
   4142.025   5.3527e-17 
    4143.55   5.3056e-17 
   4145.075   6.3802e-17 
     4146.6   2.9934e-17 
   4148.125   4.1161e-18 
    4149.65   5.2695e-17 
   4151.175   5.0124e-17 
     4152.7     4.13e-17 
   4154.225   4.6822e-17 
    4155.75   4.5259e-17 
   4157.275   5.5908e-17 
     4158.8   5.2776e-17 
   4160.325   2.7924e-17 
    4161.85    4.688e-17 
   4163.375   8.0801e-17 
     4164.9   7.0589e-17 
   4166.425   2.8804e-17 
    4167.95   1.0746e-17 
   4169.475   1.3895e-17 
     4171.0   2.4916e-17 
   4172.525   1.5739e-17 
    4174.05   8.3849e-17 
   4175.575   4.6718e-17 
     4177.1   4.6772e-17 
   4178.625   4.4496e-17 
    4180.15   4.8142e-17 
   4181.675   3.3361e-17 
     4183.2   4.1319e-17 
   4184.725   1.8526e-17 
    4186.25    1.841e-17 
   4187.775   3.8413e-17 
     4189.3   3.1401e-17 
   4190.825    5.611e-17 
    4192.35   4.2218e-17 
   4193.875   5.7607e-17 
     4195.4   4.3496e-17 
   4196.925   2.6129e-17 
    4198.45   3.9457e-17 
   4199.975   2.0711e-17 
     4201.5   3.1578e-17 
   4203.025   5.2837e-17 
    4204.55   4.9696e-17 
   4206.075   4.2255e-17 
     4207.6   1.1913e-17 
   4209.125   3.3815e-18 
    4210.65   3.7241e-17 
   4212.175   5.9057e-17 
     4213.7   7.2625e-17 
   4215.225   4.8585e-17 
    4216.75   5.2464e-17 
   4218.275    3.695e-17 
     4219.8   4.3143e-17 
   4221.325   3.7267e-17 
    4222.85   3.5955e-17 
   4224.375   3.7584e-17 
     4225.9   1.5956e-17 
   4227.425   3.5083e-17 
    4228.95   4.8658e-17 
   4230.475    5.601e-17 
     4232.0   5.5992e-17 
   4233.525   4.1521e-17 
    4235.05   7.6896e-17 
   4236.575   5.2557e-17 
     4238.1   7.3768e-17 
   4239.625   5.7747e-17 
    4241.15   3.6874e-17 
   4242.675   1.1619e-17 
     4244.2   6.8247e-18 
   4245.725   2.1437e-17 
    4247.25    6.237e-17 
   4248.775   6.1835e-17 
     4250.3   5.9769e-17 
   4251.825   5.9972e-17 
    4253.35   2.6885e-17 
   4254.875   1.8259e-17 
     4256.4   5.9044e-17 
   4257.925   5.8452e-17 
    4259.45   5.7262e-17 
   4260.975   6.0358e-17 
     4262.5   5.8863e-17 
   4264.025   6.2726e-17 
    4265.55   2.6595e-17 
   4267.075   6.6058e-17 
     4268.6   5.3323e-17 
   4270.125   4.7259e-17 
    4271.65   4.2908e-17 
   4273.175   1.7708e-17 
     4274.7   3.5664e-17 
   4276.225   2.0764e-17 
    4277.75   2.5081e-17 
   4279.275   1.8564e-17 
     4280.8   5.0365e-17 
   4282.325   3.7225e-17 
    4283.85   4.3178e-17 
   4285.375   2.6274e-17 
     4286.9   5.9031e-17 
   4288.425   2.0386e-17 
    4289.95   2.3122e-17 
   4291.475    3.463e-17 
     4293.0   5.6279e-17 
   4294.525   4.3842e-17 
    4296.05   4.7184e-17 
   4297.575   5.2949e-17 
     4299.1    3.993e-17 
   4300.625    3.707e-17 
    4302.15   3.3081e-17 
   4303.675   6.7333e-17 
     4305.2   4.8322e-17 
   4306.725   2.0358e-17 
    4308.25   2.7592e-17 
   4309.775    2.673e-17 
     4311.3   4.2564e-17 
   4312.825    5.638e-17 
    4314.35   4.2583e-17 
   4315.875   4.3809e-17 
     4317.4   2.2064e-17 
   4318.925   9.9343e-18 
    4320.45   2.9791e-17 
   4321.975   4.6766e-17 
     4323.5   6.7233e-17 
   4325.025   3.8247e-17 
    4326.55   2.7236e-17 
   4328.075   3.1427e-18 
     4329.6  -5.6225e-18 
   4331.125   5.8085e-17 
    4332.65   5.7748e-17 
   4334.175   6.1329e-17 
     4335.7   5.1484e-17 
   4337.225   3.3658e-17 
    4338.75   2.0311e-17 
   4340.275   6.1281e-17 
     4341.8   3.5872e-17 
   4343.325   4.5666e-17 
    4344.85   4.9736e-17 
   4346.375   5.4024e-17 
     4347.9   5.8949e-17 
   4349.425   8.2871e-17 
    4350.95   6.9471e-17 
   4352.475   5.2589e-17 
     4354.0    2.161e-17 
   4355.525   3.1218e-17 
    4357.05   8.9084e-17 
   4358.575   1.2248e-16 
     4360.1   6.3292e-17 
   4361.625   6.2046e-17 
    4363.15   7.4312e-17 
   4364.675    6.384e-17 
     4366.2   6.8256e-17 
   4367.725   3.7687e-17 
    4369.25   1.3753e-17 
   4370.775   3.2644e-17 
     4372.3   2.9348e-17 
   4373.825   3.4929e-17 
    4375.35    4.069e-17 
   4376.875   5.8016e-17 
     4378.4   6.0999e-17 
   4379.925    6.825e-17 
    4381.45   2.4122e-17 
   4382.975   2.6478e-17 
     4384.5   2.3358e-17 
   4386.025   5.6903e-17 
    4387.55   4.1464e-17 
   4389.075   2.4657e-17 
     4390.6   4.8722e-17 
   4392.125   4.2461e-17 
    4393.65   3.5671e-17 
   4395.175   5.3202e-17 
     4396.7   7.4419e-17 
   4398.225    6.762e-17 
    4399.75   5.9376e-17 
   4401.275   3.5816e-17 
     4402.8   3.1601e-17 
   4404.325   2.4027e-17 
    4405.85   2.7306e-17 
   4407.375   6.5881e-17 
     4408.9   4.9248e-17 
   4410.425    5.287e-17 
    4411.95   4.9317e-17 
   4413.475   4.7903e-17 
     4415.0   6.3424e-17 
   4416.525   3.0322e-17 
    4418.05   1.5647e-17 
   4419.575   4.8341e-17 
     4421.1    6.881e-17 
   4422.625   3.3391e-17 
    4424.15   2.8012e-17 
   4425.675    5.325e-17 
     4427.2   5.0159e-17 
   4428.725   5.0743e-17 
    4430.25   4.3979e-17 
   4431.775   3.9149e-17 
     4433.3   5.2598e-17 
   4434.825   4.7428e-17 
    4436.35   2.4816e-17 
   4437.875    3.659e-17 
     4439.4   2.7704e-17 
   4440.925   9.3666e-17 
    4442.45   6.3456e-17 
   4443.975   1.6088e-17 
     4445.5   6.5634e-17 
   4447.025   6.1641e-17 
    4448.55   3.5772e-17 
   4450.075   5.3529e-17 
     4451.6   3.1735e-17 
   4453.125   3.5518e-17 
    4454.65   5.0042e-17 
   4456.175   5.8248e-17 
     4457.7   5.0426e-17 
   4459.225   2.1672e-17 
    4460.75   6.1937e-17 
   4462.275   7.1588e-17 
     4463.8   4.8306e-17 
   4465.325   7.1862e-17 
    4466.85   6.5933e-17 
   4468.375   4.8561e-17 
     4469.9    5.912e-17 
   4471.425    5.193e-17 
    4472.95   3.3851e-17 
   4474.475   7.0272e-17 
     4476.0   5.5873e-17 
   4477.525   1.1984e-17 
    4479.05   4.1882e-17 
   4480.575   3.5763e-17 
     4482.1   2.7454e-17 
   4483.625   6.5609e-17 
    4485.15   5.1368e-17 
   4486.675   3.4174e-17 
     4488.2   6.3921e-17 
   4489.725    6.041e-17 
    4491.25   4.6629e-17 
   4492.775   6.3577e-17 
     4494.3   2.5774e-17 
   4495.825   5.3819e-17 
    4497.35   3.0978e-17 
   4498.875   5.3234e-17 
     4500.4   4.2256e-17 
   4501.925   4.3448e-17 
    4503.45   8.3726e-17 
   4504.975   6.8419e-17 
     4506.5   1.6973e-17 
   4508.025   6.8502e-17 
    4509.55   6.2662e-17 
   4511.075   5.7145e-17 
     4512.6   7.4327e-17 
   4514.125   6.2162e-17 
    4515.65   5.4138e-17 
   4517.175   4.3334e-17 
     4518.7   6.8375e-17 
   4520.225   6.4685e-17 
    4521.75   2.4613e-17 
   4523.275   5.4829e-17 
     4524.8    6.161e-17 
   4526.325   2.6713e-17 
    4527.85   4.2387e-17 
   4529.375   4.7452e-17 
     4530.9   2.5211e-17 
   4532.425   1.4269e-17 
    4533.95   4.1321e-17 
   4535.475   9.1927e-17 
     4537.0   6.6204e-17 
   4538.525   6.9591e-17 
    4540.05   9.7752e-17 
   4541.575   5.7612e-17 
     4543.1   1.7235e-17 
   4544.625   2.8828e-17 
    4546.15   1.8236e-17 
   4547.675   2.9933e-17 
     4549.2   5.1615e-17 
   4550.725   6.6579e-17 
    4552.25   7.8276e-17 
   4553.775   4.5707e-17 
     4555.3   4.4963e-17 
   4556.825   5.3429e-17 
    4558.35   5.2084e-17 
   4559.875   1.1524e-17 
     4561.4   2.1637e-17 
   4562.925   8.1891e-17 
    4564.45   6.6935e-17 
   4565.975   3.5949e-17 
     4567.5   1.6138e-17 
   4569.025   1.7724e-17 
    4570.55   4.9447e-17 
   4572.075   3.5665e-17 
     4573.6    5.653e-17 
   4575.125   5.3557e-17 
    4576.65   4.1301e-17 
   4578.175    4.772e-17 
     4579.7   3.6193e-17 
   4581.225   5.2177e-17 
    4582.75   3.4951e-17 
   4584.275   4.1222e-17 
     4585.8   5.0383e-17 
   4587.325   5.4851e-17 
    4588.85   5.4718e-17 
   4590.375   4.5224e-17 
     4591.9   3.2471e-17 
   4593.425   6.7447e-17 
    4594.95   4.7731e-17 
   4596.475   6.9518e-17 
     4598.0   7.2469e-17 
   4599.525    3.404e-17 
    4601.05   1.0278e-17 
   4602.575   3.7222e-17 
     4604.1   4.4162e-17 
   4605.625   4.8287e-17 
    4607.15   3.9981e-17 
   4608.675   2.7004e-17 
     4610.2   2.1888e-17 
   4611.725   6.0776e-17 
    4613.25   3.4851e-17 
   4614.775   2.7146e-17 
     4616.3   5.8536e-17 
   4617.825   4.0709e-17 
    4619.35   4.1235e-17 
   4620.875   1.8121e-17 
     4622.4   4.3654e-17 
   4623.925   8.5546e-17 
    4625.45   6.5588e-17 
   4626.975   8.4488e-17 
     4628.5   6.2025e-17 
   4630.025   4.5991e-17 
    4631.55   1.9848e-17 
   4633.075    3.654e-17 
     4634.6   3.4064e-17 
   4636.125   5.6711e-17 
    4637.65   4.7726e-17 
   4639.175   5.9683e-17 
     4640.7   8.2643e-17 
   4642.225   5.4121e-17 
    4643.75   6.6375e-17 
   4645.275   6.6697e-17 
     4646.8   3.2672e-17 
   4648.325   3.3664e-17 
    4649.85   3.6411e-17 
   4651.375   4.3318e-17 
     4652.9   6.9231e-17 
   4654.425    3.169e-17 
    4655.95   2.3136e-17 
   4657.475   5.1386e-17 
     4659.0   2.4503e-17 
   4660.525   2.2196e-17 
    4662.05   3.5828e-17 
   4663.575    1.793e-17 
     4665.1   3.3479e-17 
   4666.625   1.6128e-17 
    4668.15   4.9298e-17 
   4669.675   8.6958e-17 
     4671.2   6.0945e-17 
   4672.725   6.7829e-18 
    4674.25   3.5753e-17 
   4675.775    5.119e-17 
     4677.3   6.0994e-17 
   4678.825   5.1196e-17 
    4680.35    5.728e-17 
   4681.875   4.1403e-17 
     4683.4   4.1757e-17 
   4684.925   6.0422e-17 
    4686.45   7.7335e-17 
   4687.975   2.4585e-17 
     4689.5   2.3575e-17 
   4691.025   2.6558e-17 
    4692.55   2.9324e-17 
   4694.075   7.4818e-17 
     4695.6     7.17e-17 
   4697.125   5.3365e-17 
    4698.65   3.4569e-17 
   4700.175   4.4428e-17 
     4701.7   2.1953e-17 
   4703.225   3.5728e-17 
    4704.75   4.4478e-17 
   4706.275   5.2055e-17 
     4707.8   4.8932e-17 
   4709.325   5.6031e-17 
    4710.85   4.8433e-17 
   4712.375   6.8459e-17 
     4713.9   2.1235e-17 
   4715.425     2.06e-17 
    4716.95   6.2886e-17 
   4718.475   4.1705e-17 
     4720.0   5.0125e-17 
   4721.525   2.9379e-17 
    4723.05   3.6959e-17 
   4724.575   4.4613e-17 
     4726.1   2.7521e-17 
   4727.625   3.8333e-17 
    4729.15   2.4521e-17 
   4730.675   4.5819e-17 
     4732.2   6.2253e-17 
   4733.725    5.297e-17 
    4735.25   1.0451e-18 
   4736.775  -5.1537e-18 
     4738.3   6.1292e-17 
   4739.825   6.4958e-17 
    4741.35   4.7146e-17 
   4742.875   7.2476e-17 
     4744.4    5.162e-17 
   4745.925   2.7203e-17 
    4747.45   5.9604e-17 
   4748.975    5.741e-17 
     4750.5   4.2935e-17 
   4752.025   5.9299e-17 
    4753.55   5.9881e-17 
   4755.075   3.5735e-17 
     4756.6   3.4104e-17 
   4758.125   8.2894e-17 
    4759.65   5.7061e-17 
   4761.175   5.8254e-17 
     4762.7   6.3878e-17 
   4764.225   4.4683e-17 
    4765.75   7.4126e-17 
   4767.275   7.3396e-17 
     4768.8   4.7929e-17 
   4770.325   3.3354e-17 
    4771.85   5.1798e-17 
   4773.375   8.1929e-17 
     4774.9   8.4691e-17 
   4776.425   7.1116e-17 
    4777.95   7.4827e-17 
   4779.475   6.3352e-17 
     4781.0   4.8786e-17 
   4782.525   5.4724e-17 
    4784.05   1.2571e-17 
   4785.575    5.089e-17 
     4787.1   7.7792e-17 
   4788.625    4.024e-17 
    4790.15   2.6016e-17 
   4791.675   3.3163e-17 
     4793.2   2.9498e-17 
   4794.725   5.6284e-17 
    4796.25   7.6403e-17 
   4797.775   5.3718e-17 
     4799.3   5.5434e-17 
   4800.825   8.8767e-17 
    4802.35   9.1943e-17 
   4803.875   4.5223e-17 
     4805.4   4.6323e-17 
   4806.925   8.0158e-17 
    4808.45   7.4193e-17 
   4809.975    3.115e-17 
     4811.5   4.0433e-17 
   4813.025   4.8054e-17 
    4814.55   5.7302e-17 
   4816.075   7.0686e-17 
     4817.6   5.9691e-17 
   4819.125   6.2395e-17 
    4820.65   4.6364e-17 
   4822.175   5.5854e-17 
     4823.7   6.1776e-17 
   4825.225   7.3157e-17 
    4826.75   7.2509e-17 
   4828.275   6.4241e-17 
     4829.8   9.1243e-17 
   4831.325    1.076e-16 
    4832.85   7.4701e-17 
   4834.375   4.9898e-17 
     4835.9   2.1204e-18 
   4837.425   5.1804e-17 
    4838.95   4.1126e-17 
   4840.475   5.8455e-17 
     4842.0    8.804e-17 
   4843.525   6.4859e-17 
    4845.05   4.5199e-17 
   4846.575   4.8695e-17 
     4848.1   8.1408e-17 
   4849.625   5.9367e-17 
    4851.15   6.0345e-17 
   4852.675   2.1201e-17 
     4854.2   3.3613e-17 
   4855.725   5.3027e-17 
    4857.25    6.419e-17 
   4858.775   4.9461e-17 
     4860.3   3.1116e-17 
   4861.825   3.5171e-17 
    4863.35   4.1431e-17 
   4864.875   7.7871e-17 
     4866.4   9.5103e-17 
   4867.925   7.2116e-17 
    4869.45   6.1855e-17 
   4870.975   7.0838e-17 
     4872.5   5.6637e-17 
   4874.025   1.1545e-16 
    4875.55   7.9928e-17 
   4877.075   5.4902e-17 
     4878.6   7.7042e-17 
   4880.125   7.6398e-17 
    4881.65   6.4917e-17 
   4883.175   4.8838e-17 
     4884.7   6.7365e-17 
   4886.225   6.2309e-17 
    4887.75    5.031e-17 
   4889.275   7.9074e-17 
     4890.8   5.5414e-17 
   4892.325   6.0796e-17 
    4893.85   4.3643e-17 
   4895.375   6.4028e-17 
     4896.9   4.6354e-17 
   4898.425   6.1212e-17 
    4899.95   5.6257e-17 
   4901.475   1.9186e-17 
     4903.0   4.3588e-17 
   4904.525   6.6125e-17 
    4906.05   6.3576e-17 
   4907.575   1.0346e-16 
     4909.1   9.6753e-17 
   4910.625   3.8666e-17 
    4912.15   7.0337e-17 
   4913.675   5.1881e-17 
     4915.2   4.7723e-17 
   4916.725   8.8937e-17 
    4918.25   6.2114e-17 
   4919.775   3.6483e-17 
     4921.3   7.6692e-17 
   4922.825   6.0583e-17 
    4924.35   3.5103e-17 
   4925.875   6.4524e-17 
     4927.4   5.0035e-17 
   4928.925   5.7669e-17 
    4930.45   7.5565e-17 
   4931.975   6.5794e-17 
     4933.5   6.6234e-17 
   4935.025   6.7498e-17 
    4936.55   7.5885e-17 
   4938.075   3.7384e-17 
     4939.6   5.4785e-17 
   4941.125   5.7702e-17 
    4942.65    5.412e-17 
   4944.175   7.1538e-17 
     4945.7   6.5119e-17 
   4947.225   6.8852e-17 
    4948.75   7.8949e-17 
   4950.275   5.4035e-17 
     4951.8     5.83e-17 
   4953.325   6.4555e-17 
    4954.85    5.355e-17 
   4956.375   5.0807e-17 
     4957.9   2.6364e-17 
   4959.425   6.5742e-17 
    4960.95   8.3391e-17 
   4962.475   4.9709e-17 
     4964.0   2.0211e-17 
   4965.525   9.4156e-17 
    4967.05   4.2236e-17 
   4968.575   4.7554e-17 
     4970.1   7.6575e-17 
   4971.625   6.2317e-17 
    4973.15   7.3335e-17 
   4974.675   7.0137e-17 
     4976.2   4.3096e-17 
   4977.725   1.0349e-16 
    4979.25   8.0599e-17 
   4980.775   6.3452e-17 
     4982.3   6.2739e-17 
   4983.825   7.6486e-17 
    4985.35   6.5897e-17 
   4986.875   8.1189e-17 
     4988.4   7.5504e-17 
   4989.925   1.1529e-17 
    4991.45   2.9514e-17 
   4992.975   2.2436e-17 
     4994.5   3.0879e-17 
   4996.025   7.7092e-17 
    4997.55   7.3309e-17 
   4999.075   4.6708e-17 
     5000.6   7.0331e-17 
   5002.125   7.7037e-17 
    5003.65   5.1486e-17 
   5005.175   4.4758e-17 
     5006.7   2.9348e-17 
   5008.225    6.321e-17 
    5009.75   8.7048e-17 
   5011.275   6.2368e-17 
     5012.8   5.7567e-17 
   5014.325   5.4093e-17 
    5015.85   5.6832e-17 
   5017.375   6.2832e-17 
     5018.9   6.4634e-17 
   5020.425   5.2206e-17 
    5021.95   5.7783e-17 
   5023.475   7.5164e-17 
     5025.0   6.2464e-17 
   5026.525   4.5658e-17 
    5028.05   6.3933e-17 
   5029.575   3.0018e-17 
     5031.1   5.1094e-17 
   5032.625   4.7703e-17 
    5034.15   5.5323e-17 
   5035.675   5.7446e-17 
     5037.2   4.9564e-17 
   5038.725   5.9172e-17 
    5040.25   7.4046e-17 
   5041.775   4.9666e-17 
     5043.3   6.5158e-17 
   5044.825   7.8645e-17 
    5046.35   6.2132e-17 
   5047.875   7.6858e-17 
     5049.4    5.879e-17 
   5050.925   5.4084e-17 
    5052.45   7.4994e-17 
   5053.975   6.7174e-17 
     5055.5   3.9657e-17 
   5057.025    2.956e-17 
    5058.55   3.8477e-17 
   5060.075   4.1486e-17 
     5061.6   8.2444e-17 
   5063.125   5.1968e-17 
    5064.65    5.901e-17 
   5066.175   4.2591e-17 
     5067.7   2.6796e-17 
   5069.225   4.2926e-17 
    5070.75   7.7026e-17 
   5072.275   5.5262e-17 
     5073.8   4.5899e-17 
   5075.325   6.5263e-17 
    5076.85    6.857e-17 
   5078.375   6.6491e-17 
     5079.9    5.586e-17 
   5081.425   4.7046e-17 
    5082.95   7.6212e-17 
   5084.475   5.4194e-17 
     5086.0   5.1916e-17 
   5087.525   5.8817e-17 
    5089.05   4.4445e-17 
   5090.575   4.2261e-17 
     5092.1   6.0028e-17 
   5093.625   6.7396e-17 
    5095.15   7.1562e-17 
   5096.675   5.9402e-17 
     5098.2   3.8471e-17 
   5099.725   2.4242e-17 
    5101.25   9.1203e-17 
   5102.775   7.5853e-17 
     5104.3   4.8202e-17 
   5105.825    5.606e-17 
    5107.35   2.9841e-17 
   5108.875   5.8502e-17 
     5110.4   6.5877e-17 
   5111.925   5.0912e-17 
    5113.45   3.0553e-17 
   5114.975   4.6706e-17 
     5116.5   2.9551e-17 
   5118.025   8.9273e-18 
    5119.55    1.768e-17 
   5121.075    3.724e-17 
     5122.6   2.4724e-17 
   5124.125   3.2562e-17 
    5125.65    6.715e-17 
   5127.175   5.5814e-17 
     5128.7   5.8592e-17 
   5130.225   5.7227e-17 
    5131.75   4.2872e-17 
   5133.275   4.1548e-17 
     5134.8   6.3575e-17 
   5136.325   7.5374e-17 
    5137.85    5.917e-17 
   5139.375   6.0657e-17 
     5140.9   7.1231e-17 
   5142.425   6.1825e-17 
    5143.95   2.3335e-17 
   5145.475   4.8335e-17 
     5147.0   6.7995e-17 
   5148.525   4.1053e-17 
    5150.05   5.0145e-17 
   5151.575   5.5593e-17 
     5153.1   5.5698e-17 
   5154.625   6.3737e-17 
    5156.15   8.0552e-17 
   5157.675    5.575e-17 
     5159.2   4.2332e-17 
   5160.725   3.5938e-17 
    5162.25   5.0023e-17 
   5163.775   3.9939e-17 
     5165.3   6.5742e-17 
   5166.825   3.7711e-17 
    5168.35   2.5753e-17 
   5169.875   1.5344e-17 
     5171.4    2.915e-17 
   5172.925   3.7974e-17 
    5174.45   3.9628e-17 
   5175.975   4.8176e-17 
     5177.5   7.2164e-17 
   5179.025   7.0566e-17 
    5180.55   2.9078e-17 
   5182.075   3.0166e-17 
     5183.6   4.1599e-17 
   5185.125   7.5391e-17 
    5186.65   8.8388e-17 
   5188.175   5.0204e-17 
     5189.7   5.2792e-17 
   5191.225   5.6997e-17 
    5192.75   5.7042e-17 
   5194.275    7.016e-17 
     5195.8   3.0197e-17 
   5197.325   7.6761e-17 
    5198.85   5.5999e-17 
   5200.375   7.0415e-17 
     5201.9   8.1089e-17 
   5203.425   7.7394e-17 
    5204.95   5.4468e-17 
   5206.475   3.5738e-17 
     5208.0   4.9044e-17 
   5209.525   6.9361e-17 
    5211.05   7.9149e-17 
   5212.575   7.3051e-17 
     5214.1   4.7732e-17 
   5215.625   4.3499e-17 
    5217.15    4.525e-17 
   5218.675    4.481e-17 
     5220.2   5.7277e-17 
   5221.725   3.9403e-17 
    5223.25    1.496e-17 
   5224.775   3.6494e-17 
     5226.3    4.712e-17 
   5227.825   6.6765e-17 
    5229.35   5.4204e-17 
   5230.875   5.5359e-17 
     5232.4   4.9013e-17 
   5233.925   3.6587e-17 
    5235.45   4.5845e-17 
   5236.975   7.3898e-17 
     5238.5   4.3782e-17 
   5240.025   5.4028e-17 
    5241.55   4.8572e-17 
   5243.075   4.7492e-17 
     5244.6    8.987e-17 
   5246.125   9.9469e-17 
    5247.65   9.1405e-17 
   5249.175   7.1731e-17 
     5250.7   6.6108e-17 
   5252.225   5.9566e-17 
    5253.75   4.1607e-17 
   5255.275   4.6287e-17 
     5256.8   4.6999e-17 
   5258.325   4.8821e-17 
    5259.85   5.0361e-17 
   5261.375   6.9578e-17 
     5262.9   5.2815e-17 
   5264.425   6.1066e-17 
    5265.95    6.655e-17 
   5267.475   6.9347e-17 
     5269.0   7.6217e-17 
   5270.525   6.2662e-17 
    5272.05   5.9851e-17 
   5273.575   5.1854e-17 
     5275.1   5.6706e-17 
   5276.625   6.2211e-17 
    5278.15   6.4045e-17 
   5279.675   3.2582e-17 
     5281.2   1.4156e-17 
   5282.725   3.7964e-17 
    5284.25   4.9951e-17 
   5285.775   5.4003e-17 
     5287.3   4.9431e-17 
   5288.825   4.3664e-17 
    5290.35   6.8718e-17 
   5291.875    5.036e-17 
     5293.4   7.8317e-18 
   5294.925   4.5514e-17 
    5296.45   4.9587e-17 
   5297.975   5.7769e-17 
     5299.5   5.6488e-17 
   5301.025   5.7665e-17 
    5302.55   4.0076e-17 
   5304.075   2.8222e-17 
     5305.6   6.2068e-17 
   5307.125   5.4801e-17 
    5308.65   6.1908e-17 
   5310.175   6.0156e-17 
     5311.7   7.5282e-17 
   5313.225   5.0718e-17 
    5314.75   4.6126e-17 
   5316.275   3.4929e-17 
     5317.8    5.119e-17 
   5319.325   4.9318e-17 
    5320.85   5.2356e-17 
   5322.375   6.6402e-17 
     5323.9   6.2466e-17 
   5325.425    6.574e-17 
    5326.95   5.5291e-17 
   5328.475   5.3101e-17 
     5330.0   7.1872e-17 
   5331.525   5.8469e-17 
    5333.05   4.8123e-17 
   5334.575   5.3449e-17 
     5336.1   4.1429e-17 
   5337.625   1.8647e-17 
    5339.15   3.5203e-17 
   5340.675   6.7375e-17 
     5342.2   3.2901e-17 
   5343.725   3.9107e-17 
    5345.25   6.6972e-17 
   5346.775   4.1952e-17 
     5348.3   5.0169e-17 
   5349.825   9.0139e-17 
    5351.35   7.9015e-17 
   5352.875   2.8103e-17 
     5354.4    2.623e-17 
   5355.925   4.0549e-17 
    5357.45   5.2551e-17 
   5358.975   6.4389e-17 
     5360.5   5.1661e-17 
   5362.025   4.5306e-17 
    5363.55   5.7313e-17 
   5365.075   4.6065e-17 
     5366.6   5.9092e-17 
   5368.125   4.7923e-17 
    5369.65   4.2099e-17 
   5371.175   5.4104e-17 
     5372.7    4.813e-17 
   5374.225   5.4878e-17 
    5375.75   4.6181e-17 
   5377.275   3.2942e-17 
     5378.8   4.7043e-17 
   5380.325   7.5719e-17 
    5381.85   6.6705e-17 
   5383.375   4.1537e-17 
     5384.9    4.758e-17 
   5386.425   6.7698e-17 
    5387.95   6.2112e-17 
   5389.475   5.2021e-17 
     5391.0   5.2344e-17 
   5392.525   8.5502e-17 
    5394.05   4.5604e-17 
   5395.575   4.4974e-17 
     5397.1   5.0038e-17 
   5398.625   5.6664e-17 
    5400.15   8.6933e-17 
   5401.675   1.1218e-16 
     5403.2   1.5139e-16 
   5404.725    1.464e-16 
    5406.25   1.3781e-16 
   5407.775   7.8857e-17 
     5409.3   4.6203e-17 
   5410.825     1.72e-17 
    5412.35   3.7777e-17 
   5413.875   5.8529e-17 
     5415.4   7.1879e-17 
   5416.925   5.2655e-17 
    5418.45   3.7857e-17 
   5419.975   4.1724e-17 
     5421.5     3.16e-17 
   5423.025   5.7661e-17 
    5424.55   6.9309e-17 
   5426.075   4.8163e-17 
     5427.6   9.0907e-18 
   5429.125   3.5792e-17 
    5430.65   6.8745e-17 
   5432.175   8.2402e-17 
     5433.7   9.6387e-17 
   5435.225   5.4063e-17 
    5436.75   2.7538e-17 
   5438.275    6.573e-17 
     5439.8   9.6636e-17 
   5441.325   4.1241e-17 
    5442.85   4.7185e-17 
   5444.375   4.9796e-17 
     5445.9   2.0185e-17 
   5447.425   4.5468e-17 
    5448.95   4.8203e-17 
   5450.475   2.1835e-17 
     5452.0   5.3037e-17 
   5453.525   4.8353e-17 
    5455.05   6.2583e-17 
   5456.575   8.5085e-17 
     5458.1     6.98e-17 
   5459.625   9.6034e-17 
    5461.15   9.1706e-17 
   5462.675   4.5287e-17 
     5464.2   7.0596e-17 
   5465.725   6.4886e-17 
    5467.25   6.8589e-17 
   5468.775    4.141e-17 
     5470.3   5.1117e-17 
   5471.825   2.7678e-17 
    5473.35   7.1883e-17 
   5474.875   7.5163e-17 
     5476.4   6.7868e-17 
   5477.925   8.2908e-17 
    5479.45   7.2884e-17 
   5480.975   3.5674e-17 
     5482.5   6.9816e-17 
   5484.025   4.8238e-17 
    5485.55   1.6189e-17 
   5487.075   6.2534e-17 
     5488.6   5.6887e-17 
   5490.125   4.6503e-17 
    5491.65   7.1077e-17 
   5493.175   5.7419e-17 
     5494.7   6.0461e-17 
   5496.225     5.43e-17 
    5497.75   9.4197e-17 
   5499.275   7.1065e-17 
     5500.8   5.6123e-17 
   5502.325   3.7148e-17 
    5503.85   4.0379e-17 
   5505.375    5.656e-17 
     5506.9   6.5927e-17 
   5508.425   5.7337e-17 
    5509.95   4.3915e-17 
   5511.475   5.4042e-17 
     5513.0    5.529e-17 
   5514.525   7.3785e-17 
    5516.05   5.0835e-17 
   5517.575   1.7698e-17 
     5519.1   4.9452e-17 
   5520.625   7.9081e-17 
    5522.15   6.0271e-17 
   5523.675   3.9862e-17 
     5525.2   5.1043e-17 
   5526.725   6.3019e-17 
    5528.25   7.3678e-17 
   5529.775   5.2644e-17 
     5531.3   5.6129e-17 
   5532.825   7.8018e-17 
    5534.35   7.3598e-17 
   5535.875   4.9917e-17 
     5537.4   4.5771e-17 
   5538.925   4.2115e-17 
    5540.45   3.5654e-17 
   5541.975   5.7106e-17 
     5543.5   6.0102e-17 
   5545.025   6.4682e-17 
    5546.55   6.3824e-17 
   5548.075   6.8267e-17 
     5549.6   3.7995e-17 
   5551.125   3.2405e-17 
    5552.65   6.2681e-17 
   5554.175   7.5982e-17 
     5555.7   6.0976e-17 
   5557.225   4.5475e-17 
    5558.75   5.7109e-17 
   5560.275     5.83e-17 
     5561.8   4.6718e-17 
   5563.325   5.2362e-17 
    5564.85   3.3833e-17 
   5566.375   2.4053e-17 
     5567.9   4.6509e-17 
   5569.425   4.2667e-17 
    5570.95   3.9299e-17 
   5572.475   5.7205e-17 
     5574.0   7.1404e-17 
   5575.525   8.9694e-17 
    5577.05   1.2316e-16 
   5578.575   1.3336e-16 
     5580.1   7.7564e-17 
   5581.625   5.6362e-17 
    5583.15   7.3499e-17 
   5584.675   6.9926e-17 
     5586.2   7.7363e-17 
   5587.725   7.4106e-17 
    5589.25   5.1903e-17 
   5590.775   3.8452e-17 
     5592.3   4.6715e-17 
   5593.825   6.8734e-17 
    5595.35   6.9735e-17 
   5596.875   4.9826e-17 
     5598.4   6.0286e-17 
   5599.925   7.0539e-17 
    5601.45   4.8336e-17 
   5602.975   4.9583e-17 
     5604.5    7.168e-17 
   5606.025   7.1703e-17 
    5607.55   4.7508e-17 
   5609.075   5.4557e-17 
     5610.6   5.5247e-17 
   5612.125   5.9759e-17 
    5613.65   7.8056e-17 
   5615.175   8.0948e-17 
     5616.7   5.5187e-17 
   5618.225   2.2886e-17 
    5619.75   3.4814e-17 
   5621.275   6.5688e-17 
     5622.8    6.166e-17 
   5624.325   5.5205e-17 
    5625.85    5.787e-17 
   5627.375   6.6954e-17 
     5628.9   5.7402e-17 
   5630.425   4.6303e-17 
    5631.95   5.4364e-17 
   5633.475   5.7789e-17 
     5635.0   5.6233e-17 
   5636.525   7.2375e-17 
    5638.05   6.9307e-17 
   5639.575    4.871e-17 
     5641.1   7.0882e-17 
   5642.625   7.9086e-17 
    5644.15   7.0856e-17 
   5645.675   5.5845e-17 
     5647.2   6.2365e-17 
   5648.725   5.9266e-17 
    5650.25   3.7365e-17 
   5651.775   4.6404e-17 
     5653.3   6.0183e-17 
   5654.825   5.2498e-17 
    5656.35    4.347e-17 
   5657.875   5.2794e-17 
     5659.4    6.761e-17 
   5660.925   6.0121e-17 
    5662.45   6.0846e-17 
   5663.975   5.9264e-17 
     5665.5   6.4272e-17 
   5667.025   7.2882e-17 
    5668.55    7.105e-17 
   5670.075   8.5279e-17 
     5671.6   6.2161e-17 
   5673.125   4.7255e-17 
    5674.65   6.0185e-17 
   5676.175   5.5306e-17 
     5677.7    6.292e-17 
   5679.225   5.5244e-17 
    5680.75   4.0834e-17 
   5682.275   5.6071e-17 
     5683.8   7.2821e-17 
   5685.325   7.5487e-17 
    5686.85   7.3609e-17 
   5688.375   7.6436e-17 
     5689.9   6.9089e-17 
   5691.425   7.1882e-17 
    5692.95   7.1139e-17 
   5694.475   5.3003e-17 
     5696.0   6.3824e-17 
   5697.525   6.1438e-17 
    5699.05   4.5521e-17 
   5700.575    6.178e-17 
     5702.1   8.0282e-17 
   5703.625   7.1098e-17 
    5705.15   6.4436e-17 
   5706.675   5.2673e-17 
     5708.2   4.2237e-17 
   5709.725   5.6195e-17 
    5711.25   7.0217e-17 
   5712.775   7.3395e-17 
     5714.3   6.4254e-17 
   5715.825   5.7696e-17 
    5717.35   5.3224e-17 
   5718.875    6.062e-17 
     5720.4   6.6433e-17 
   5721.925    7.519e-17 
    5723.45   7.6855e-17 
   5724.975   6.3127e-17 
     5726.5   6.6102e-17 
   5728.025   5.8557e-17 
    5729.55   4.8106e-17 
   5731.075   5.4253e-17 
     5732.6   5.6351e-17 
   5734.125   7.5936e-17 
    5735.65   7.8914e-17 
   5737.175   5.6027e-17 
     5738.7   4.8697e-17 
   5740.225   5.5068e-17 
    5741.75   6.4642e-17 
   5743.275   5.7884e-17 
     5744.8    6.152e-17 
   5746.325   7.8267e-17 
    5747.85   6.4192e-17 
   5749.375   5.5501e-17 
     5750.9   6.5992e-17 
   5752.425   6.4425e-17 
    5753.95   4.9388e-17 
   5755.475   4.2424e-17 
     5757.0   5.8071e-17 
   5758.525   7.0207e-17 
    5760.05   7.7879e-17 
   5761.575   7.0025e-17 
     5763.1   5.7549e-17 
   5764.625   6.3992e-17 
    5766.15   7.1314e-17 
   5767.675   6.8363e-17 
     5769.2   5.2137e-17 
   5770.725   4.4654e-17 
    5772.25   5.7965e-17 
   5773.775   6.6424e-17 
     5775.3    5.958e-17 
   5776.825   6.7035e-17 
    5778.35   7.0449e-17 
   5779.875   6.6244e-17 
     5781.4   8.0294e-17 
   5782.925   8.0678e-17 
    5784.45   6.9885e-17 
   5785.975   7.2781e-17 
     5787.5   6.6695e-17 
   5789.025   5.5932e-17 
    5790.55   6.0374e-17 
   5792.075   7.0977e-17 
     5793.6     6.38e-17 
   5795.125   5.4668e-17 
    5796.65   5.7408e-17 
   5798.175    5.448e-17 
     5799.7   5.2839e-17 
   5801.225   5.7187e-17 
    5802.75   6.0226e-17 
   5804.275   6.2537e-17 
     5805.8   6.6561e-17 
   5807.325   7.0315e-17 
    5808.85   6.4215e-17 
   5810.375   5.2791e-17 
     5811.9   5.7825e-17 
   5813.425   7.0217e-17 
    5814.95   7.4269e-17 
   5816.475   6.8632e-17 
     5818.0   6.0742e-17 
   5819.525   6.8303e-17 
    5821.05   6.4644e-17 
   5822.575   6.1829e-17 
     5824.1   6.6809e-17 
   5825.625   5.1852e-17 
    5827.15   5.1636e-17 
   5828.675   5.7657e-17 
     5830.2   5.0344e-17 
   5831.725    5.126e-17 
    5833.25   5.2008e-17 
   5834.775    5.365e-17 
     5836.3   5.4225e-17 
   5837.825   5.3879e-17 
    5839.35   6.3273e-17 
   5840.875   7.1131e-17 
     5842.4   6.8029e-17 
   5843.925   5.5103e-17 
    5845.45   6.0557e-17 
   5846.975   7.8638e-17 
     5848.5   8.5562e-17 
   5850.025   8.1881e-17 
    5851.55     6.19e-17 
   5853.075   4.7133e-17 
     5854.6   5.0049e-17 
   5856.125   5.4495e-17 
    5857.65   5.0628e-17 
   5859.175   4.1776e-17 
     5860.7   5.3558e-17 
   5862.225   7.1908e-17 
    5863.75   5.8775e-17 
   5865.275   5.2443e-17 
     5866.8    6.189e-17 
   5868.325   5.8392e-17 
    5869.85   6.1058e-17 
   5871.375   7.3148e-17 
     5872.9   6.7349e-17 
   5874.425   5.5972e-17 
    5875.95   6.1874e-17 
   5877.475   5.4915e-17 
     5879.0   5.3804e-17 
   5880.525   5.9089e-17 
    5882.05   4.2664e-17 
   5883.575   3.7687e-17 
     5885.1   7.2971e-17 
   5886.625   1.1009e-16 
    5888.15   1.0451e-16 
   5889.675   9.1974e-17 
     5891.2   6.1155e-17 
   5892.725   3.1529e-17 
    5894.25   8.2383e-17 
   5895.775   1.3321e-16 
     5897.3   7.5021e-17 
   5898.825   2.6244e-17 
    5900.35   5.8164e-17 
   5901.875   6.2099e-17 
     5903.4   4.9733e-17 
   5904.925   5.9923e-17 
    5906.45     6.13e-17 
   5907.975   4.3864e-17 
     5909.5   3.6988e-17 
   5911.025   6.3414e-17 
    5912.55   6.7772e-17 
   5914.075   4.9008e-17 
     5915.6   5.7036e-17 
   5917.125   5.7558e-17 
    5918.65   3.6283e-17 
   5920.175   5.2345e-17 
     5921.7   8.2999e-17 
   5923.225   5.8508e-17 
    5924.75   3.1426e-17 
   5926.275   6.0249e-17 
     5927.8   8.1805e-17 
   5929.325   6.6432e-17 
    5930.85   6.5303e-17 
   5932.375    6.852e-17 
     5933.9   6.1467e-17 
   5935.425   6.0376e-17 
    5936.95   6.5811e-17 
   5938.475   6.4958e-17 
     5940.0   5.8293e-17 
   5941.525   6.2116e-17 
    5943.05   6.7187e-17 
   5944.575   7.6048e-17 
     5946.1   8.1256e-17 
   5947.625    7.232e-17 
    5949.15   6.0499e-17 
   5950.675   5.1026e-17 
     5952.2   5.9309e-17 
   5953.725   7.2967e-17 
    5955.25   6.5705e-17 
   5956.775   5.8926e-17 
     5958.3    5.715e-17 
   5959.825   5.9988e-17 
    5961.35   6.6345e-17 
   5962.875   5.6583e-17 
     5964.4   4.1921e-17 
   5965.925   4.3319e-17 
    5967.45   6.5894e-17 
   5968.975   7.7203e-17 
     5970.5   6.9548e-17 
   5972.025   7.7336e-17 
    5973.55   7.4214e-17 
   5975.075   5.7011e-17 
     5976.6   5.4452e-17 
   5978.125   5.3853e-17 
    5979.65   5.6049e-17 
   5981.175   5.6461e-17 
     5982.7    6.408e-17 
   5984.225   7.3061e-17 
    5985.75   6.6393e-17 
   5987.275   5.6878e-17 
     5988.8   4.6692e-17 
   5990.325   4.8611e-17 
    5991.85    4.705e-17 
   5993.375    3.826e-17 
     5994.9   4.6836e-17 
   5996.425   6.1239e-17 
    5997.95   4.8573e-17 
   5999.475   4.4646e-17 
     6001.0   6.1631e-17 
   6002.525    4.939e-17 
    6004.05   3.6523e-17 
   6005.575   4.3959e-17 
     6007.1    5.904e-17 
   6008.625   6.6199e-17 
    6010.15   6.3488e-17 
   6011.675    6.495e-17 
     6013.2   6.1255e-17 
   6014.725   4.8514e-17 
    6016.25    4.615e-17 
   6017.775   4.7351e-17 
     6019.3   4.5108e-17 
   6020.825   5.0967e-17 
    6022.35   5.7585e-17 
   6023.875   5.3007e-17 
     6025.4   5.2805e-17 
   6026.925   4.1564e-17 
    6028.45   3.3222e-17 
   6029.975   4.8202e-17 
     6031.5   5.4227e-17 
   6033.025   5.1506e-17 
    6034.55   5.4778e-17 
   6036.075    6.214e-17 
     6037.6   5.5493e-17 
   6039.125   3.9644e-17 
    6040.65   3.5998e-17 
   6042.175   4.8465e-17 
     6043.7   5.8627e-17 
   6045.225   6.6393e-17 
    6046.75   6.2817e-17 
   6048.275   5.3458e-17 
     6049.8   5.2345e-17 
   6051.325   5.0235e-17 
    6052.85   4.5656e-17 
   6054.375   3.5009e-17 
     6055.9   3.8975e-17 
   6057.425   4.4525e-17 
    6058.95   3.9354e-17 
   6060.475   4.4226e-17 
     6062.0   4.2256e-17 
   6063.525   4.2403e-17 
    6065.05   5.7084e-17 
   6066.575   5.7061e-17 
     6068.1   5.1506e-17 
   6069.625    5.838e-17 
    6071.15     6.31e-17 
   6072.675    5.582e-17 
     6074.2   4.9768e-17 
   6075.725    5.681e-17 
    6077.25   5.1963e-17 
   6078.775   5.0568e-17 
     6080.3   5.4172e-17 
   6081.825   4.2849e-17 
    6083.35   3.8218e-17 
   6084.875   4.6246e-17 
     6086.4   5.4515e-17 
   6087.925   4.8302e-17 
    6089.45   5.2215e-17 
   6090.975   5.0715e-17 
     6092.5   3.6861e-17 
   6094.025   4.7967e-17 
    6095.55   4.6382e-17 
   6097.075   4.7807e-17 
     6098.6   6.0038e-17 
   6100.125    4.968e-17 
    6101.65   4.8306e-17 
   6103.175   4.7929e-17 
     6104.7   3.3712e-17 
   6106.225   3.7904e-17 
    6107.75   5.2734e-17 
   6109.275   6.2302e-17 
     6110.8   7.3849e-17 
   6112.325    6.495e-17 
    6113.85    5.349e-17 
   6115.375   6.3361e-17 
     6116.9   5.1608e-17 
   6118.425   5.7526e-17 
    6119.95   8.1012e-17 
   6121.475   6.4574e-17 
     6123.0   6.4877e-17 
   6124.525    7.206e-17 
    6126.05   5.3018e-17 
   6127.575   5.1362e-17 
     6129.1   5.2671e-17 
   6130.625   4.6289e-17 
    6132.15   4.9423e-17 
   6133.675   4.7395e-17 
     6135.2   4.7016e-17 
   6136.725   5.2177e-17 
    6138.25   6.0228e-17 
   6139.775   6.3339e-17 
     6141.3   5.3682e-17 
   6142.825   5.2523e-17 
    6144.35   5.5259e-17 
   6145.875   4.1459e-17 
     6147.4   3.8835e-17 
   6148.925   4.5675e-17 
    6150.45    4.835e-17 
   6151.975   5.3913e-17 
     6153.5   5.1839e-17 
   6155.025   5.5446e-17 
    6156.55   6.4755e-17 
   6158.075   6.0906e-17 
     6159.6   5.5596e-17 
   6161.125   4.8436e-17 
    6162.65   4.9205e-17 
   6164.175    5.145e-17 
     6165.7   4.1833e-17 
   6167.225   4.7359e-17 
    6168.75   5.0278e-17 
   6170.275   4.9347e-17 
     6171.8   5.9878e-17 
   6173.325   6.8051e-17 
    6174.85   5.7401e-17 
   6176.375   4.2365e-17 
     6177.9    3.752e-17 
   6179.425   3.2513e-17 
    6180.95    3.585e-17 
   6182.475   4.6177e-17 
     6184.0   5.6126e-17 
   6185.525   4.8497e-17 
    6187.05   3.4163e-17 
   6188.575   4.8131e-17 
     6190.1   5.2283e-17 
   6191.625   4.7239e-17 
    6193.15   6.0382e-17 
   6194.675   5.2707e-17 
     6196.2   3.9582e-17 
   6197.725   4.7341e-17 
    6199.25   4.9137e-17 
   6200.775   5.0004e-17 
     6202.3   6.2386e-17 
   6203.825   5.5129e-17 
    6205.35   4.1697e-17 
   6206.875   4.1776e-17 
     6208.4   4.9205e-17 
   6209.925   5.7001e-17 
    6211.45   5.0352e-17 
   6212.975   4.4017e-17 
     6214.5   4.5952e-17 
   6216.025    4.842e-17 
    6217.55   4.2351e-17 
   6219.075   3.6295e-17 
     6220.6   3.7252e-17 
   6222.125   5.3984e-17 
    6223.65   6.1479e-17 
   6225.175   4.1278e-17 
     6226.7   3.9066e-17 
   6228.225   4.3609e-17 
    6229.75   4.6163e-17 
   6231.275   5.5029e-17 
     6232.8   5.6889e-17 
   6234.325   5.9135e-17 
    6235.85   6.1478e-17 
   6237.375   5.8974e-17 
     6238.9   6.4063e-17 
   6240.425    5.855e-17 
    6241.95   4.0173e-17 
   6243.475   3.9845e-17 
     6245.0   5.1505e-17 
   6246.525   5.4431e-17 
    6248.05   4.2515e-17 
   6249.575   3.8429e-17 
     6251.1    4.231e-17 
   6252.625   4.7019e-17 
    6254.15   5.8435e-17 
   6255.675   6.4046e-17 
     6257.2   5.3414e-17 
   6258.725   4.5699e-17 
    6260.25   5.8565e-17 
   6261.775   6.1185e-17 
     6263.3   4.9163e-17 
   6264.825   4.5902e-17 
    6266.35   5.3382e-17 
   6267.875   5.1727e-17 
     6269.4   4.7063e-17 
   6270.925   5.3451e-17 
    6272.45   5.2486e-17 
   6273.975   3.7023e-17 
     6275.5   2.9573e-17 
   6277.025   4.8294e-17 
    6278.55     4.95e-17 
   6280.075    5.094e-17 
     6281.6   6.7083e-17 
   6283.125   5.7871e-17 
    6284.65   4.6946e-17 
   6286.175    4.742e-17 
     6287.7   5.0943e-17 
   6289.225   5.2842e-17 
    6290.75   5.3727e-17 
   6292.275   4.4672e-17 
     6293.8   2.3561e-17 
   6295.325   2.5199e-17 
    6296.85   6.4637e-17 
   6298.375   1.0122e-16 
     6299.9   1.2391e-16 
   6301.425    1.053e-16 
    6302.95   3.3361e-17 
   6304.475   7.1924e-18 
     6306.0   2.6525e-17 
   6307.525   3.3558e-17 
    6309.05   4.9146e-17 
   6310.575    6.191e-17 
     6312.1   6.0232e-17 
   6313.625   5.5183e-17 
    6315.15   5.4228e-17 
   6316.675   5.8737e-17 
     6318.2   5.4666e-17 
   6319.725   6.3183e-17 
    6321.25   6.6934e-17 
   6322.775   5.3443e-17 
     6324.3   5.9586e-17 
   6325.825     7.08e-17 
    6327.35   6.9071e-17 
   6328.875   6.3787e-17 
     6330.4   5.3664e-17 
   6331.925   4.2958e-17 
    6333.45   5.3421e-17 
   6334.975   6.5031e-17 
     6336.5   5.7482e-17 
   6338.025   5.5375e-17 
    6339.55   6.2472e-17 
   6341.075   6.1478e-17 
     6342.6   5.5089e-17 
   6344.125   5.6494e-17 
    6345.65   6.2965e-17 
   6347.175   6.4619e-17 
     6348.7   6.4903e-17 
   6350.225   7.1652e-17 
    6351.75   7.1575e-17 
   6353.275   6.0365e-17 
     6354.8    6.338e-17 
   6356.325   6.3618e-17 
    6357.85   4.2106e-17 
   6359.375   4.5361e-17 
     6360.9   7.4163e-17 
   6362.425   8.9872e-17 
    6363.95   8.7079e-17 
   6365.475   6.7994e-17 
     6367.0   4.2668e-17 
   6368.525    4.543e-17 
    6370.05   5.8251e-17 
   6371.575   5.1436e-17 
     6373.1   5.1136e-17 
   6374.625   5.7519e-17 
    6376.15   5.8037e-17 
   6377.675   5.6491e-17 
     6379.2   5.0619e-17 
   6380.725   4.6996e-17 
    6382.25   5.5516e-17 
   6383.775   5.6709e-17 
     6385.3   4.5733e-17 
   6386.825   5.7583e-17 
    6388.35   7.1788e-17 
   6389.875    5.934e-17 
     6391.4   4.7733e-17 
   6392.925    5.641e-17 
    6394.45    6.284e-17 
   6395.975   5.4339e-17 
     6397.5   5.9458e-17 
   6399.025   6.2661e-17 
    6400.55   5.4515e-17 
   6402.075   4.8796e-17 
     6403.6   4.1527e-17 
   6405.125   4.9676e-17 
    6406.65   6.3282e-17 
   6408.175   5.3384e-17 
     6409.7   4.6212e-17 
   6411.225   6.1837e-17 
    6412.75   6.8352e-17 
   6414.275   6.4424e-17 
     6415.8   6.1368e-17 
   6417.325    6.108e-17 
    6418.85   6.5043e-17 
   6420.375   4.7293e-17 
     6421.9   5.2612e-17 
   6423.425   7.2467e-17 
    6424.95    6.356e-17 
   6426.475   6.0444e-17 
     6428.0    5.484e-17 
   6429.525   4.5387e-17 
    6431.05   5.4306e-17 
   6432.575   5.9175e-17 
     6434.1   5.0663e-17 
   6435.625   4.7898e-17 
    6437.15   5.1165e-17 
   6438.675    5.119e-17 
     6440.2    4.605e-17 
   6441.725   4.6501e-17 
    6443.25   5.3603e-17 
   6444.775   5.7503e-17 
     6446.3   5.2521e-17 
   6447.825   5.5209e-17 
    6449.35   6.3941e-17 
   6450.875   6.7631e-17 
     6452.4   6.1215e-17 
   6453.925   5.5556e-17 
    6455.45   5.9269e-17 
   6456.975   5.0363e-17 
     6458.5   3.9835e-17 
   6460.025   3.9508e-17 
    6461.55   4.8017e-17 
   6463.075    5.933e-17 
     6464.6   5.8549e-17 
   6466.125   5.9466e-17 
    6467.65   6.4842e-17 
   6469.175   4.9729e-17 
     6470.7   3.7064e-17 
   6472.225   4.8286e-17 
    6473.75   4.7962e-17 
   6475.275   4.5832e-17 
     6476.8   5.0368e-17 
   6478.325   5.1937e-17 
    6479.85   4.5382e-17 
   6481.375   5.1842e-17 
     6482.9   5.9277e-17 
   6484.425   4.6191e-17 
    6485.95   5.3228e-17 
   6487.475   5.8909e-17 
     6489.0   4.8324e-17 
   6490.525   4.5119e-17 
    6492.05   5.0911e-17 
   6493.575   5.8449e-17 
     6495.1    6.902e-17 
   6496.625   6.6884e-17 
    6498.15   6.8864e-17 
   6499.675   7.2419e-17 
     6501.2   5.4185e-17 
   6502.725   4.1632e-17 
    6504.25   5.2466e-17 
   6505.775   6.1684e-17 
     6507.3   5.2108e-17 
   6508.825   3.5757e-17 
    6510.35   3.6805e-17 
   6511.875   4.5116e-17 
     6513.4   5.4721e-17 
   6514.925   5.7666e-17 
    6516.45   4.6845e-17 
   6517.975   5.2826e-17 
     6519.5    6.512e-17 
   6521.025   6.2368e-17 
    6522.55   6.4615e-17 
   6524.075   7.0208e-17 
     6525.6   6.8188e-17 
   6527.125   5.2708e-17 
    6528.65   4.0754e-17 
   6530.175   4.6441e-17 
     6531.7   5.0085e-17 
   6533.225   6.1955e-17 
    6534.75   5.6444e-17 
   6536.275   4.9803e-17 
     6537.8   5.7945e-17 
   6539.325   5.7284e-17 
    6540.85   4.7446e-17 
   6542.375   3.7308e-17 
     6543.9    5.484e-17 
   6545.425   6.5014e-17 
    6546.95   5.3759e-17 
   6548.475   5.5881e-17 
     6550.0   5.1737e-17 
   6551.525   4.8975e-17 
    6553.05   6.1516e-17 
   6554.575   4.6546e-17 
     6556.1   3.2476e-17 
   6557.625   4.6945e-17 
    6559.15   5.1893e-17 
   6560.675   4.9602e-17 
     6562.2   5.6077e-17 
   6563.725    5.265e-17 
    6565.25   6.1757e-17 
   6566.775   6.4389e-17 
     6568.3   5.2465e-17 
   6569.825   5.7139e-17 
    6571.35   5.6652e-17 
   6572.875   5.0056e-17 
     6574.4   5.5663e-17 
   6575.925   7.0339e-17 
    6577.45   6.9965e-17 
   6578.975   5.3001e-17 
     6580.5   4.4226e-17 
   6582.025   4.9295e-17 
    6583.55   5.8905e-17 
   6585.075    6.883e-17 
     6586.6   7.1406e-17 
   6588.125   6.0739e-17 
    6589.65   5.0238e-17 
   6591.175   5.4786e-17 
     6592.7   6.0826e-17 
   6594.225   5.6038e-17 
    6595.75   6.5794e-17 
   6597.275   7.0263e-17 
     6598.8   5.6521e-17 
   6600.325   5.2946e-17 
    6601.85   6.3341e-17 
   6603.375   6.9085e-17 
     6604.9    5.224e-17 
   6606.425   4.6834e-17 
    6607.95   4.9354e-17 
   6609.475   4.9185e-17 
     6611.0   5.1727e-17 
   6612.525   6.0531e-17 
    6614.05     6.71e-17 
   6615.575   4.8774e-17 
     6617.1   3.8012e-17 
   6618.625   5.3568e-17 
    6620.15   4.9447e-17 
   6621.675   4.3119e-17 
     6623.2   5.7894e-17 
   6624.725   5.3271e-17 
    6626.25   6.2499e-17 
   6627.775   6.4046e-17 
     6629.3   4.7136e-17 
   6630.825   4.6948e-17 
    6632.35   5.2766e-17 
   6633.875   5.4024e-17 
     6635.4   3.6347e-17 
   6636.925   3.8921e-17 
    6638.45   6.1944e-17 
   6639.975   5.4921e-17 
     6641.5   6.4589e-17 
   6643.025   7.1561e-17 
    6644.55   4.7105e-17 
   6646.075   5.1687e-17 
     6647.6   5.9756e-17 
   6649.125   5.8863e-17 
    6650.65   5.7371e-17 
   6652.175   5.9877e-17 
     6653.7   5.7948e-17 
   6655.225    4.797e-17 
    6656.75   4.8715e-17 
   6658.275   6.1411e-17 
     6659.8    5.865e-17 
   6661.325   4.6104e-17 
    6662.85   5.2597e-17 
   6664.375   5.4943e-17 
     6665.9   5.1582e-17 
   6667.425   5.2116e-17 
    6668.95   6.3653e-17 
   6670.475   7.0438e-17 
     6672.0   5.7896e-17 
   6673.525   5.3718e-17 
    6675.05   5.4353e-17 
   6676.575   4.8606e-17 
     6678.1   5.3123e-17 
   6679.625   6.7465e-17 
    6681.15   7.7899e-17 
   6682.675   7.7154e-17 
     6684.2   7.4837e-17 
   6685.725   7.3709e-17 
    6687.25   7.0492e-17 
   6688.775   6.0792e-17 
     6690.3   5.7244e-17 
   6691.825   6.6741e-17 
    6693.35   6.4195e-17 
   6694.875   5.9647e-17 
     6696.4    6.905e-17 
   6697.925   6.9607e-17 
    6699.45   5.8941e-17 
   6700.975   4.7277e-17 
     6702.5   4.6989e-17 
   6704.025   5.7185e-17 
    6705.55   4.7616e-17 
   6707.075   4.9795e-17 
     6708.6   7.7016e-17 
   6710.125   7.9286e-17 
    6711.65   6.1538e-17 
   6713.175    5.675e-17 
     6714.7   6.6663e-17 
   6716.225   7.0371e-17 
    6717.75   6.8792e-17 
   6719.275   7.2756e-17 
     6720.8   6.8849e-17 
   6722.325    5.856e-17 
    6723.85   5.7359e-17 
   6725.375    5.549e-17 
     6726.9   5.1584e-17 
   6728.425   5.7355e-17 
    6729.95    6.269e-17 
   6731.475   6.1426e-17 
     6733.0   4.9918e-17 
   6734.525   3.9139e-17 
    6736.05   3.8255e-17 
   6737.575   4.3498e-17 
     6739.1   5.8058e-17 
   6740.625   6.0907e-17 
    6742.15   5.1351e-17 
   6743.675   4.8227e-17 
     6745.2   4.9793e-17 
   6746.725   5.0849e-17 
    6748.25    4.703e-17 
   6749.775   4.2869e-17 
     6751.3   4.3693e-17 
   6752.825   4.5145e-17 
    6754.35   5.2551e-17 
   6755.875   6.3252e-17 
     6757.4   5.8615e-17 
   6758.925   5.1278e-17 
    6760.45   6.2325e-17 
   6761.975   6.8246e-17 
     6763.5    5.301e-17 
   6765.025   4.4316e-17 
    6766.55   4.3106e-17 
   6768.075   5.1556e-17 
     6769.6   7.2308e-17 
   6771.125   7.5359e-17 
    6772.65   6.1362e-17 
   6774.175   5.2183e-17 
     6775.7    5.163e-17 
   6777.225   5.9227e-17 
    6778.75   6.7817e-17 
   6780.275   6.6715e-17 
     6781.8   6.8461e-17 
   6783.325   6.5018e-17 
    6784.85   4.7349e-17 
   6786.375   4.0141e-17 
     6787.9   5.1497e-17 
   6789.425   5.9768e-17 
    6790.95   6.1038e-17 
   6792.475    6.117e-17 
     6794.0   6.5652e-17 
   6795.525   7.6721e-17 
    6797.05   6.9251e-17 
   6798.575    6.513e-17 
     6800.1   7.1878e-17 
   6801.625   6.0412e-17 
    6803.15   4.4439e-17 
   6804.675   3.8855e-17 
     6806.2   4.3174e-17 
   6807.725   5.7375e-17 
    6809.25   5.9106e-17 
   6810.775   3.8009e-17 
     6812.3   3.7217e-17 
   6813.825   5.4453e-17 
    6815.35   5.5583e-17 
   6816.875   5.4829e-17 
     6818.4   6.1417e-17 
   6819.925   6.9292e-17 
    6821.45   7.0029e-17 
   6822.975   5.8982e-17 
     6824.5   5.1243e-17 
   6826.025   6.7962e-17 
    6827.55   6.4663e-17 
   6829.075   5.9321e-17 
     6830.6   5.8806e-17 
   6832.125   6.0472e-17 
    6833.65   7.0584e-17 
   6835.175   5.3938e-17 
     6836.7   5.4814e-17 
   6838.225   5.6114e-17 
    6839.75   6.0421e-17 
   6841.275   7.6778e-17 
     6842.8   5.8931e-17 
   6844.325   4.9286e-17 
    6845.85   5.8474e-17 
   6847.375   6.0765e-17 
     6848.9   6.3789e-17 
   6850.425   5.9797e-17 
    6851.95    7.037e-17 
   6853.475     7.22e-17 
     6855.0   6.6008e-17 
   6856.525   6.4364e-17 
    6858.05   5.4552e-17 
   6859.575   5.9427e-17 
     6861.1     6.07e-17 
   6862.625   7.0706e-17 
    6864.15   8.6459e-17 
   6865.675   8.6195e-17 
     6867.2   7.6688e-17 
   6868.725   6.0677e-17 
    6870.25   6.1552e-17 
   6871.775   7.0017e-17 
     6873.3   5.4368e-17 
   6874.825   5.8613e-17 
    6876.35   7.8602e-17 
   6877.875   7.2345e-17 
     6879.4   6.2675e-17 
   6880.925   6.0901e-17 
    6882.45   5.8182e-17 
   6883.975   6.3438e-17 
     6885.5   7.0473e-17 
   6887.025   6.6997e-17 
    6888.55   6.5714e-17 
   6890.075   5.9017e-17 
     6891.6   5.8135e-17 
   6893.125   6.4031e-17 
    6894.65   6.1124e-17 
   6896.175   5.9359e-17 
     6897.7   6.8443e-17 
   6899.225   6.6199e-17 
    6900.75   6.9717e-17 
   6902.275   7.5276e-17 
     6903.8   6.6055e-17 
   6905.325   6.5379e-17 
    6906.85   7.1922e-17 
   6908.375   6.6664e-17 
     6909.9   6.6926e-17 
   6911.425   7.4567e-17 
    6912.95   6.8325e-17 
   6914.475    6.469e-17 
     6916.0   6.2229e-17 
   6917.525   5.4332e-17 
    6919.05    4.952e-17 
   6920.575   4.7842e-17 
     6922.1   4.2814e-17 
   6923.625   4.6541e-17 
    6925.15   5.6256e-17 
   6926.675   5.8761e-17 
     6928.2    5.743e-17 
   6929.725   5.3871e-17 
    6931.25   6.5769e-17 
   6932.775   6.6635e-17 
     6934.3   4.4385e-17 
   6935.825   5.7845e-17 
    6937.35   8.3673e-17 
   6938.875   7.6955e-17 
     6940.4   6.6182e-17 
   6941.925   6.9816e-17 
    6943.45   7.6842e-17 
   6944.975   7.4643e-17 
     6946.5   6.6815e-17 
   6948.025   7.0397e-17 
    6949.55   7.3255e-17 
   6951.075   6.3089e-17 
     6952.6   6.2279e-17 
   6954.125   6.6623e-17 
    6955.65   6.9029e-17 
   6957.175    6.628e-17 
     6958.7   5.7176e-17 
   6960.225   5.2494e-17 
    6961.75   4.9797e-17 
   6963.275   5.7657e-17 
     6964.8   6.8264e-17 
   6966.325   6.1208e-17 
    6967.85    5.317e-17 
   6969.375   6.3136e-17 
     6970.9   6.3589e-17 
   6972.425   4.9716e-17 
    6973.95   5.7321e-17 
   6975.475   7.5921e-17 
     6977.0   7.3619e-17 
   6978.525   5.8035e-17 
    6980.05   6.3269e-17 
   6981.575   7.8989e-17 
     6983.1   6.5311e-17 
   6984.625   5.4674e-17 
    6986.15   7.0583e-17 
   6987.675   7.8185e-17 
     6989.2   6.1977e-17 
   6990.725   5.1021e-17 
    6992.25   6.3146e-17 
   6993.775   6.2733e-17 
     6995.3   6.2084e-17 
   6996.825   7.4273e-17 
    6998.35   8.4185e-17 
   6999.875   7.6937e-17 
     7001.4   6.2245e-17 
   7002.925   5.6282e-17 
    7004.45   5.8633e-17 
   7005.975   6.7314e-17 
     7007.5    7.558e-17 
   7009.025   7.5931e-17 
    7010.55   7.3119e-17 
   7012.075   7.9377e-17 
     7013.6   6.7087e-17 
   7015.125    6.858e-17 
    7016.65   7.6974e-17 
   7018.175   6.7772e-17 
     7019.7   5.6947e-17 
   7021.225   5.0594e-17 
    7022.75   5.8796e-17 
   7024.275   6.0574e-17 
     7025.8   5.9771e-17 
   7027.325   6.1232e-17 
    7028.85   4.7881e-17 
   7030.375   5.7574e-17 
     7031.9   7.9904e-17 
   7033.425   7.8401e-17 
    7034.95   6.6343e-17 
   7036.475   6.3129e-17 
     7038.0      7.1e-17 
   7039.525   7.4695e-17 
    7041.05   6.4891e-17 
   7042.575   6.7921e-17 
     7044.1   7.0571e-17 
   7045.625   6.3431e-17 
    7047.15   5.7011e-17 
   7048.675   6.3628e-17 
     7050.2   7.5306e-17 
   7051.725   6.5641e-17 
    7053.25   6.6455e-17 
   7054.775   7.1521e-17 
     7056.3   5.8954e-17 
   7057.825   5.7363e-17 
    7059.35   6.3105e-17 
   7060.875   6.4931e-17 
     7062.4   5.2337e-17 
   7063.925    6.097e-17 
    7065.45    5.759e-17 
   7066.975   3.8559e-17 
     7068.5   5.1457e-17 
   7070.025    5.161e-17 
    7071.55   5.2269e-17 
   7073.075   7.0487e-17 
     7074.6   7.2139e-17 
   7076.125   6.1784e-17 
    7077.65    7.708e-17 
   7079.175   1.2306e-16 
     7080.7   1.5485e-16 
   7082.225   1.1938e-16 
    7083.75   8.0586e-17 
   7085.275   8.0909e-17 
     7086.8   7.8819e-17 
   7088.325    6.483e-17 
    7089.85   4.8493e-17 
   7091.375   6.2121e-17 
     7092.9   6.2523e-17 
   7094.425   4.9858e-17 
    7095.95   7.0269e-17 
   7097.475   7.6107e-17 
     7099.0    6.354e-17 
   7100.525   6.1311e-17 
    7102.05   7.1825e-17 
   7103.575   8.2186e-17 
     7105.1   6.6487e-17 
   7106.625   5.9735e-17 
    7108.15   6.9667e-17 
   7109.675     5.68e-17 
     7111.2   4.8736e-17 
   7112.725   5.0868e-17 
    7114.25   5.3764e-17 
   7115.775   6.7176e-17 
     7117.3   6.7339e-17 
   7118.825   5.9494e-17 
    7120.35   6.4702e-17 
   7121.875     7.48e-17 
     7123.4   6.9678e-17 
   7124.925   5.4717e-17 
    7126.45   5.5837e-17 
   7127.975   5.2962e-17 
     7129.5   3.5163e-17 
   7131.025   3.4336e-17 
    7132.55   4.9461e-17 
   7134.075   5.5143e-17 
     7135.6   5.7419e-17 
   7137.125   5.9555e-17 
    7138.65   5.6268e-17 
   7140.175   5.2796e-17 
     7141.7   5.4695e-17 
   7143.225   5.7523e-17 
    7144.75   5.7098e-17 
   7146.275    4.913e-17 
     7147.8   4.6196e-17 
   7149.325   5.3252e-17 
    7150.85   4.4337e-17 
   7152.375     4.25e-17 
     7153.9   5.1237e-17 
   7155.425   5.2978e-17 
    7156.95   4.9727e-17 
   7158.475   4.7216e-17 
     7160.0   5.6443e-17 
   7161.525   6.2778e-17 
    7163.05    6.006e-17 
   7164.575   5.8403e-17 
     7166.1   6.9707e-17 
   7167.625   8.7556e-17 
    7169.15   8.3417e-17 
   7170.675   5.4749e-17 
     7172.2   3.6854e-17 
   7173.725   3.3778e-17 
    7175.25   5.1071e-17 
   7176.775   7.8134e-17 
     7178.3   6.8879e-17 
   7179.825    4.521e-17 
    7181.35   4.8706e-17 
   7182.875   6.5441e-17 
     7184.4   6.3695e-17 
   7185.925   5.4968e-17 
    7187.45   4.1104e-17 
   7188.975   4.4914e-17 
     7190.5   7.2601e-17 
   7192.025   7.5072e-17 
    7193.55   5.8646e-17 
   7195.075   5.0841e-17 
     7196.6   4.8753e-17 
   7198.125   4.3091e-17 
    7199.65   4.2865e-17 
   7201.175   5.2021e-17 
     7202.7    5.128e-17 
   7204.225   4.9068e-17 
    7205.75   4.4872e-17 
   7207.275   3.3989e-17 
     7208.8   5.2191e-17 
   7210.325   6.9638e-17 
    7211.85   6.2754e-17 
   7213.375   7.0028e-17 
     7214.9   7.1293e-17 
   7216.425   4.6558e-17 
    7217.95   4.5615e-17 
   7219.475   6.1833e-17 
     7221.0   6.3465e-17 
   7222.525   6.1681e-17 
    7224.05   5.1755e-17 
   7225.575    4.775e-17 
     7227.1   5.0835e-17 
   7228.625   5.7772e-17 
    7230.15   5.5711e-17 
   7231.675   3.2294e-17 
     7233.2   3.7363e-17 
   7234.725   4.7794e-17 
    7236.25   4.1818e-17 
   7237.775   3.5034e-17 
     7239.3   5.3092e-17 
   7240.825   8.0097e-17 
    7242.35   5.8321e-17 
   7243.875   6.0029e-17 
     7245.4   9.2156e-17 
   7246.925   7.0826e-17 
    7248.45   4.7514e-17 
   7249.975   5.0552e-17 
     7251.5   5.8558e-17 
   7253.025   5.4837e-17 
    7254.55   3.6211e-17 
   7256.075   4.7078e-17 
     7257.6    4.911e-17 
   7259.125   3.5694e-17 
    7260.65   4.2931e-17 
   7262.175   7.2775e-17 
     7263.7   7.0966e-17 
   7265.225   5.4397e-17 
    7266.75   4.5952e-17 
   7268.275   4.0031e-17 
     7269.8   3.8283e-17 
   7271.325   4.2236e-17 
    7272.85   5.0353e-17 
   7274.375   5.2447e-17 
     7275.9   6.1604e-17 
   7277.425   5.3505e-17 
    7278.95   3.9292e-17 
   7280.475   4.9038e-17 
     7282.0   5.4827e-17 
   7283.525    5.932e-17 
    7285.05   6.4504e-17 
   7286.575   3.7324e-17 
     7288.1   2.6406e-17 
   7289.625   3.7548e-17 
    7291.15   4.3625e-17 
   7292.675   6.3999e-17 
     7294.2   6.5205e-17 
   7295.725   4.7466e-17 
    7297.25   4.3715e-17 
   7298.775    5.071e-17 
     7300.3   5.2862e-17 
   7301.825   5.2507e-17 
    7303.35   6.0636e-17 
   7304.875   6.3926e-17 
     7306.4   6.0155e-17 
   7307.925   5.0273e-17 
    7309.45   3.8336e-17 
   7310.975   6.1577e-17 
     7312.5   9.5189e-17 
   7314.025   9.0057e-17 
    7315.55   6.7605e-17 
   7317.075   5.6391e-17 
     7318.6   6.4059e-17 
   7320.125   6.8637e-17 
    7321.65   6.6519e-17 
   7323.175   6.2948e-17 
     7324.7    5.345e-17 
   7326.225   5.4495e-17 
    7327.75    5.431e-17 
   7329.275   4.9921e-17 
     7330.8   4.2602e-17 
   7332.325   4.1059e-17 
    7333.85    4.406e-17 
   7335.375   4.5371e-17 
     7336.9   5.7708e-17 
   7338.425   7.1061e-17 
    7339.95   8.4944e-17 
   7341.475   7.3545e-17 
     7343.0   5.5556e-17 
   7344.525   6.2414e-17 
    7346.05   6.2193e-17 
   7347.575   5.6524e-17 
     7349.1   5.6015e-17 
   7350.625   5.4447e-17 
    7352.15    4.704e-17 
   7353.675   3.9473e-17 
     7355.2   4.3722e-17 
   7356.725    5.696e-17 
    7358.25   6.6222e-17 
   7359.775   5.8923e-17 
     7361.3   3.4485e-17 
   7362.825   2.9469e-17 
    7364.35   4.4152e-17 
   7365.875   6.8931e-17 
     7367.4   9.3701e-17 
   7368.925   7.4567e-17 
    7370.45   4.5241e-17 
   7371.975   4.2718e-17 
     7373.5   4.6992e-17 
   7375.025   5.7793e-17 
    7376.55   5.3031e-17 
   7378.075   4.5865e-17 
     7379.6   5.3999e-17 
   7381.125   5.1428e-17 
    7382.65   4.5238e-17 
   7384.175   4.9669e-17 
     7385.7   5.9926e-17 
   7387.225   5.7781e-17 
    7388.75   5.4088e-17 
   7390.275   6.1539e-17 
     7391.8   5.4462e-17 
   7393.325   4.3572e-17 
    7394.85   3.8266e-17 
   7396.375   3.3749e-17 
     7397.9   4.9959e-17 
   7399.425    6.493e-17 
    7400.95   6.7755e-17 
   7402.475   5.7325e-17 
     7404.0   3.5335e-17 
   7405.525   3.3022e-17 
    7407.05   4.2459e-17 
   7408.575   5.2077e-17 
     7410.1   5.2855e-17 
   7411.625   4.4802e-17 
    7413.15   4.0998e-17 
   7414.675   3.8969e-17 
     7416.2   3.9992e-17 
   7417.725   5.5868e-17 
    7419.25   6.6952e-17 
   7420.775   5.5341e-17 
     7422.3   5.1147e-17 
   7423.825     5.38e-17 
    7425.35   4.6314e-17 
   7426.875   4.1755e-17 
     7428.4   5.4461e-17 
   7429.925   5.3958e-17 
    7431.45   4.7083e-17 
   7432.975    5.665e-17 
     7434.5   6.8565e-17 
   7436.025    6.017e-17 
    7437.55   5.6619e-17 
   7439.075   5.0497e-17 
     7440.6   4.1901e-17 
   7442.125   4.4949e-17 
    7443.65   4.4783e-17 
   7445.175   4.5465e-17 
     7446.7   4.3219e-17 
   7448.225   3.8094e-17 
    7449.75   3.7901e-17 
   7451.275   5.1285e-17 
     7452.8   6.3748e-17 
   7454.325   5.6693e-17 
    7455.85   4.6182e-17 
   7457.375   5.1932e-17 
     7458.9    6.445e-17 
   7460.425   6.3616e-17 
    7461.95    6.461e-17 
   7463.475   7.1801e-17 
     7465.0   5.2358e-17 
   7466.525   4.1633e-17 
    7468.05   5.1891e-17 
   7469.575   6.2169e-17 
     7471.1   6.6028e-17 
   7472.625   6.2536e-17 
    7474.15   5.7959e-17 
   7475.675   6.0536e-17 
     7477.2   6.3186e-17 
   7478.725   4.7435e-17 
    7480.25   3.8245e-17 
   7481.775   4.3072e-17 
     7483.3   4.9196e-17 
   7484.825   5.4359e-17 
    7486.35   4.9356e-17 
   7487.875   4.1396e-17 
     7489.4   3.8485e-17 
   7490.925   4.5256e-17 
    7492.45   5.6298e-17 
   7493.975   4.9434e-17 
     7495.5   3.8013e-17 
   7497.025   3.7926e-17 
    7498.55   5.0642e-17 
   7500.075   6.0613e-17 
     7501.6   4.8175e-17 
   7503.125   3.6298e-17 
    7504.65   3.6891e-17 
   7506.175   4.1299e-17 
     7507.7   4.4515e-17 
   7509.225   4.6421e-17 
    7510.75   4.2098e-17 
   7512.275    3.177e-17 
     7513.8   4.0633e-17 
   7515.325   6.4668e-17 
    7516.85   6.4128e-17 
   7518.375   4.7759e-17 
     7519.9   5.6569e-17 
   7521.425   6.3439e-17 
    7522.95   4.3586e-17 
   7524.475   4.1901e-17 
     7526.0   4.9134e-17 
   7527.525   3.7918e-17 
    7529.05   4.3535e-17 
   7530.575    4.896e-17 
     7532.1   4.5694e-17 
   7533.625   4.4626e-17 
    7535.15     4.62e-17 
   7536.675   4.8458e-17 
     7538.2   3.9414e-17 
   7539.725   4.1073e-17 
    7541.25   4.9115e-17 
   7542.775   5.4886e-17 
     7544.3   5.4863e-17 
   7545.825   5.5187e-17 
    7547.35   5.5977e-17 
   7548.875   4.9286e-17 
     7550.4   5.1486e-17 
   7551.925   5.2234e-17 
    7553.45   3.2457e-17 
   7554.975   3.4985e-17 
     7556.5   4.5334e-17 
   7558.025    5.557e-17 
    7559.55   6.9532e-17 
   7561.075   5.7585e-17 
     7562.6   4.9975e-17 
   7564.125   6.1552e-17 
    7565.65   6.5465e-17 
   7567.175   5.6256e-17 
     7568.7    5.836e-17 
   7570.225   6.4853e-17 
    7571.75   6.6335e-17 
   7573.275   4.8249e-17 
     7574.8   3.7855e-17 
   7576.325   4.8605e-17 
    7577.85   4.9814e-17 
   7579.375   5.5001e-17 
     7580.9   5.0642e-17 
   7582.425    5.244e-17 
    7583.95   5.2161e-17 
   7585.475   5.2618e-17 
     7587.0   4.9337e-17 
   7588.525   4.5091e-17 
    7590.05   5.2817e-17 
   7591.575   5.2564e-17 
     7593.1   4.2049e-17 
   7594.625   4.4934e-17 
    7596.15   6.3592e-17 
   7597.675   5.0508e-17 
     7599.2   3.4154e-17 
   7600.725   3.2486e-17 
    7602.25   4.4352e-17 
   7603.775   3.5227e-17 
     7605.3    5.008e-17 
   7606.825   6.6296e-17 
    7608.35   3.0366e-17 
   7609.875   1.5586e-17 
     7611.4   3.3854e-17 
   7612.925   5.9468e-17 
    7614.45    6.535e-17 
   7615.975   5.3472e-17 
     7617.5   5.1174e-17 
   7619.025   5.5146e-17 
    7620.55   4.7198e-17 
   7622.075   3.3133e-17 
     7623.6   4.7041e-17 
   7625.125   6.7555e-17 
    7626.65   8.3658e-17 
   7628.175   8.3145e-17 
     7629.7   4.9263e-17 
   7631.225   4.8114e-17 
    7632.75   5.0409e-17 
   7634.275   3.2085e-17 
     7635.8   3.8142e-17 
   7637.325   5.0488e-17 
    7638.85    5.029e-17 
   7640.375   4.9581e-17 
     7641.9   6.2348e-17 
   7643.425   6.3793e-17 
    7644.95   5.2011e-17 
   7646.475   5.6061e-17 
     7648.0   6.2956e-17 
   7649.525   6.1988e-17 
    7651.05    5.957e-17 
   7652.575   4.8536e-17 
     7654.1   4.7827e-17 
   7655.625   5.6113e-17 
    7657.15   4.6291e-17 
   7658.675   5.1145e-17 
     7660.2   5.8891e-17 
   7661.725   5.7512e-17 
    7663.25   6.6026e-17 
   7664.775   6.3507e-17 
     7666.3   4.9374e-17 
   7667.825   4.8166e-17 
    7669.35   6.3469e-17 
   7670.875   6.0367e-17 
     7672.4   4.5739e-17 
   7673.925   5.3938e-17 
    7675.45   5.7763e-17 
   7676.975   4.3407e-17 
     7678.5   4.9524e-17 
   7680.025   6.0241e-17 
    7681.55   5.3976e-17 
   7683.075   5.5737e-17 
     7684.6   5.2891e-17 
   7686.125   4.9532e-17 
    7687.65   4.7915e-17 
   7689.175   4.1903e-17 
     7690.7   4.4894e-17 
   7692.225    3.883e-17 
    7693.75   4.6977e-17 
   7695.275   6.1618e-17 
     7696.8   6.3274e-17 
   7698.325   5.1658e-17 
    7699.85   4.3413e-17 
   7701.375   5.7806e-17 
     7702.9   6.1258e-17 
   7704.425   4.6173e-17 
    7705.95   3.1845e-17 
   7707.475   4.8059e-17 
     7709.0   5.0758e-17 
   7710.525    3.651e-17 
    7712.05   7.5891e-17 
   7713.575   9.9547e-17 
     7715.1   8.8557e-17 
   7716.625   7.4059e-17 
    7718.15   5.6289e-17 
   7719.675   4.9101e-17 
     7721.2   4.8048e-17 
   7722.725   5.4797e-17 
    7724.25   5.8357e-17 
   7725.775   5.9066e-17 
     7727.3   5.3226e-17 
   7728.825   4.8158e-17 
    7730.35   5.1395e-17 
   7731.875   5.1321e-17 
     7733.4   5.4761e-17 
   7734.925   5.4913e-17 
    7736.45   6.0022e-17 
   7737.975   6.4845e-17 
     7739.5   6.9678e-17 
   7741.025   6.4482e-17 
    7742.55   4.3533e-17 
   7744.075   5.1475e-17 
     7745.6    6.476e-17 
   7747.125   5.0585e-17 
    7748.65   7.1634e-17 
   7750.175   8.4622e-17 
     7751.7   5.1862e-17 
   7753.225   3.5887e-17 
    7754.75   4.9087e-17 
   7756.275   6.0518e-17 
     7757.8   6.4566e-17 
   7759.325   6.1734e-17 
    7760.85   5.0676e-17 
   7762.375   5.5681e-17 
     7763.9    6.078e-17 
   7765.425   5.5849e-17 
    7766.95   6.6069e-17 
   7768.475   7.3974e-17 
     7770.0   6.5528e-17 
   7771.525   5.1586e-17 
    7773.05   5.1267e-17 
   7774.575   6.7638e-17 
     7776.1   6.8773e-17 
   7777.625   5.7575e-17 
    7779.15   5.2323e-17 
   7780.675   5.8276e-17 
     7782.2   6.9917e-17 
   7783.725   7.6463e-17 
    7785.25   5.9318e-17 
   7786.775   3.5836e-17 
     7788.3   4.6643e-17 
   7789.825   6.1292e-17 
    7791.35   6.8624e-17 
   7792.875   7.6273e-17 
     7794.4   5.6049e-17 
   7795.925   3.1552e-17 
    7797.45   3.6075e-17 
   7798.975   6.4516e-17 
     7800.5   6.9373e-17 
   7802.025   5.6714e-17 
    7803.55   6.8195e-17 
   7805.075   7.2104e-17 
     7806.6   7.3852e-17 
   7808.125   7.3976e-17 
    7809.65    6.232e-17 
   7811.175   4.8942e-17 
     7812.7   5.4088e-17 
   7814.225    5.977e-17 
    7815.75   5.4853e-17 
   7817.275   5.9262e-17 
     7818.8   7.5065e-17 
   7820.325   8.4167e-17 
    7821.85   8.1789e-17 
   7823.375   6.0809e-17 
     7824.9   4.3082e-17 
   7826.425   6.1999e-17 
    7827.95   6.2678e-17 
   7829.475   4.7474e-17 
     7831.0   5.1196e-17 
   7832.525   6.0992e-17 
    7834.05   5.2185e-17 
   7835.575   4.9035e-17 
     7837.1   5.5222e-17 
   7838.625   4.2697e-17 
    7840.15   4.8011e-17 
   7841.675   6.4263e-17 
     7843.2   6.7408e-17 
   7844.725   7.1399e-17 
    7846.25   5.6793e-17 
   7847.775    4.952e-17 
     7849.3   9.3074e-17 
   7850.825   1.2533e-16 
    7852.35   8.9169e-17 
   7853.875   4.2143e-17 
     7855.4   4.5486e-17 
   7856.925   5.0452e-17 
    7858.45   4.7936e-17 
   7859.975   7.0804e-17 
     7861.5    6.617e-17 
   7863.025   4.6827e-17 
    7864.55   5.7034e-17 
   7866.075   5.5211e-17 
     7867.6   5.9886e-17 
   7869.125   7.5965e-17 
    7870.65   6.8453e-17 
   7872.175   4.8298e-17 
     7873.7   3.0683e-17 
   7875.225   2.5042e-17 
    7876.75   3.4275e-17 
   7878.275    4.995e-17 
     7879.8   5.6536e-17 
   7881.325    6.646e-17 
    7882.85   6.7549e-17 
   7884.375   5.2206e-17 
     7885.9   7.9101e-17 
   7887.425   8.3588e-17 
    7888.95   5.8154e-17 
   7890.475   7.3331e-17 
     7892.0   7.8064e-17 
   7893.525    6.417e-17 
    7895.05   6.9078e-17 
   7896.575   5.7185e-17 
     7898.1   3.6567e-17 
   7899.625   4.8992e-17 
    7901.15   5.9274e-17 
   7902.675   5.6059e-17 
     7904.2    5.182e-17 
   7905.725   4.1511e-17 
    7907.25   6.0385e-17 
   7908.775   7.1461e-17 
     7910.3   5.1878e-17 
   7911.825   6.4028e-17 
    7913.35   9.7309e-17 
   7914.875   8.7944e-17 
     7916.4   5.6173e-17 
   7917.925   4.8311e-17 
    7919.45   4.8975e-17 
   7920.975   6.8619e-17 
     7922.5   7.3264e-17 
   7924.025   5.0829e-17 
    7925.55    5.012e-17 
   7927.075   6.4494e-17 
     7928.6   6.9486e-17 
   7930.125   5.6461e-17 
    7931.65   4.0231e-17 
   7933.175   4.9536e-17 
     7934.7   5.2132e-17 
   7936.225   4.6323e-17 
    7937.75   5.6581e-17 
   7939.275   5.9699e-17 
     7940.8   5.3388e-17 
   7942.325   5.5108e-17 
    7943.85   5.2732e-17 
   7945.375   4.9044e-17 
     7946.9   5.4098e-17 
   7948.425   7.0217e-17 
    7949.95   8.4703e-17 
   7951.475   6.6449e-17 
     7953.0   5.5896e-17 
   7954.525   4.3889e-17 
    7956.05   3.3197e-17 
   7957.575   3.4696e-17 
     7959.1   2.5293e-17 
   7960.625   2.7479e-17 
    7962.15   5.3309e-17 
   7963.675    7.017e-17 
     7965.2   6.5339e-17 
   7966.725   5.4544e-17 
    7968.25   3.5371e-17 
   7969.775   4.2952e-17 
     7971.3    5.949e-17 
   7972.825   3.3692e-17 
    7974.35   3.1283e-17 
   7975.875   6.2971e-17 
     7977.4   6.9174e-17 
   7978.925   6.1002e-17 
    7980.45   5.2429e-17 
   7981.975   5.4641e-17 
     7983.5   5.2838e-17 
   7985.025   3.1564e-17 
    7986.55   2.5678e-17 
   7988.075    5.082e-17 
     7989.6   7.0737e-17 
   7991.125   2.7389e-17 
    7992.65   3.6482e-17 
   7994.175   6.1482e-17 
     7995.7   1.7521e-17 
   7997.225   4.6005e-18 
    7998.75   4.0847e-17 
   8000.275   6.2617e-17 
     8001.8     5.38e-17 
   8003.325   4.8923e-17 
    8004.85   4.5105e-17 
   8006.375   4.5192e-17 
     8007.9   4.6095e-17 
   8009.425   4.0621e-17 
    8010.95   5.1944e-17 
   8012.475    7.931e-17 
     8014.0   7.6154e-17 
   8015.525   6.4751e-17 
    8017.05   5.8294e-17 
   8018.575   4.4045e-17 
     8020.1   3.9961e-17 
   8021.625   3.6593e-17 
    8023.15   5.2852e-17 
   8024.675   8.2886e-17 
     8026.2   6.9625e-17 
   8027.725   4.1252e-17 
    8029.25   5.3449e-17 
   8030.775   5.9524e-17 
     8032.3   4.6341e-17 
   8033.825   4.6958e-17 
    8035.35   3.9085e-17 
   8036.875   4.3056e-17 
     8038.4   5.1539e-17 
   8039.925   3.6917e-17 
    8041.45    4.266e-17 
   8042.975   4.5634e-17 
     8044.5    3.585e-17 
   8046.025   4.1947e-17 
    8047.55   4.8926e-17 
   8049.075   5.3077e-17 
     8050.6    4.847e-17 
   8052.125   4.1849e-17 
    8053.65    4.021e-17 
   8055.175   3.1681e-17 
     8056.7   2.8673e-17 
   8058.225   4.9235e-17 
    8059.75   5.2588e-17 
   8061.275   5.3488e-17 
     8062.8   6.2768e-17 
   8064.325   3.9712e-17 
    8065.85   2.1939e-17 
   8067.375   3.4497e-17 
     8068.9   4.3625e-17 
   8070.425   4.4551e-17 
    8071.95   4.3587e-17 
   8073.475   3.9989e-17 
     8075.0   4.5284e-17 
   8076.525   4.1964e-17 
    8078.05   3.2445e-17 
   8079.575   2.8965e-17 
     8081.1   4.4872e-17 
   8082.625    4.586e-17 
    8084.15   2.9226e-17 
   8085.675   3.5239e-17 
     8087.2   3.7344e-17 
   8088.725   4.0213e-17 
    8090.25   4.1051e-17 
   8091.775   3.1005e-17 
     8093.3   3.0942e-17 
   8094.825   4.3866e-17 
    8096.35   4.9476e-17 
   8097.875   4.2144e-17 
     8099.4   4.1978e-17 
   8100.925   4.6723e-17 
    8102.45   4.6452e-17 
   8103.975   3.5621e-17 
     8105.5   3.4301e-17 
   8107.025   3.9364e-17 
    8108.55   3.3205e-17 
   8110.075   2.8189e-17 
     8111.6   3.6616e-17 
   8113.125   4.3511e-17 
    8114.65   4.4167e-17 
   8116.175   4.7958e-17 
     8117.7   4.0128e-17 
   8119.225   3.6158e-17 
    8120.75   4.0714e-17 
   8122.275   3.5402e-17 
     8123.8   4.2689e-17 
   8125.325   4.9689e-17 
    8126.85   4.3772e-17 
   8128.375   4.4422e-17 
     8129.9   3.8729e-17 
   8131.425   3.6286e-17 
    8132.95   4.6302e-17 
   8134.475   5.2251e-17 
     8136.0   5.0645e-17 
   8137.525   3.8655e-17 
    8139.05   3.8135e-17 
   8140.575   4.4963e-17 
     8142.1   3.6095e-17 
   8143.625   2.9567e-17 
    8145.15   3.6861e-17 
   8146.675   5.1396e-17 
     8148.2   4.9524e-17 
   8149.725   4.4027e-17 
    8151.25   3.7224e-17 
   8152.775   3.6197e-17 
     8154.3   4.3583e-17 
   8155.825   3.7568e-17 
    8157.35   3.3304e-17 
   8158.875   2.6841e-17 
     8160.4   2.7179e-17 
   8161.925    4.527e-17 
    8163.45   4.0604e-17 
   8164.975   3.5159e-17 
     8166.5   4.9387e-17 
   8168.025   4.4988e-17 
    8169.55   4.4726e-17 
   8171.075   5.3096e-17 
     8172.6   4.8292e-17 
   8174.125   3.9786e-17 
    8175.65   4.0758e-17 
   8177.175   3.8753e-17 
     8178.7    3.367e-17 
   8180.225   4.5274e-17 
    8181.75    4.421e-17 
   8183.275   3.2248e-17 
     8184.8   3.4522e-17 
   8186.325   4.2234e-17 
    8187.85   4.7871e-17 
   8189.375    4.773e-17 
     8190.9   5.1863e-17 
   8192.425   5.7669e-17 
    8193.95   4.6836e-17 
   8195.475   4.1485e-17 
     8197.0   3.7447e-17 
   8198.525   2.0322e-17 
    8200.05   2.1933e-17 
   8201.575   2.5359e-17 
     8203.1   3.2457e-17 
   8204.625   4.0425e-17 
    8206.15   3.6276e-17 
   8207.675   3.6205e-17 
     8209.2   3.4222e-17 
   8210.725    3.547e-17 
    8212.25   3.3522e-17 
   8213.775   2.9764e-17 
     8215.3   4.2447e-17 
   8216.825   6.1263e-17 
    8218.35   4.9382e-17 
   8219.875   3.4879e-17 
     8221.4   3.9989e-17 
   8222.925   3.5626e-17 
    8224.45   4.5488e-17 
   8225.975    5.499e-17 
     8227.5   4.1131e-17 
   8229.025   3.1564e-17 
    8230.55   3.6371e-17 
   8232.075   4.0672e-17 
     8233.6   3.9588e-17 
   8235.125   5.0345e-17 
    8236.65   5.6623e-17 
   8238.175   6.5397e-17 
     8239.7   6.1255e-17 
   8241.225   5.6888e-17 
    8242.75   5.9838e-17 
   8244.275   4.2351e-17 
     8245.8   4.4667e-17 
   8247.325   4.3748e-17 
    8248.85   3.8611e-17 
   8250.375    4.753e-17 
     8251.9   5.0518e-17 
   8253.425   4.9214e-17 
    8254.95   5.7174e-17 
   8256.475   5.7629e-17 
     8258.0   3.9141e-17 
   8259.525   4.3893e-17 
    8261.05   5.2083e-17 
   8262.575   4.7659e-17 
     8264.1   4.8105e-17 
   8265.625   4.1691e-17 
    8267.15   3.6828e-17 
   8268.675   4.6987e-17 
     8270.2   5.7223e-17 
   8271.725    5.559e-17 
    8273.25   5.6059e-17 
   8274.775   6.0465e-17 
     8276.3   6.0178e-17 
   8277.825    7.226e-17 
    8279.35   7.1311e-17 
   8280.875   5.2702e-17 
     8282.4   4.5166e-17 
   8283.925   5.5756e-17 
    8285.45   7.1467e-17 
   8286.975   4.9806e-17 
     8288.5    3.442e-17 
   8290.025   4.7048e-17 
    8291.55   4.6069e-17 
   8293.075   5.7666e-17 
     8294.6   7.5624e-17 
   8296.125    6.487e-17 
    8297.65   5.5109e-17 
   8299.175   5.0168e-17 
     8300.7   3.4673e-17 
   8302.225   4.2237e-17 
    8303.75   5.3276e-17 
   8305.275   4.3851e-17 
     8306.8   5.4305e-17 
   8308.325   7.2277e-17 
    8309.85   8.4012e-17 
   8311.375   7.4965e-17 
     8312.9   6.1033e-17 
   8314.425   6.1675e-17 
    8315.95    6.064e-17 
   8317.475   6.1953e-17 
     8319.0    5.949e-17 
   8320.525   5.5748e-17 
    8322.05   5.4173e-17 
   8323.575   5.9862e-17 
     8325.1   5.6416e-17 
   8326.625    4.331e-17 
    8328.15    5.282e-17 
   8329.675   5.3778e-17 
     8331.2   5.2898e-17 
   8332.725   6.8974e-17 
    8334.25   7.0389e-17 
   8335.775    5.496e-17 
     8337.3   2.4897e-17 
   8338.825   3.1776e-17 
    8340.35   7.7696e-17 
   8341.875   1.1216e-16 
     8343.4   1.3865e-16 
   8344.925   9.7096e-17 
    8346.45   3.9046e-17 
   8347.975   4.7858e-17 
     8349.5   5.2143e-17 
   8351.025   8.6052e-17 
    8352.55   9.3982e-17 
   8354.075   6.5738e-17 
     8355.6   5.7628e-17 
   8357.125    5.243e-17 
    8358.65   6.2576e-17 
   8360.175   6.9467e-17 
     8361.7   5.8535e-17 
   8363.225    5.795e-17 
    8364.75   7.8457e-17 
   8366.275   7.0811e-17 
     8367.8   5.4802e-17 
   8369.325   6.6799e-17 
    8370.85    7.809e-17 
   8372.375   6.4912e-17 
     8373.9   5.5842e-17 
   8375.425   5.8024e-17 
    8376.95   4.9815e-17 
   8378.475   5.5224e-17 
     8380.0   6.9091e-17 
   8381.525   6.9097e-17 
    8383.05   6.0143e-17 
   8384.575   4.9999e-17 
     8386.1   6.5719e-17 
   8387.625   6.6419e-17 
    8389.15   4.9177e-17 
   8390.675   6.0906e-17 
     8392.2   5.6613e-17 
   8393.725   3.6228e-17 
    8395.25   3.7171e-17 
   8396.775   5.5731e-17 
     8398.3   8.5551e-17 
   8399.825   1.1409e-16 
    8401.35   9.5115e-17 
   8402.875   5.2645e-17 
     8404.4   4.9865e-17 
   8405.925   5.4714e-17 
    8407.45   5.2421e-17 
   8408.975   5.2531e-17 
     8410.5   5.3752e-17 
   8412.025   5.2589e-17 
    8413.55   5.2649e-17 
   8415.075   7.9837e-17 
     8416.6   9.0056e-17 
   8418.125   5.5377e-17 
    8419.65   4.5057e-17 
   8421.175   6.3837e-17 
     8422.7   6.3135e-17 
   8424.225   5.9145e-17 
    8425.75   8.1654e-17 
   8427.275   1.0977e-16 
     8428.8    9.481e-17 
   8430.325     8.46e-17 
    8431.85   9.8403e-17 
   8433.375   6.3787e-17 
     8434.9   4.0309e-17 
   8436.425   5.4277e-17 
    8437.95   6.3492e-17 
   8439.475   6.5479e-17 
     8441.0   7.7946e-17 
   8442.525   7.5831e-17 
    8444.05   3.9391e-17 
   8445.575   3.4209e-17 
     8447.1   6.1111e-17 
   8448.625   8.8259e-17 
    8450.15   8.0194e-17 
   8451.675   7.8662e-17 
     8453.2    9.702e-17 
   8454.725   9.1233e-17 
    8456.25   7.5445e-17 
   8457.775   6.1808e-17 
     8459.3   5.0779e-17 
   8460.825   5.0005e-17 
    8462.35   4.4692e-17 
   8463.875   6.6394e-17 
     8465.4   8.5081e-17 
   8466.925   6.4889e-17 
    8468.45   5.2908e-17 
   8469.975   5.1981e-17 
     8471.5   4.6389e-17 
   8473.025    4.734e-17 
    8474.55   6.5201e-17 
   8476.075   6.5433e-17 
     8477.6   5.4775e-17 
   8479.125   5.0289e-17 
    8480.65    5.864e-17 
   8482.175   6.0924e-17 
     8483.7   5.8138e-17 
   8485.225   5.0687e-17 
    8486.75   3.7732e-17 
   8488.275   6.7802e-17 
     8489.8   8.8736e-17 
   8491.325   6.6542e-17 
    8492.85   6.8602e-17 
   8494.375   7.6182e-17 
     8495.9   6.0578e-17 
   8497.425   5.6944e-17 
    8498.95   6.3067e-17 
   8500.475   5.4654e-17 
     8502.0   4.2302e-17 
   8503.525   6.5663e-17 
    8505.05   8.6799e-17 
   8506.575   7.3793e-17 
     8508.1   5.8176e-17 
   8509.625   5.0893e-17 
    8511.15   5.2504e-17 
   8512.675   5.8883e-17 
     8514.2   5.1932e-17 
   8515.725   4.3882e-17 
    8517.25   5.3407e-17 
   8518.775   6.0105e-17 
     8520.3   5.7405e-17 
   8521.825   5.3076e-17 
    8523.35   4.9229e-17 
   8524.875   6.1526e-17 
     8526.4   7.6109e-17 
   8527.925    5.764e-17 
    8529.45    4.769e-17 
   8530.975   5.2428e-17 
     8532.5   5.0501e-17 
   8534.025   5.2647e-17 
    8535.55    5.315e-17 
   8537.075   4.8607e-17 
     8538.6   4.3734e-17 
   8540.125   5.3878e-17 
    8541.65   5.2989e-17 
   8543.175   4.2261e-17 
     8544.7   4.3396e-17 
   8546.225   4.5035e-17 
    8547.75   5.3408e-17 
   8549.275   5.2708e-17 
     8550.8   4.6382e-17 
   8552.325   3.8919e-17 
    8553.85   3.9575e-17 
   8555.375   5.4086e-17 
     8556.9   6.1581e-17 
   8558.425    5.197e-17 
    8559.95   4.4139e-17 
   8561.475   4.2882e-17 
     8563.0   4.2642e-17 
   8564.525   5.6819e-17 
    8566.05    6.244e-17 
   8567.575   5.0544e-17 
     8569.1   4.7425e-17 
   8570.625   6.1484e-17 
    8572.15   6.1051e-17 
   8573.675   4.9191e-17 
     8575.2   3.9683e-17 
   8576.725   3.4586e-17 
    8578.25   4.4137e-17 
   8579.775   5.2331e-17 
     8581.3   5.7988e-17 
   8582.825   5.6588e-17 
    8584.35   4.3641e-17 
   8585.875    4.524e-17 
     8587.4   4.0883e-17 
   8588.925   3.1728e-17 
    8590.45   3.1907e-17 
   8591.975   3.7505e-17 
     8593.5   6.1082e-17 
   8595.025    5.869e-17 
    8596.55   4.0844e-17 
   8598.075   3.8881e-17 
     8599.6    3.545e-17 
   8601.125   4.7819e-17 
    8602.65   4.6789e-17 
   8604.175   2.5659e-17 
     8605.7   3.3057e-17 
   8607.225   4.5015e-17 
    8608.75   4.1777e-17 
   8610.275   3.0579e-17 
     8611.8   1.8757e-17 
   8613.325   3.0055e-17 
    8614.85   4.6913e-17 
   8616.375   4.7254e-17 
     8617.9   3.3896e-17 
   8619.425   2.4139e-17 
    8620.95   3.4667e-17 
   8622.475   4.7049e-17 
     8624.0   5.8026e-17 
   8625.525   5.3161e-17 
    8627.05   3.4589e-17 
   8628.575   2.8021e-17 
     8630.1   2.4044e-17 
   8631.625   2.9908e-17 
    8633.15    4.823e-17 
   8634.675    4.543e-17 
     8636.2    2.046e-17 
   8637.725   1.7495e-17 
    8639.25   3.4305e-17 
   8640.775   4.6479e-17 
     8642.3   4.4296e-17 
   8643.825   3.9732e-17 
    8645.35   4.5641e-17 
   8646.875   3.0745e-17 
     8648.4    1.907e-17 
   8649.925   3.0303e-17 
    8651.45    4.238e-17 
   8652.975   4.2056e-17 
     8654.5   2.8329e-17 
   8656.025   4.0199e-17 
    8657.55   4.3764e-17 
   8659.075   2.9067e-17 
     8660.6   3.7863e-17 
   8662.125   3.1653e-17 
    8663.65   1.1215e-17 
   8665.175    2.201e-17 
     8666.7   4.1134e-17 
   8668.225    4.764e-17 
    8669.75   2.9308e-17 
   8671.275   2.3684e-17 
     8672.8   4.3371e-17 
   8674.325   3.3033e-17 
    8675.85   2.4312e-17 
   8677.375   3.9314e-17 
     8678.9   3.1025e-17 
   8680.425   1.8227e-17 
    8681.95   2.0489e-17 
   8683.475    2.953e-17 
     8685.0   1.4628e-17 
   8686.525   2.1351e-17 
    8688.05   5.1826e-17 
   8689.575   3.1603e-17 
     8691.1   1.4853e-17 
   8692.625   2.7737e-17 
    8694.15   2.4084e-17 
   8695.675   1.1104e-17 
     8697.2   1.5203e-17 
   8698.725   2.7485e-17 
    8700.25   1.9873e-17 
   8701.775   1.2896e-17 
     8703.3   2.7655e-17 
   8704.825   3.8153e-17 
    8706.35   3.9364e-17 
   8707.875   3.3955e-17 
     8709.4   3.1107e-17 
   8710.925    2.717e-17 
    8712.45   1.4105e-17 
   8713.975   1.0758e-17 
     8715.5   3.7285e-17 
   8717.025    5.227e-17 
    8718.55   4.1534e-17 
   8720.075   2.8781e-17 
     8721.6   2.6111e-17 
   8723.125   1.6397e-17 
    8724.65   6.5858e-18 
   8726.175    9.708e-18 
     8727.7   1.9346e-17 
   8729.225   2.7877e-17 
    8730.75   3.0308e-17 
   8732.275    3.647e-17 
     8733.8   3.8221e-17 
   8735.325    1.932e-17 
    8736.85   1.5257e-17 
   8738.375    4.497e-17 
     8739.9   4.1181e-17 
   8741.425   2.2951e-17 
    8742.95        3e-17 
   8744.475   3.5562e-17 
     8746.0    4.094e-17 
   8747.525   2.9635e-17 
    8749.05   1.7037e-17 
   8750.575   2.8634e-17 
     8752.1   2.3706e-17 
   8753.625   7.4351e-18 
    8755.15   1.7805e-17 
   8756.675   4.0197e-17 
     8758.2   5.3067e-17 
   8759.725   6.7057e-17 
    8761.25   5.0186e-17 
   8762.775   4.4414e-17 
     8764.3    5.973e-17 
   8765.825   4.8644e-17 
    8767.35   6.6959e-17 
   8768.875   4.0989e-17 
     8770.4  -2.9203e-17 
   8771.925  -2.4905e-17 
    8773.45   1.1703e-17 
   8774.975   4.2434e-17 
     8776.5   5.0655e-17 
   8778.025   6.2558e-17 
    8779.55   5.8346e-17 
   8781.075  -3.8518e-18 
     8782.6  -4.5722e-18 
   8784.125   1.9781e-17 
    8785.65   1.2953e-17 
   8787.175     3.25e-17 
     8788.7   1.7769e-17 
   8790.225   1.0563e-17 
    8791.75   2.9596e-17 
   8793.275   3.1669e-17 
     8794.8    2.537e-17 
   8796.325   2.9506e-17 
    8797.85   3.1479e-17 
   8799.375   6.5727e-18 
     8800.9   1.7142e-18 
   8802.425   3.3724e-17 
    8803.95   3.5693e-17 
   8805.475    2.042e-17 
     8807.0   2.8459e-17 
   8808.525   3.2986e-17 
    8810.05   2.7513e-17 
   8811.575   2.5046e-17 
     8813.1   3.3228e-17 
   8814.625   3.8588e-17 
    8816.15   3.3828e-17 
   8817.675    3.547e-17 
     8819.2   1.2041e-17 
   8820.725  -3.9715e-17 
    8822.25   4.4325e-17 
   8823.775   1.6273e-16 
     8825.3   1.3942e-16 
   8826.825   9.9942e-17 
    8828.35   1.3895e-16 
   8829.875   6.1046e-17 
     8831.4  -1.5779e-17 
   8832.925     5.28e-17 
    8834.45   5.5129e-17 
   8835.975   4.3736e-17 
     8837.5   5.8255e-17 
   8839.025   2.6651e-17 
    8840.55   4.3199e-18 
   8842.075   1.6851e-17 
     8843.6   9.7535e-18 
   8845.125   1.4043e-17 
    8846.65   4.8647e-17 
   8848.175   6.6017e-17 
     8849.7   7.2598e-17 
   8851.225   4.0159e-17 
    8852.75   7.0408e-18 
   8854.275   2.1375e-17 
     8855.8   2.4655e-17 
   8857.325   2.3774e-17 
    8858.85   4.1619e-17 
   8860.375    3.925e-17 
     8861.9   4.9485e-17 
   8863.425   8.8875e-17 
    8864.95   7.0941e-17 
   8866.475    6.312e-17 
     8868.0   7.6253e-17 
   8869.525   3.8371e-17 
    8871.05   2.3633e-17 
   8872.575   2.6535e-17 
     8874.1   2.5251e-17 
   8875.625   3.7231e-17 
    8877.15     3.62e-17 
   8878.675  -4.2431e-18 
     8880.2  -2.0904e-17 
   8881.725    6.622e-17 
    8883.25   8.5126e-17 
   8884.775   4.2122e-17 
     8886.3   4.6979e-17 
   8887.825   7.4271e-19 
    8889.35  -3.5982e-17 
   8890.875  -2.5206e-19 
     8892.4   2.5028e-17 
   8893.925   3.6502e-17 
    8895.45   4.0909e-17 
   8896.975   7.8959e-18 
     8898.5   1.3628e-17 
   8900.025   6.0778e-17 
    8901.55   5.6483e-17 
   8903.075   4.8531e-17 
     8904.6   4.2902e-17 
   8906.125   2.4316e-17 
    8907.65   2.2224e-17 
   8909.175   3.2271e-17 
     8910.7    4.131e-17 
   8912.225   3.3507e-17 
    8913.75  -1.1002e-17 
   8915.275   1.1853e-16 
     8916.8   2.0505e-16 
   8918.325   1.1931e-16 
    8919.85    7.578e-17 
   8921.375   2.3237e-17 
     8922.9   8.3619e-18 
   8924.425   3.1451e-17 
    8925.95   2.9655e-17 
   8927.475   1.8046e-17 
     8929.0   2.2586e-17 
   8930.525   3.0906e-17 
    8932.05   4.0527e-17 
   8933.575   4.6852e-17 
     8935.1   3.8383e-17 
   8936.625   2.1386e-17 
    8938.15   7.9821e-17 
   8939.675   9.3651e-17 
     8941.2   3.2615e-17 
   8942.725   8.2524e-17 
    8944.25   1.1577e-16 
   8945.775   5.8492e-17 
     8947.3    4.046e-17 
   8948.825   4.3091e-17 
    8950.35   4.2544e-17 
   8951.875  -2.2128e-17 
     8953.4   1.1925e-17 
   8954.925   1.5313e-16 
    8956.45   1.3773e-16 
   8957.975   1.1328e-16 
     8959.5   8.4563e-17 
   8961.025  -1.9393e-17 
    8962.55   -2.126e-17 
   8964.075   2.2794e-17 
     8965.6   3.7812e-17 
   8967.125   6.2013e-17 
    8968.65   6.4566e-17 
   8970.175   3.9684e-17 
     8971.7   2.7303e-17 
   8973.225   4.8577e-17 
    8974.75    6.819e-17 
   8976.275   6.8492e-17 
     8977.8   6.9392e-17 
   8979.325   5.4548e-17 
    8980.85   3.8818e-17 
   8982.375   5.0453e-17 
     8983.9   5.7833e-17 
   8985.425   7.7993e-17 
    8986.95   6.8625e-17 
   8988.475   6.0098e-17 
     8990.0   4.8099e-17 
   8991.525   4.1207e-17 
    8993.05   7.2465e-17 
   8994.575   6.6523e-17 
     8996.1   4.2703e-17 
   8997.625   1.1214e-16 
    8999.15    1.502e-16 
