# STATUS =
# OBJECT = 2016eay
# TELESCOPE = P200
# INSTRUMENT = DBSP
# DATE-OBS = 2016-05-31 00:00:00.00
# MJD = 57539.0
# EXPTIME = --
# AIRMASS = --
# SLIT = --
# DISPERSER = --
# SOURCE = 2017ApJ...840...57Y
# FILTER =
# RESOLUTION =
# FLUX_STANDARD =
# EXTINCTION_CORRECTED = --
# PHOTOMETRY_CALIBRATED =
# TELLURIC_CORRECTED =
# FLUX_UNITS = erg cm(-2) sec(-1) Ang(-1)
# WAVE_UNITS = Angstrom
# QUALITY = Low
# MIN_WAVE = 3100.337
# MAX_WAVE = 10236.989
# COMMENT = --
 Wavelength       Flux      Error 
    3101.38  3.058e-15  5.048e-16 
   3102.424  4.028e-15  5.273e-16 
   3103.467  3.703e-15  5.045e-16 
   3104.511  3.762e-15  5.085e-16 
   3105.555  4.636e-15  5.365e-16 
   3106.599  3.928e-15  4.836e-16 
   3107.642  2.489e-15  4.095e-16 
   3108.686  3.296e-15  4.448e-16 
    3109.73  3.796e-15  4.617e-16 
   3110.774   4.23e-15   4.62e-16 
   3111.818  3.935e-15  4.569e-16 
   3112.862  3.892e-15  4.297e-16 
   3113.906  3.304e-15  3.985e-16 
   3114.951  3.132e-15  3.986e-16 
   3115.994  3.442e-15  4.031e-16 
   3117.039  3.594e-15  4.002e-16 
   3118.084  2.991e-15  3.689e-16 
   3119.129  2.935e-15  3.565e-16 
   3120.172  3.954e-15  3.885e-16 
   3121.217    3.2e-15  3.641e-16 
   3122.262  3.299e-15  3.688e-16 
   3123.306  3.051e-15  3.434e-16 
   3124.351  3.032e-15  3.588e-16 
   3125.396  3.261e-15  3.533e-16 
   3126.442  3.467e-15   3.66e-16 
   3127.486  2.868e-15  3.428e-16 
   3128.531  3.055e-15  3.407e-16 
   3129.576  3.641e-15  3.617e-16 
   3130.622  3.114e-15  3.474e-16 
   3131.666   4.42e-15  3.942e-16 
   3132.712  3.473e-15  3.562e-16 
   3133.758  3.156e-15  3.548e-16 
   3134.803  3.568e-15  3.618e-16 
   3135.848  2.982e-15  3.367e-16 
   3136.894  4.003e-15  3.876e-16 
    3137.94  3.438e-15  3.487e-16 
   3138.986  4.055e-15   3.77e-16 
   3140.031  2.894e-15  3.272e-16 
   3141.077  3.235e-15    3.4e-16 
   3142.123  3.231e-15  3.499e-16 
   3143.168   3.15e-15  3.447e-16 
   3144.214  2.424e-15   3.13e-16 
    3145.26  3.355e-15  3.509e-16 
   3146.307  3.437e-15  3.463e-16 
   3147.352  3.487e-15  3.413e-16 
   3148.399  3.196e-15  3.306e-16 
   3149.445  2.703e-15  3.065e-16 
   3150.492  3.507e-15  3.346e-16 
   3151.538   2.85e-15  3.023e-16 
   3152.584  3.385e-15  3.202e-16 
   3153.631   3.48e-15  3.111e-16 
   3154.678  3.606e-15  3.164e-16 
   3155.724  3.677e-15  3.124e-16 
   3156.771  3.301e-15   2.99e-16 
   3157.818  3.136e-15  2.869e-16 
   3158.865  2.914e-15  2.728e-16 
   3159.911  3.093e-15  2.676e-16 
   3160.958  3.073e-15  2.719e-16 
   3162.006  3.206e-15  2.692e-16 
   3163.052  3.228e-15  2.754e-16 
   3164.099  3.341e-15  2.666e-16 
   3165.147  2.809e-15  2.481e-16 
   3166.194  2.907e-15  2.508e-16 
   3167.241  3.413e-15  2.633e-16 
   3168.288  3.057e-15   2.52e-16 
   3169.336  3.438e-15  2.629e-16 
   3170.384  3.272e-15  2.574e-16 
   3171.431  3.164e-15  2.518e-16 
   3172.479   3.33e-15  2.517e-16 
   3173.527  3.533e-15  2.607e-16 
   3174.575  3.652e-15   2.63e-16 
   3175.622  3.199e-15  2.455e-16 
    3176.67  3.282e-15  2.464e-16 
   3177.718  3.812e-15  2.642e-16 
   3178.765  3.984e-15  2.686e-16 
   3179.813  3.502e-15  2.521e-16 
   3180.862  3.423e-15  2.481e-16 
    3181.91  3.118e-15  2.375e-16 
   3182.958  3.551e-15   2.46e-16 
   3184.006  3.663e-15  2.426e-16 
   3185.055  3.265e-15  2.314e-16 
   3186.104  3.421e-15  2.327e-16 
   3187.151  3.009e-15  2.189e-16 
     3188.2  3.294e-15  2.236e-16 
   3189.249  3.206e-15  2.211e-16 
   3190.298  3.349e-15  2.246e-16 
   3191.346   3.04e-15  2.156e-16 
   3192.395   3.12e-15  2.172e-16 
   3193.444  2.513e-15  1.989e-16 
   3194.493  3.077e-15  2.209e-16 
   3195.541  2.591e-15   2.06e-16 
    3196.59  2.944e-15  2.161e-16 
    3197.64  2.835e-15  2.196e-16 
   3198.688  3.036e-15  2.254e-16 
   3199.737  2.619e-15  2.226e-16 
   3200.787  3.005e-15  2.359e-16 
   3201.836  3.275e-15  2.463e-16 
   3202.885  3.462e-15  2.562e-16 
   3203.935  3.735e-15  2.708e-16 
   3204.984  3.186e-15  2.553e-16 
   3206.034  3.971e-15  2.773e-16 
   3207.083  3.857e-15  2.741e-16 
   3208.133  3.421e-15  2.555e-16 
   3209.183   3.58e-15  2.561e-16 
   3210.233  3.155e-15  2.412e-16 
   3211.282    2.9e-15  2.278e-16 
   3212.332  3.518e-15  2.388e-16 
   3213.382  3.366e-15  2.325e-16 
   3214.432   3.28e-15   2.21e-16 
   3215.482  3.586e-15    2.3e-16 
   3216.532  3.256e-15  2.165e-16 
   3217.583  3.261e-15  2.137e-16 
   3218.632  3.258e-15  2.141e-16 
   3219.683  3.284e-15  2.127e-16 
   3220.733  3.113e-15  2.078e-16 
   3221.784  3.127e-15  2.087e-16 
   3222.834  2.709e-15  1.981e-16 
   3223.885  2.694e-15  1.963e-16 
   3224.935  2.733e-15  1.981e-16 
   3225.986  3.343e-15  2.114e-16 
   3227.036  2.891e-15  2.008e-16 
   3228.087  3.026e-15  2.087e-16 
   3229.138  3.357e-15  2.154e-16 
   3230.188  3.623e-15  2.214e-16 
    3231.24  3.551e-15  2.168e-16 
   3232.291  3.518e-15  2.135e-16 
   3233.342  3.271e-15  2.081e-16 
   3234.392   3.43e-15  2.107e-16 
   3235.444  3.341e-15  2.061e-16 
   3236.495  3.405e-15  2.052e-16 
   3237.547  3.334e-15  1.974e-16 
   3238.597  2.951e-15  1.868e-16 
   3239.649  3.184e-15   1.94e-16 
   3240.701  3.523e-15  1.975e-16 
   3241.753   3.02e-15  1.849e-16 
   3242.803   3.38e-15  1.933e-16 
   3243.855  2.881e-15  1.814e-16 
   3244.907  2.922e-15   1.85e-16 
   3245.958   3.08e-15  1.865e-16 
    3247.01   3.06e-15  1.899e-16 
   3248.062  2.895e-15  1.837e-16 
   3249.114  2.628e-15  1.781e-16 
   3250.166  2.914e-15  1.861e-16 
   3251.218  2.738e-15   1.84e-16 
    3252.27  3.152e-15  1.935e-16 
   3253.323  2.798e-15  1.904e-16 
   3254.374   2.94e-15  1.911e-16 
   3255.427  2.944e-15  1.931e-16 
   3256.479  3.428e-15  2.055e-16 
   3257.532  2.907e-15  1.926e-16 
   3258.583  3.213e-15  2.004e-16 
   3259.636  3.701e-15  2.081e-16 
   3260.689   3.28e-15  2.004e-16 
   3261.741  3.181e-15   1.99e-16 
   3262.794  3.549e-15  2.027e-16 
   3263.847  3.534e-15  2.006e-16 
     3264.9  3.237e-15   1.91e-16 
   3265.952   3.31e-15  1.913e-16 
   3267.005   3.38e-15  1.908e-16 
   3268.058  3.243e-15   1.88e-16 
   3269.111  3.577e-15  1.925e-16 
   3270.163  3.172e-15  1.844e-16 
   3271.217  2.896e-15  1.753e-16 
    3272.27  3.232e-15  1.811e-16 
   3273.324  3.177e-15  1.789e-16 
   3274.376  2.972e-15  1.719e-16 
    3275.43   2.74e-15  1.672e-16 
   3276.483  3.209e-15  1.735e-16 
   3277.536  3.042e-15  1.682e-16 
    3278.59  3.261e-15  1.708e-16 
   3279.644  3.599e-15  1.771e-16 
   3280.697  3.244e-15  1.683e-16 
    3281.75  3.244e-15  1.676e-16 
   3282.804  2.765e-15  1.561e-16 
   3283.858  3.172e-15  1.636e-16 
   3284.912  3.231e-15  1.618e-16 
   3285.965  3.274e-15  1.651e-16 
    3287.02  3.089e-15  1.587e-16 
   3288.074  3.274e-15  1.613e-16 
   3289.128  2.799e-15  1.508e-16 
   3290.181  3.269e-15  1.609e-16 
   3291.236  3.501e-15  1.638e-16 
    3292.29  3.251e-15  1.616e-16 
   3293.344   3.19e-15  1.595e-16 
   3294.398  3.297e-15  1.615e-16 
   3295.453  3.072e-15  1.582e-16 
   3296.508  3.031e-15  1.567e-16 
   3297.561  3.279e-15  1.607e-16 
   3298.616  3.053e-15  1.556e-16 
   3299.671   2.85e-15  1.512e-16 
   3300.726  3.269e-15  1.611e-16 
    3301.78  3.406e-15  1.633e-16 
   3302.835  3.171e-15  1.579e-16 
    3303.89  2.989e-15  1.548e-16 
   3304.944  2.997e-15  1.557e-16 
   3305.999  2.825e-15  1.515e-16 
   3307.054  3.448e-15  1.645e-16 
    3308.11  2.992e-15  1.567e-16 
   3309.164  3.166e-15  1.606e-16 
   3310.219  3.188e-15  1.626e-16 
   3311.275  3.479e-15  1.704e-16 
    3312.33  3.078e-15  1.633e-16 
   3313.385  3.303e-15  1.666e-16 
   3314.441  3.221e-15  1.664e-16 
   3315.496  3.021e-15  1.636e-16 
   3316.552  3.489e-15  1.724e-16 
   3317.607  3.066e-15  1.653e-16 
   3318.663  2.966e-15   1.65e-16 
   3319.718  3.155e-15   1.68e-16 
   3320.773  3.278e-15  1.684e-16 
   3321.829  3.278e-15  1.666e-16 
   3322.885  3.332e-15  1.653e-16 
   3323.941  3.074e-15  1.591e-16 
   3324.997  3.295e-15  1.604e-16 
   3326.053  3.417e-15  1.608e-16 
   3327.109  3.385e-15    1.6e-16 
   3328.165  3.388e-15  1.546e-16 
   3329.221  3.648e-15  1.591e-16 
   3330.277  3.193e-15  1.486e-16 
   3331.334   3.18e-15  1.467e-16 
    3332.39  3.215e-15  1.456e-16 
   3333.446  3.131e-15  1.419e-16 
   3334.502  2.969e-15   1.38e-16 
   3335.559  3.329e-15  1.429e-16 
   3336.615  2.903e-15  1.334e-16 
   3337.672  2.872e-15  1.321e-16 
   3338.728  2.858e-15  1.302e-16 
   3339.785  2.946e-15  1.316e-16 
   3340.841   3.12e-15  1.341e-16 
   3341.898   2.71e-15  1.257e-16 
   3342.955  2.926e-15  1.291e-16 
   3344.012  2.538e-15  1.232e-16 
   3345.069  3.189e-15  1.338e-16 
   3346.126  3.158e-15  1.333e-16 
   3347.183  3.288e-15  1.347e-16 
   3348.239  3.206e-15  1.332e-16 
   3349.297  2.929e-15  1.274e-16 
   3350.354  2.905e-15  1.278e-16 
   3351.412  3.132e-15  1.332e-16 
   3352.468  3.252e-15  1.344e-16 
   3353.526  3.325e-15  1.368e-16 
   3354.583  3.458e-15  1.389e-16 
   3355.641  3.168e-15  1.332e-16 
   3356.698  3.445e-15  1.391e-16 
   3357.756  2.994e-15  1.307e-16 
   3358.813  3.321e-15  1.362e-16 
    3359.87  3.425e-15  1.361e-16 
   3360.928  3.065e-15  1.303e-16 
   3361.986  2.992e-15  1.294e-16 
   3363.044  3.423e-15  1.356e-16 
   3364.101  3.052e-15    1.3e-16 
    3365.16  3.039e-15  1.318e-16 
   3366.218  3.118e-15  1.352e-16 
   3367.276  2.971e-15  1.334e-16 
   3368.333  2.897e-15  1.329e-16 
   3369.392  3.057e-15  1.361e-16 
    3370.45  2.945e-15  1.378e-16 
   3371.509  3.164e-15  1.395e-16 
   3372.566  2.985e-15  1.378e-16 
   3373.625  3.158e-15  1.402e-16 
   3374.683  3.115e-15  1.403e-16 
   3375.741  3.359e-15   1.44e-16 
     3376.8  3.171e-15  1.406e-16 
   3377.859  3.216e-15  1.413e-16 
   3378.917  3.216e-15  1.414e-16 
   3379.975  3.491e-15  1.445e-16 
   3381.034  3.257e-15  1.399e-16 
   3382.093  3.124e-15  1.372e-16 
   3383.152  2.916e-15  1.349e-16 
    3384.21  3.221e-15  1.373e-16 
   3385.269  3.012e-15  1.353e-16 
   3386.329  3.183e-15  1.371e-16 
   3387.387  2.986e-15  1.325e-16 
   3388.446  3.026e-15  1.312e-16 
   3389.506  3.051e-15  1.322e-16 
   3390.565  3.126e-15   1.32e-16 
   3391.623  2.873e-15  1.265e-16 
   3392.683  2.958e-15  1.274e-16 
   3393.742  3.041e-15  1.271e-16 
   3394.802  3.093e-15  1.269e-16 
   3395.861  3.096e-15   1.27e-16 
    3396.92  3.109e-15  1.252e-16 
    3397.98  3.228e-15   1.28e-16 
   3399.039   3.15e-15  1.255e-16 
   3400.099  2.815e-15  1.201e-16 
   3401.159  2.904e-15  1.205e-16 
   3402.219  2.973e-15  1.201e-16 
   3403.278  2.907e-15  1.183e-16 
   3404.338   3.01e-15  1.188e-16 
   3405.398  3.473e-15  1.235e-16 
   3406.458  3.164e-15  1.164e-16 
   3407.517   2.89e-15  1.124e-16 
   3408.578  3.163e-15  1.149e-16 
   3409.638  2.891e-15  1.098e-16 
   3410.698  2.748e-15  1.066e-16 
   3411.758  3.057e-15  1.101e-16 
   3412.818  2.751e-15  1.051e-16 
   3413.879  2.727e-15  1.049e-16 
   3414.938  2.882e-15  1.065e-16 
   3415.999  2.827e-15  1.065e-16 
   3417.059  2.623e-15  1.037e-16 
    3418.12  2.918e-15  1.093e-16 
    3419.18  2.764e-15  1.076e-16 
   3420.241  2.679e-15  1.079e-16 
   3421.302  2.835e-15  1.112e-16 
   3422.362  2.574e-15  1.069e-16 
   3423.422  2.589e-15  1.088e-16 
   3424.483  2.468e-15   1.08e-16 
   3425.545   2.55e-15  1.094e-16 
   3426.605  2.718e-15  1.126e-16 
   3427.666  2.528e-15  1.104e-16 
   3428.727   2.65e-15  1.125e-16 
   3429.788  2.828e-15  1.168e-16 
   3430.849  2.749e-15  1.159e-16 
    3431.91  3.046e-15  1.213e-16 
   3432.971  3.016e-15  1.208e-16 
   3434.033  2.801e-15  1.175e-16 
   3435.093  2.703e-15  1.154e-16 
   3436.155  2.801e-15  1.168e-16 
   3437.216  2.458e-15  1.111e-16 
   3438.277  2.963e-15  1.196e-16 
   3439.339  2.595e-15  1.124e-16 
   3440.401   2.67e-15   1.11e-16 
   3441.462  2.571e-15  1.094e-16 
   3442.523  2.532e-15  1.069e-16 
   3443.585  2.653e-15  1.094e-16 
   3444.647  2.584e-15  1.081e-16 
   3445.709  2.592e-15  1.092e-16 
    3446.77  2.526e-15  1.086e-16 
   3447.832  2.416e-15  1.072e-16 
   3448.894  2.253e-15  1.073e-16 
   3449.956  2.655e-15  1.138e-16 
   3451.018  2.577e-15  1.142e-16 
    3452.08  2.713e-15  1.159e-16 
   3453.142  2.725e-15  1.162e-16 
   3454.204  2.584e-15  1.136e-16 
   3455.266  2.724e-15  1.164e-16 
   3456.329  2.486e-15  1.109e-16 
   3457.391  2.668e-15  1.123e-16 
   3458.453  2.571e-15  1.096e-16 
   3459.515  2.644e-15  1.099e-16 
   3460.578  2.662e-15  1.087e-16 
    3461.64  2.621e-15   1.07e-16 
   3462.703  2.807e-15   1.08e-16 
   3463.765  2.839e-15  1.079e-16 
   3464.828  2.685e-15  1.058e-16 
    3465.89  2.801e-15  1.058e-16 
   3466.953  2.722e-15  1.043e-16 
   3468.016  2.732e-15  1.028e-16 
   3469.079  2.618e-15   1.01e-16 
   3470.141  2.598e-15  9.941e-17 
   3471.205   2.68e-15  1.002e-16 
   3472.268  2.667e-15  9.873e-17 
    3473.33  2.535e-15  9.694e-17 
   3474.393  2.377e-15  9.367e-17 
   3475.457  2.408e-15  9.279e-17 
    3476.52  2.427e-15  9.323e-17 
   3477.583  2.604e-15  9.654e-17 
   3478.646  2.344e-15  9.335e-17 
    3479.71  2.396e-15  9.526e-17 
   3480.773  2.411e-15  9.594e-17 
   3481.836  2.578e-15  9.971e-17 
   3482.899  2.376e-15  9.794e-17 
   3483.963  2.494e-15  9.942e-17 
   3485.026  2.316e-15  9.674e-17 
    3486.09  2.421e-15  9.781e-17 
   3487.154  2.315e-15  9.592e-17 
   3488.218  2.466e-15  9.816e-17 
   3489.281  2.355e-15  9.558e-17 
   3490.345  2.512e-15  9.841e-17 
   3491.409  2.422e-15  9.575e-17 
   3492.473  2.337e-15  9.451e-17 
   3493.536  2.461e-15  9.672e-17 
     3494.6  2.515e-15  9.746e-17 
   3495.664  2.507e-15  9.656e-17 
   3496.728  2.592e-15  9.722e-17 
   3497.792  2.436e-15   9.58e-17 
   3498.856  2.214e-15  9.258e-17 
   3499.921  2.361e-15  9.439e-17 
   3500.984  2.352e-15  9.439e-17 
   3502.049  2.357e-15  9.505e-17 
   3503.113  2.432e-15  9.652e-17 
   3504.178  2.475e-15  9.766e-17 
   3505.242  2.423e-15  9.684e-17 
   3506.306  2.387e-15  9.694e-17 
   3507.371  2.326e-15  9.587e-17 
   3508.435  2.349e-15  9.586e-17 
     3509.5  2.351e-15  9.694e-17 
   3510.565  2.566e-15  9.878e-17 
    3511.63  2.567e-15  9.968e-17 
   3512.694  2.559e-15  9.885e-17 
   3513.759  2.527e-15   9.76e-17 
   3514.824  2.547e-15  9.687e-17 
   3515.889  2.645e-15  9.743e-17 
   3516.953  2.573e-15  9.658e-17 
   3518.018   2.68e-15  9.798e-17 
   3519.083  2.624e-15  9.533e-17 
   3520.148  2.768e-15  9.602e-17 
   3521.213  2.466e-15  9.081e-17 
   3522.278  2.565e-15   9.11e-17 
   3523.344  2.593e-15  8.953e-17 
   3524.408   2.58e-15  8.801e-17 
   3525.474   2.73e-15  8.814e-17 
    3526.54  2.396e-15  8.354e-17 
   3527.605  2.492e-15  8.408e-17 
    3528.67  2.505e-15  8.453e-17 
   3529.736  2.373e-15  8.251e-17 
   3530.801  2.634e-15  8.553e-17 
   3531.866  2.569e-15  8.514e-17 
   3532.932  2.477e-15  8.311e-17 
   3533.998    2.5e-15  8.326e-17 
   3535.064   2.36e-15  8.103e-17 
   3536.129  2.395e-15  8.175e-17 
   3537.195  2.401e-15  8.145e-17 
   3538.261  2.452e-15  8.158e-17 
   3539.326  2.509e-15  8.291e-17 
   3540.392   2.64e-15  8.448e-17 
   3541.458  2.483e-15  8.248e-17 
   3542.525  2.327e-15  8.132e-17 
    3543.59  2.418e-15  8.254e-17 
   3544.656  2.442e-15  8.338e-17 
   3545.723   2.47e-15   8.46e-17 
   3546.789  2.185e-15   8.12e-17 
   3547.855  2.344e-15  8.366e-17 
   3548.921  2.252e-15  8.312e-17 
   3549.988  2.319e-15  8.411e-17 
   3551.053  2.368e-15  8.482e-17 
    3552.12  2.496e-15  8.615e-17 
   3553.187  2.331e-15  8.427e-17 
   3554.254  2.348e-15  8.466e-17 
   3555.319  2.389e-15  8.526e-17 
   3556.386  2.196e-15  8.427e-17 
   3557.453  2.144e-15  8.379e-17 
    3558.52  2.389e-15  8.656e-17 
   3559.586  2.236e-15  8.533e-17 
   3560.653  2.336e-15  8.745e-17 
    3561.72  2.473e-15  8.909e-17 
   3562.786  2.439e-15  9.016e-17 
   3563.853  2.518e-15  9.129e-17 
    3564.92  2.508e-15   9.08e-17 
   3565.988  2.451e-15  8.963e-17 
   3567.054  2.441e-15  8.852e-17 
   3568.121  2.548e-15   9.01e-17 
   3569.189  2.578e-15  8.972e-17 
   3570.256  2.443e-15  8.804e-17 
   3571.323  2.624e-15  8.977e-17 
    3572.39  2.621e-15  8.903e-17 
   3573.458  2.547e-15  8.806e-17 
   3574.524  2.432e-15  8.705e-17 
   3575.592  2.466e-15  8.714e-17 
   3576.659  2.565e-15  8.761e-17 
   3577.727  2.575e-15  8.735e-17 
   3578.794  2.439e-15  8.486e-17 
   3579.862  2.398e-15   8.31e-17 
    3580.93  2.601e-15  8.462e-17 
   3581.998  2.492e-15  8.318e-17 
   3583.064   2.53e-15  8.302e-17 
   3584.132  2.456e-15  8.115e-17 
     3585.2  2.435e-15   7.97e-17 
   3586.268  2.653e-15  8.208e-17 
   3587.336  2.641e-15  8.147e-17 
   3588.404  2.539e-15  8.007e-17 
   3589.472   2.66e-15  8.193e-17 
   3590.539  2.608e-15  8.204e-17 
   3591.607  2.527e-15  8.138e-17 
   3592.676  2.576e-15  8.225e-17 
   3593.743  2.782e-15  8.466e-17 
   3594.812   2.68e-15  8.402e-17 
    3595.88  2.705e-15  8.352e-17 
   3596.948  2.768e-15  8.435e-17 
   3598.016  2.912e-15  8.579e-17 
   3599.085  2.853e-15  8.525e-17 
   3600.153  2.853e-15  8.362e-17 
   3601.222  2.625e-15  8.112e-17 
    3602.29  2.853e-15  8.227e-17 
   3603.358  2.767e-15   8.03e-17 
   3604.427  2.796e-15  7.943e-17 
   3605.495  2.782e-15  7.847e-17 
   3606.564  2.628e-15  7.597e-17 
   3607.633  2.639e-15  7.516e-17 
   3608.702   2.65e-15  7.515e-17 
    3609.77  2.698e-15  7.543e-17 
   3610.839  2.584e-15   7.43e-17 
   3611.908  2.755e-15  7.601e-17 
   3612.977  2.607e-15  7.413e-17 
   3614.045  2.665e-15  7.563e-17 
   3615.114   2.67e-15  7.651e-17 
   3616.184  2.581e-15  7.582e-17 
   3617.252  2.595e-15  7.635e-17 
   3618.321  2.553e-15  7.507e-17 
   3619.391  2.698e-15  7.716e-17 
    3620.46  2.575e-15  7.528e-17 
   3621.528  2.525e-15  7.523e-17 
   3622.598  2.568e-15  7.585e-17 
   3623.668  2.596e-15  7.678e-17 
   3624.736  2.612e-15  7.734e-17 
   3625.806  2.671e-15  7.827e-17 
   3626.875  2.611e-15  7.854e-17 
   3627.945  2.771e-15  7.974e-17 
   3629.014  2.533e-15  7.783e-17 
   3630.084  2.672e-15  7.916e-17 
   3631.153  2.812e-15  8.035e-17 
   3632.223  2.652e-15  7.821e-17 
   3633.292  2.575e-15  7.741e-17 
   3634.362  2.682e-15  7.884e-17 
   3635.432  2.691e-15  7.872e-17 
   3636.501  2.548e-15  7.759e-17 
   3637.571  2.571e-15  7.796e-17 
   3638.641  2.553e-15  7.853e-17 
   3639.712  2.565e-15  7.893e-17 
   3640.781  2.505e-15  7.815e-17 
   3641.851  2.436e-15  7.792e-17 
   3642.921  2.518e-15  7.867e-17 
   3643.992  2.539e-15  7.857e-17 
   3645.061  2.399e-15  7.705e-17 
   3646.131   2.41e-15  7.721e-17 
   3647.202  2.369e-15  7.704e-17 
   3648.271  2.481e-15  7.908e-17 
   3649.342  2.461e-15  7.999e-17 
   3650.412   2.51e-15  8.184e-17 
   3651.483  2.562e-15   8.36e-17 
   3652.553   2.61e-15  8.477e-17 
   3653.623  2.529e-15  8.362e-17 
   3654.694  2.466e-15  8.247e-17 
   3655.764  2.443e-15   8.17e-17 
   3656.835   2.63e-15  8.366e-17 
   3657.906  2.606e-15  8.261e-17 
   3658.976  2.629e-15  8.212e-17 
   3660.046  2.747e-15  8.335e-17 
   3661.117  2.739e-15  8.226e-17 
   3662.188  2.589e-15  8.028e-17 
   3663.259  2.655e-15  8.037e-17 
   3664.329  2.677e-15  8.003e-17 
   3665.401  2.677e-15   7.95e-17 
   3666.472  2.517e-15  7.685e-17 
   3667.542  2.571e-15  7.647e-17 
   3668.613   2.57e-15  7.515e-17 
   3669.685   2.62e-15  7.485e-17 
   3670.756  2.644e-15  7.472e-17 
   3671.826  2.563e-15  7.357e-17 
   3672.898  2.646e-15  7.445e-17 
   3673.969  2.578e-15  7.286e-17 
    3675.04  2.561e-15  7.261e-17 
   3676.111  2.569e-15  7.183e-17 
   3677.183  2.508e-15  7.093e-17 
   3678.254  2.544e-15  7.083e-17 
   3679.325  2.584e-15   7.03e-17 
   3680.397  2.552e-15  6.979e-17 
   3681.468  2.547e-15  6.977e-17 
    3682.54  2.567e-15  6.966e-17 
   3683.611  2.503e-15  6.877e-17 
   3684.683  2.527e-15   6.87e-17 
   3685.755   2.55e-15  6.871e-17 
   3686.825  2.692e-15  7.012e-17 
   3687.897   2.53e-15  6.807e-17 
   3688.969  2.598e-15  6.815e-17 
   3690.041  2.527e-15  6.738e-17 
   3691.113  2.541e-15  6.815e-17 
   3692.185  2.583e-15  6.848e-17 
   3693.257  2.514e-15  6.795e-17 
   3694.328  2.501e-15  6.797e-17 
     3695.4  2.566e-15  6.802e-17 
   3696.472  2.545e-15  6.796e-17 
   3697.545  2.454e-15  6.728e-17 
   3698.616  2.583e-15  6.814e-17 
   3699.688   2.48e-15  6.767e-17 
   3700.761    2.4e-15    6.7e-17 
   3701.833   2.45e-15  6.727e-17 
   3702.905  2.489e-15  6.768e-17 
   3703.977   2.53e-15  6.777e-17 
    3705.05   2.51e-15  6.708e-17 
   3706.122  2.394e-15  6.573e-17 
   3707.194  2.467e-15  6.653e-17 
   3708.267  2.468e-15  6.622e-17 
    3709.34  2.254e-15  6.443e-17 
   3710.411  2.496e-15  6.737e-17 
   3711.484  2.405e-15  6.699e-17 
   3712.557  2.442e-15  6.792e-17 
   3713.629  2.521e-15  6.945e-17 
   3714.702  2.481e-15   6.96e-17 
   3715.775  2.455e-15  6.968e-17 
   3716.848  2.563e-15  7.107e-17 
    3717.92    2.3e-15  6.861e-17 
   3718.993  2.491e-15  6.968e-17 
   3720.066  2.478e-15  6.965e-17 
   3721.139  2.391e-15   6.83e-17 
   3722.211  2.378e-15  6.787e-17 
   3723.284  2.429e-15  6.864e-17 
   3724.358  2.406e-15  6.888e-17 
    3725.43  2.328e-15  6.857e-17 
   3726.503  2.499e-15   7.17e-17 
   3727.577  2.351e-15  7.018e-17 
    3728.65   2.32e-15  7.033e-17 
   3729.723  2.359e-15  7.036e-17 
   3730.796   2.43e-15   7.17e-17 
    3731.87  2.405e-15  7.116e-17 
   3732.942  2.382e-15  7.054e-17 
   3734.016  2.289e-15  6.908e-17 
   3735.089  2.443e-15  7.076e-17 
   3736.163   2.49e-15  7.049e-17 
   3737.236  2.465e-15  7.026e-17 
   3738.309  2.459e-15  7.029e-17 
   3739.383  2.425e-15   7.07e-17 
   3740.457  2.508e-15  7.215e-17 
    3741.53  2.443e-15  7.135e-17 
   3742.604  2.417e-15  7.129e-17 
   3743.678  2.408e-15  7.075e-17 
   3744.751  2.499e-15  7.094e-17 
   3745.825  2.351e-15   6.87e-17 
   3746.899  2.467e-15  6.961e-17 
   3747.973  2.467e-15  6.842e-17 
   3749.046  2.368e-15  6.698e-17 
    3750.12  2.516e-15  6.848e-17 
   3751.194  2.344e-15  6.635e-17 
   3752.267  2.468e-15   6.78e-17 
   3753.342  2.431e-15  6.777e-17 
   3754.416  2.476e-15  6.821e-17 
    3755.49  2.389e-15  6.794e-17 
   3756.563  2.489e-15  6.813e-17 
   3757.638  2.402e-15  6.684e-17 
   3758.712  2.458e-15  6.641e-17 
   3759.787  2.378e-15  6.499e-17 
    3760.86  2.435e-15  6.492e-17 
   3761.935  2.411e-15  6.421e-17 
   3763.009   2.36e-15  6.364e-17 
   3764.083  2.375e-15  6.337e-17 
   3765.158  2.356e-15  6.313e-17 
   3766.232  2.352e-15  6.279e-17 
   3767.307  2.339e-15   6.23e-17 
   3768.381  2.361e-15  6.232e-17 
   3769.456   2.32e-15  6.129e-17 
    3770.53  2.362e-15  6.149e-17 
   3771.604  2.324e-15  6.142e-17 
   3772.679  2.321e-15  6.114e-17 
   3773.754  2.303e-15  6.149e-17 
   3774.829  2.342e-15  6.168e-17 
   3775.903   2.25e-15  6.066e-17 
   3776.978  2.283e-15  6.069e-17 
   3778.053  2.303e-15  6.061e-17 
   3779.128  2.293e-15  6.065e-17 
   3780.202  2.263e-15  6.027e-17 
   3781.277  2.244e-15  5.995e-17 
   3782.353  2.229e-15  5.967e-17 
   3783.427  2.262e-15  5.999e-17 
   3784.502  2.244e-15  5.944e-17 
   3785.578  2.189e-15  5.887e-17 
   3786.653  2.349e-15   6.02e-17 
   3787.727  2.293e-15  5.911e-17 
   3788.803  2.255e-15  5.828e-17 
   3789.878  2.216e-15  5.766e-17 
   3790.953  2.256e-15  5.804e-17 
   3792.028   2.22e-15  5.773e-17 
   3793.104  2.196e-15   5.79e-17 
   3794.179  2.281e-15  5.851e-17 
   3795.254  2.261e-15  5.804e-17 
    3796.33  2.202e-15  5.731e-17 
   3797.405  2.246e-15   5.73e-17 
    3798.48  2.207e-15   5.67e-17 
   3799.556  2.225e-15  5.694e-17 
   3800.632   2.21e-15  5.684e-17 
   3801.707  2.224e-15  5.733e-17 
   3802.782  2.243e-15  5.816e-17 
   3803.858  2.278e-15  5.865e-17 
   3804.934  2.224e-15  5.832e-17 
    3806.01  2.171e-15  5.741e-17 
   3807.085  2.264e-15  5.843e-17 
   3808.161  2.174e-15   5.77e-17 
   3809.237  2.281e-15  5.842e-17 
   3810.312  2.268e-15  5.852e-17 
   3811.388  2.125e-15    5.7e-17 
   3812.465  2.285e-15   5.86e-17 
   3813.541  2.233e-15  5.787e-17 
   3814.616  2.283e-15  5.794e-17 
   3815.692   2.33e-15  5.799e-17 
   3816.769  2.208e-15  5.685e-17 
   3817.844  2.283e-15  5.721e-17 
    3818.92  2.234e-15  5.669e-17 
   3819.997  2.202e-15   5.63e-17 
   3821.073  2.247e-15  5.653e-17 
   3822.149  2.243e-15   5.64e-17 
   3823.225  2.159e-15   5.53e-17 
   3824.302  2.235e-15  5.559e-17 
   3825.377  2.226e-15  5.556e-17 
   3826.454  2.172e-15  5.476e-17 
    3827.53  2.219e-15  5.519e-17 
   3828.607  2.169e-15  5.464e-17 
   3829.683   2.22e-15  5.535e-17 
    3830.76  2.174e-15  5.512e-17 
   3831.836  2.105e-15  5.431e-17 
   3832.913  2.103e-15  5.426e-17 
   3833.989  2.166e-15  5.469e-17 
   3835.066  2.092e-15  5.367e-17 
   3836.143  2.137e-15  5.389e-17 
   3837.219  2.077e-15  5.332e-17 
   3838.296  2.017e-15  5.265e-17 
   3839.373  1.991e-15  5.193e-17 
    3840.45  1.979e-15  5.172e-17 
   3841.526   2.02e-15  5.217e-17 
   3842.603   2.08e-15  5.297e-17 
    3843.68  2.023e-15  5.302e-17 
   3844.756  2.043e-15  5.337e-17 
   3845.833  2.111e-15   5.42e-17 
   3846.911  1.968e-15  5.285e-17 
   3847.988  2.028e-15  5.354e-17 
   3849.064   2.02e-15  5.338e-17 
   3850.142   2.05e-15  5.368e-17 
   3851.219  2.085e-15  5.369e-17 
   3852.295  2.063e-15  5.346e-17 
   3853.373  2.097e-15  5.405e-17 
    3854.45  2.063e-15  5.355e-17 
   3855.528  2.143e-15  5.428e-17 
   3856.604  2.091e-15  5.389e-17 
   3857.682  2.034e-15  5.299e-17 
   3858.759   2.09e-15  5.316e-17 
   3859.837  2.074e-15  5.285e-17 
   3860.914  2.065e-15  5.263e-17 
   3861.991  2.144e-15  5.369e-17 
   3863.069  2.067e-15  5.338e-17 
   3864.146  2.133e-15  5.445e-17 
   3865.223   2.08e-15  5.402e-17 
   3866.301  2.079e-15  5.389e-17 
   3867.379  1.965e-15  5.302e-17 
   3868.456  2.012e-15  5.315e-17 
   3869.534  1.957e-15  5.212e-17 
   3870.612  1.964e-15  5.196e-17 
   3871.689   2.07e-15  5.281e-17 
   3872.767  1.985e-15  5.191e-17 
   3873.845  2.031e-15  5.256e-17 
   3874.923  1.985e-15  5.229e-17 
     3876.0  1.977e-15  5.267e-17 
   3877.078  2.005e-15  5.279e-17 
   3878.156   1.97e-15  5.238e-17 
   3879.233  1.971e-15  5.223e-17 
   3880.312   1.97e-15  5.206e-17 
    3881.39  2.025e-15  5.225e-17 
   3882.468  2.078e-15  5.245e-17 
   3883.545  2.036e-15  5.247e-17 
   3884.624   2.03e-15  5.252e-17 
   3885.702  2.074e-15  5.259e-17 
   3886.781  2.076e-15  5.242e-17 
   3887.858  2.009e-15   5.15e-17 
   3888.936  2.052e-15  5.161e-17 
   3890.015   2.04e-15  5.115e-17 
   3891.092  2.047e-15  5.151e-17 
   3892.171  2.042e-15  5.138e-17 
    3893.25  2.047e-15   5.16e-17 
   3894.328  1.971e-15  5.084e-17 
   3895.406  1.909e-15  5.017e-17 
   3896.485  1.964e-15  5.054e-17 
   3897.563  1.977e-15  5.062e-17 
   3898.641  1.888e-15  4.938e-17 
    3899.72  1.941e-15  4.942e-17 
   3900.799  1.896e-15  4.862e-17 
   3901.877  1.872e-15  4.826e-17 
   3902.955  1.836e-15  4.799e-17 
   3904.034  1.807e-15  4.763e-17 
   3905.113  1.855e-15  4.799e-17 
   3906.191  1.799e-15  4.756e-17 
    3907.27  1.801e-15  4.787e-17 
   3908.349   1.84e-15  4.871e-17 
   3909.428  1.826e-15  4.899e-17 
   3910.506  1.789e-15  4.911e-17 
   3911.585  1.831e-15  5.009e-17 
   3912.664  1.848e-15  5.068e-17 
   3913.742  1.791e-15  5.092e-17 
   3914.822  1.758e-15  5.058e-17 
   3915.901  1.755e-15  4.996e-17 
    3916.98  1.724e-15  4.861e-17 
   3918.058  1.783e-15  4.798e-17 
   3919.138  1.744e-15   4.66e-17 
   3920.217  1.799e-15  4.623e-17 
   3921.296  1.791e-15  4.587e-17 
   3922.375  1.771e-15  4.552e-17 
   3923.454  1.793e-15  4.555e-17 
   3924.534  1.742e-15  4.497e-17 
   3925.612  1.798e-15  4.542e-17 
   3926.692  1.796e-15  4.525e-17 
   3927.771  1.739e-15  4.421e-17 
   3928.851   1.73e-15  4.374e-17 
   3929.929  1.702e-15  4.304e-17 
   3931.009  1.743e-15   4.29e-17 
   3932.089   1.73e-15  4.245e-17 
   3933.167  1.762e-15  4.257e-17 
   3934.247  1.669e-15  4.159e-17 
   3935.327   1.65e-15  4.137e-17 
   3936.406  1.657e-15  4.146e-17 
   3937.485   1.68e-15  4.212e-17 
   3938.565  1.742e-15  4.311e-17 
   3939.645   1.72e-15  4.332e-17 
   3940.724  1.803e-15  4.445e-17 
   3941.804  1.735e-15  4.442e-17 
   3942.884  1.755e-15  4.481e-17 
   3943.964  1.726e-15  4.465e-17 
   3945.043  1.736e-15  4.512e-17 
   3946.123  1.712e-15  4.499e-17 
   3947.203  1.782e-15  4.586e-17 
   3948.282  1.742e-15  4.554e-17 
   3949.362  1.736e-15  4.549e-17 
   3950.442  1.735e-15  4.555e-17 
   3951.522  1.734e-15  4.557e-17 
   3952.601  1.717e-15  4.536e-17 
   3953.682  1.737e-15  4.553e-17 
   3954.762  1.747e-15  4.578e-17 
   3955.842  1.758e-15  4.579e-17 
   3956.922  1.717e-15  4.525e-17 
   3958.002  1.793e-15   4.57e-17 
   3959.082  1.762e-15  4.548e-17 
   3960.162  1.781e-15  4.553e-17 
   3961.242  1.781e-15  4.528e-17 
   3962.322  1.707e-15  4.434e-17 
   3963.403  1.757e-15  4.446e-17 
   3964.482  1.797e-15  4.426e-17 
   3965.563  1.742e-15  4.324e-17 
   3966.644  1.686e-15  4.232e-17 
   3967.723  1.764e-15  4.269e-17 
   3968.804  1.789e-15  4.259e-17 
   3969.884   1.83e-15  4.272e-17 
   3970.965  1.707e-15  4.192e-17 
   3972.045  1.772e-15  4.269e-17 
   3973.125  1.867e-15  4.421e-17 
   3974.206  1.814e-15  4.418e-17 
   3975.286  1.876e-15  4.525e-17 
   3976.367  1.808e-15   4.49e-17 
   3977.448  1.795e-15  4.506e-17 
   3978.528  1.841e-15  4.584e-17 
   3979.608  1.845e-15  4.629e-17 
   3980.689  1.876e-15  4.684e-17 
    3981.77  1.943e-15  4.751e-17 
    3982.85  1.839e-15  4.669e-17 
   3983.931  1.864e-15  4.677e-17 
   3985.012  1.881e-15  4.702e-17 
   3986.093  1.903e-15  4.705e-17 
   3987.173  1.868e-15  4.689e-17 
   3988.254  1.928e-15  4.756e-17 
   3989.336  1.884e-15  4.734e-17 
   3990.416  1.908e-15  4.777e-17 
   3991.497  1.904e-15  4.752e-17 
   3992.578  1.889e-15  4.783e-17 
   3993.659  1.881e-15  4.765e-17 
    3994.74  1.915e-15   4.78e-17 
   3995.821  1.895e-15  4.793e-17 
   3996.902  1.975e-15  4.841e-17 
   3997.983  1.909e-15  4.791e-17 
   3999.064  1.892e-15  4.779e-17 
   4000.145  1.931e-15  4.815e-17 
   4001.227   1.93e-15  4.814e-17 
   4002.307  1.888e-15  4.787e-17 
   4003.389  1.937e-15  4.812e-17 
    4004.47  1.999e-15  4.858e-17 
   4005.552  1.894e-15  4.758e-17 
   4006.632  1.964e-15  4.816e-17 
   4007.714   1.94e-15  4.813e-17 
   4008.795  1.974e-15  4.846e-17 
   4009.876  1.992e-15  4.886e-17 
   4010.958  1.966e-15  4.895e-17 
   4012.039   2.05e-15  4.957e-17 
   4013.121  1.994e-15  4.925e-17 
   4014.202  2.017e-15  4.959e-17 
   4015.283  2.008e-15  4.947e-17 
   4016.365   2.02e-15  4.941e-17 
   4017.446  2.046e-15  4.995e-17 
   4018.528  2.015e-15  4.999e-17 
    4019.61  1.989e-15  4.973e-17 
   4020.692  1.948e-15  4.978e-17 
   4021.772  2.044e-15  5.055e-17 
   4022.854  2.037e-15  5.077e-17 
   4023.936  1.956e-15  4.988e-17 
   4025.017  2.022e-15  5.062e-17 
   4026.099   1.98e-15  5.018e-17 
   4027.181  1.956e-15  4.985e-17 
   4028.263  1.937e-15  4.967e-17 
   4029.344  2.049e-15  5.029e-17 
   4030.427  2.001e-15   4.95e-17 
   4031.509  2.019e-15  4.956e-17 
    4032.59    2.1e-15  5.005e-17 
   4033.672  2.015e-15  4.899e-17 
   4034.754  2.105e-15  4.971e-17 
   4035.836  2.035e-15  4.923e-17 
   4036.918  2.016e-15  4.907e-17 
     4038.0  1.981e-15  4.883e-17 
   4039.082      2e-15  4.909e-17 
   4040.164  1.972e-15   4.89e-17 
   4041.246   1.94e-15  4.847e-17 
   4042.328  1.976e-15  4.879e-17 
   4043.411  2.032e-15  4.896e-17 
   4044.492  2.011e-15  4.962e-17 
   4045.575  2.016e-15  5.169e-17 
   4046.657  2.057e-15  5.356e-17 
   4047.739  2.049e-15  5.405e-17 
   4048.821  2.043e-15  5.409e-17 
   4049.904  1.961e-15  5.228e-17 
   4050.986  2.021e-15  5.072e-17 
   4052.068  1.986e-15  4.903e-17 
    4053.15  2.061e-15  4.883e-17 
   4054.233  2.027e-15   4.82e-17 
   4055.316  2.003e-15  4.796e-17 
   4056.397  2.038e-15  4.791e-17 
    4057.48  1.933e-15  4.676e-17 
   4058.563  1.992e-15  4.726e-17 
   4059.645  2.025e-15  4.753e-17 
   4060.727  1.989e-15  4.731e-17 
    4061.81  2.002e-15  4.708e-17 
   4062.893  1.998e-15  4.686e-17 
   4063.975  1.996e-15  4.658e-17 
   4065.058  2.029e-15  4.687e-17 
   4066.141   1.92e-15  4.591e-17 
   4067.223  1.994e-15  4.629e-17 
   4068.306  1.911e-15   4.59e-17 
   4069.389  1.994e-15  4.663e-17 
   4070.472   1.93e-15  4.596e-17 
   4071.554  1.925e-15  4.558e-17 
   4072.637  1.888e-15  4.514e-17 
    4073.72  1.946e-15  4.562e-17 
   4074.802  1.949e-15  4.557e-17 
   4075.885  1.981e-15  4.595e-17 
   4076.968  1.857e-15  4.503e-17 
   4078.051  1.893e-15  4.535e-17 
   4079.133  1.883e-15  4.535e-17 
   4080.217  1.884e-15  4.534e-17 
     4081.3  1.812e-15  4.453e-17 
   4082.382  1.856e-15   4.49e-17 
   4083.465  1.921e-15  4.531e-17 
   4084.549  1.876e-15   4.45e-17 
   4085.632  1.831e-15  4.405e-17 
   4086.714  1.858e-15  4.439e-17 
   4087.798  1.846e-15  4.427e-17 
   4088.881  1.815e-15  4.405e-17 
   4089.964  1.822e-15  4.421e-17 
   4091.047  1.852e-15  4.427e-17 
    4092.13  1.812e-15  4.399e-17 
   4093.214  1.757e-15  4.324e-17 
   4094.296  1.798e-15  4.375e-17 
    4095.38  1.797e-15  4.341e-17 
   4096.463  1.788e-15  4.344e-17 
   4097.546    1.8e-15  4.337e-17 
    4098.63  1.789e-15  4.324e-17 
   4099.713  1.852e-15  4.361e-17 
   4100.797  1.812e-15  4.299e-17 
    4101.88   1.86e-15  4.317e-17 
   4102.963  1.845e-15  4.289e-17 
   4104.047  1.797e-15  4.271e-17 
    4105.13  1.899e-15  4.373e-17 
   4106.213  1.912e-15  4.423e-17 
   4107.297  1.866e-15  4.414e-17 
   4108.381  1.916e-15   4.46e-17 
   4109.464  1.861e-15  4.439e-17 
   4110.548  1.874e-15  4.466e-17 
   4111.631  1.774e-15  4.384e-17 
   4112.714  1.836e-15  4.451e-17 
   4113.798  1.844e-15  4.468e-17 
   4114.882  1.802e-15  4.457e-17 
   4115.966  1.798e-15  4.478e-17 
   4117.049  1.789e-15  4.451e-17 
   4118.133   1.78e-15  4.468e-17 
   4119.217  1.777e-15  4.464e-17 
   4120.301  1.796e-15  4.456e-17 
   4121.384   1.76e-15  4.413e-17 
   4122.468  1.818e-15  4.485e-17 
   4123.552  1.797e-15  4.472e-17 
   4124.635  1.754e-15  4.426e-17 
   4125.719  1.807e-15  4.479e-17 
   4126.804  1.806e-15  4.473e-17 
   4127.888  1.813e-15  4.461e-17 
   4128.971  1.858e-15  4.466e-17 
   4130.055  1.875e-15  4.502e-17 
   4131.139   1.76e-15  4.393e-17 
   4132.223  1.757e-15  4.347e-17 
   4133.307  1.738e-15  4.341e-17 
   4134.391  1.785e-15  4.385e-17 
   4135.476  1.799e-15  4.377e-17 
   4136.559  1.706e-15  4.326e-17 
   4137.643  1.826e-15  4.417e-17 
   4138.728  1.731e-15  4.357e-17 
   4139.811  1.762e-15    4.4e-17 
   4140.896  1.761e-15  4.394e-17 
    4141.98  1.712e-15  4.334e-17 
   4143.064  1.775e-15  4.354e-17 
   4144.148  1.749e-15  4.306e-17 
   4145.232   1.71e-15  4.256e-17 
   4146.317  1.746e-15  4.284e-17 
     4147.4   1.71e-15  4.257e-17 
   4148.485  1.733e-15  4.294e-17 
    4149.57  1.793e-15  4.336e-17 
   4150.654  1.719e-15  4.279e-17 
   4151.738  1.809e-15  4.323e-17 
   4152.823  1.783e-15  4.309e-17 
   4153.907    1.7e-15  4.257e-17 
   4154.991  1.705e-15  4.262e-17 
   4156.076  1.703e-15   4.25e-17 
    4157.16  1.737e-15  4.282e-17 
   4158.245  1.734e-15  4.264e-17 
   4159.329  1.771e-15  4.326e-17 
   4160.414  1.729e-15  4.271e-17 
   4161.498  1.719e-15  4.289e-17 
   4162.582  1.756e-15  4.327e-17 
   4163.667  1.711e-15   4.32e-17 
   4164.752  1.722e-15  4.319e-17 
   4165.837  1.708e-15  4.321e-17 
   4166.921  1.756e-15  4.362e-17 
   4168.006  1.721e-15  4.294e-17 
   4169.091  1.759e-15  4.324e-17 
   4170.175  1.794e-15  4.338e-17 
   4171.259  1.696e-15  4.232e-17 
   4172.344  1.762e-15  4.272e-17 
   4173.429  1.744e-15  4.226e-17 
   4174.514  1.766e-15  4.226e-17 
   4175.599  1.782e-15  4.235e-17 
   4176.684  1.675e-15  4.158e-17 
   4177.768  1.718e-15  4.181e-17 
   4178.853   1.81e-15  4.283e-17 
   4179.938  1.708e-15  4.186e-17 
   4181.023   1.79e-15  4.254e-17 
   4182.107  1.748e-15  4.191e-17 
   4183.193  1.796e-15  4.231e-17 
   4184.278  1.755e-15  4.202e-17 
   4185.362  1.876e-15  4.293e-17 
   4186.447  1.797e-15  4.208e-17 
   4187.532  1.719e-15  4.143e-17 
   4188.618    1.8e-15  4.199e-17 
   4189.702  1.804e-15  4.214e-17 
   4190.787  1.824e-15  4.242e-17 
   4191.873  1.828e-15  4.265e-17 
   4192.957  1.766e-15  4.237e-17 
   4194.042  1.774e-15  4.244e-17 
   4195.128  1.812e-15  4.269e-17 
   4196.213  1.723e-15  4.176e-17 
   4197.298  1.826e-15   4.24e-17 
   4198.383  1.787e-15  4.228e-17 
   4199.469  1.748e-15  4.166e-17 
   4200.553  1.787e-15  4.199e-17 
   4201.639  1.822e-15  4.236e-17 
   4202.724  1.858e-15  4.292e-17 
    4203.81  1.784e-15  4.233e-17 
   4204.894  1.777e-15  4.244e-17 
    4205.98  1.766e-15  4.234e-17 
   4207.065  1.759e-15  4.252e-17 
    4208.15  1.765e-15  4.272e-17 
   4209.236  1.758e-15  4.264e-17 
   4210.321  1.773e-15  4.297e-17 
   4211.407  1.827e-15  4.329e-17 
   4212.492  1.748e-15  4.278e-17 
   4213.577  1.827e-15  4.337e-17 
   4214.663  1.794e-15  4.321e-17 
   4215.748  1.755e-15   4.29e-17 
   4216.833  1.803e-15  4.308e-17 
   4217.919  1.874e-15  4.352e-17 
   4219.005  1.765e-15  4.282e-17 
    4220.09  1.769e-15  4.303e-17 
   4221.176  1.798e-15  4.322e-17 
   4222.261  1.789e-15   4.33e-17 
   4223.346   1.81e-15  4.322e-17 
   4224.432  1.807e-15    4.3e-17 
   4225.518  1.767e-15   4.26e-17 
   4226.604  1.864e-15  4.299e-17 
   4227.689  1.871e-15  4.278e-17 
   4228.775  1.753e-15  4.203e-17 
   4229.861  1.822e-15    4.3e-17 
   4230.946  1.778e-15  4.294e-17 
   4232.032  1.785e-15  4.335e-17 
   4233.118  1.764e-15  4.304e-17 
   4234.204  1.809e-15  4.316e-17 
   4235.289  1.796e-15  4.302e-17 
   4236.375  1.765e-15  4.292e-17 
   4237.461  1.815e-15  4.322e-17 
   4238.546   1.73e-15  4.235e-17 
   4239.632  1.751e-15  4.274e-17 
   4240.718   1.76e-15  4.259e-17 
   4241.804  1.738e-15  4.249e-17 
   4242.889  1.737e-15  4.264e-17 
   4243.976  1.728e-15  4.265e-17 
   4245.062  1.758e-15  4.335e-17 
   4246.147   1.71e-15  4.314e-17 
   4247.233  1.731e-15  4.327e-17 
   4248.319   1.74e-15  4.337e-17 
   4249.406  1.745e-15  4.321e-17 
   4250.491   1.73e-15  4.266e-17 
   4251.577   1.73e-15  4.264e-17 
   4252.664  1.744e-15  4.262e-17 
   4253.749  1.773e-15  4.289e-17 
   4254.835   1.72e-15  4.236e-17 
   4255.922   1.79e-15  4.284e-17 
   4257.008  1.743e-15  4.259e-17 
   4258.093  1.806e-15  4.324e-17 
    4259.18  1.748e-15  4.235e-17 
   4260.266  1.707e-15  4.171e-17 
   4261.352   1.75e-15  4.195e-17 
   4262.438  1.747e-15   4.17e-17 
   4263.524  1.725e-15  4.171e-17 
   4264.611  1.774e-15  4.227e-17 
   4265.696  1.672e-15  4.138e-17 
   4266.783  1.684e-15   4.14e-17 
   4267.869  1.633e-15  4.091e-17 
   4268.955  1.622e-15  4.084e-17 
   4270.041  1.701e-15  4.077e-17 
   4271.128  1.654e-15  3.998e-17 
   4272.215  1.609e-15  3.935e-17 
     4273.3  1.628e-15  3.923e-17 
   4274.387  1.616e-15  3.906e-17 
   4275.473  1.612e-15  3.936e-17 
   4276.559  1.593e-15  3.926e-17 
   4277.646  1.593e-15  3.954e-17 
   4278.732  1.631e-15  3.979e-17 
   4279.819  1.537e-15  3.883e-17 
   4280.905  1.546e-15  3.852e-17 
   4281.992  1.585e-15  3.864e-17 
   4283.078  1.585e-15  3.851e-17 
   4284.164  1.528e-15  3.769e-17 
   4285.251  1.597e-15  3.842e-17 
   4286.338  1.511e-15  3.755e-17 
   4287.424  1.586e-15  3.814e-17 
    4288.51  1.555e-15   3.77e-17 
   4289.597  1.511e-15  3.706e-17 
   4290.684  1.508e-15  3.717e-17 
    4291.77   1.51e-15  3.706e-17 
   4292.856  1.487e-15  3.713e-17 
   4293.943  1.483e-15  3.713e-17 
    4295.03  1.509e-15  3.743e-17 
   4296.116   1.48e-15  3.718e-17 
   4297.203  1.493e-15   3.71e-17 
    4298.29  1.436e-15  3.645e-17 
   4299.376  1.458e-15  3.615e-17 
   4300.463  1.516e-15  3.643e-17 
    4301.55  1.471e-15  3.586e-17 
   4302.637   1.45e-15   3.56e-17 
   4303.723  1.479e-15  3.585e-17 
    4304.81  1.484e-15  3.591e-17 
   4305.897  1.474e-15  3.584e-17 
   4306.983  1.484e-15  3.605e-17 
    4308.07  1.474e-15  3.572e-17 
   4309.157  1.471e-15  3.567e-17 
   4310.244  1.472e-15  3.561e-17 
    4311.33  1.493e-15  3.607e-17 
   4312.417  1.461e-15  3.605e-17 
   4313.504  1.514e-15  3.695e-17 
   4314.591  1.449e-15  3.675e-17 
   4315.678  1.445e-15  3.719e-17 
   4316.765  1.484e-15  3.784e-17 
   4317.852  1.515e-15   3.83e-17 
   4318.938  1.436e-15  3.775e-17 
   4320.025  1.459e-15    3.8e-17 
   4321.113  1.536e-15   3.85e-17 
   4322.199  1.457e-15  3.788e-17 
   4323.286  1.477e-15  3.756e-17 
   4324.373  1.434e-15  3.682e-17 
   4325.461  1.466e-15  3.691e-17 
   4326.547   1.44e-15  3.667e-17 
   4327.634  1.447e-15  3.688e-17 
   4328.722  1.517e-15  3.765e-17 
   4329.808  1.528e-15  3.797e-17 
   4330.895  1.497e-15  3.776e-17 
   4331.983  1.457e-15  3.758e-17 
    4333.07  1.428e-15  3.726e-17 
   4334.156  1.482e-15  3.792e-17 
   4335.244  1.513e-15  3.797e-17 
   4336.331  1.487e-15  3.769e-17 
   4337.418  1.568e-15  3.829e-17 
   4338.505  1.525e-15  3.767e-17 
   4339.592  1.484e-15  3.692e-17 
    4340.68  1.525e-15  3.717e-17 
   4341.766  1.535e-15  3.724e-17 
   4342.854  1.511e-15  3.744e-17 
   4343.941  1.533e-15  3.796e-17 
   4345.028  1.527e-15   3.82e-17 
   4346.115  1.525e-15  3.838e-17 
   4347.203   1.54e-15   3.89e-17 
    4348.29  1.517e-15  3.882e-17 
   4349.377  1.548e-15  3.915e-17 
   4350.464  1.517e-15   3.87e-17 
   4351.552  1.476e-15  3.827e-17 
   4352.639  1.589e-15  3.893e-17 
   4353.726  1.569e-15  3.871e-17 
   4354.814  1.569e-15  3.881e-17 
   4355.901  1.497e-15  4.004e-17 
   4356.988  1.555e-15   4.43e-17 
   4358.076  1.546e-15  4.744e-17 
   4359.163  1.607e-15      5e-17 
    4360.25  1.565e-15  5.015e-17 
   4361.338  1.527e-15  4.748e-17 
   4362.425   1.63e-15   4.48e-17 
   4363.513  1.585e-15  4.194e-17 
     4364.6  1.601e-15  4.085e-17 
   4365.687  1.636e-15  4.061e-17 
   4366.775  1.588e-15  3.977e-17 
   4367.862  1.584e-15  3.993e-17 
    4368.95  1.659e-15  4.046e-17 
   4370.037  1.628e-15   4.01e-17 
   4371.125  1.632e-15  4.025e-17 
   4372.212   1.63e-15  4.004e-17 
     4373.3  1.666e-15  4.042e-17 
   4374.388  1.628e-15  4.003e-17 
   4375.474  1.698e-15  4.066e-17 
   4376.562  1.628e-15  4.018e-17 
    4377.65  1.566e-15   3.96e-17 
   4378.738   1.68e-15   4.05e-17 
   4379.825  1.626e-15  4.006e-17 
   4380.913  1.646e-15  3.996e-17 
   4382.001  1.694e-15  4.015e-17 
   4383.088  1.652e-15  3.964e-17 
   4384.175  1.685e-15  3.931e-17 
   4385.263  1.649e-15  3.892e-17 
   4386.351  1.673e-15  3.904e-17 
   4387.438  1.687e-15  3.934e-17 
   4388.526   1.66e-15  3.928e-17 
   4389.614  1.673e-15   3.93e-17 
   4390.701  1.757e-15  4.011e-17 
   4391.789  1.707e-15  3.964e-17 
   4392.877  1.733e-15  3.995e-17 
   4393.965  1.684e-15  3.944e-17 
   4395.052  1.695e-15   3.93e-17 
    4396.14  1.721e-15   3.98e-17 
   4397.228  1.668e-15  3.938e-17 
   4398.315  1.693e-15  3.952e-17 
   4399.403  1.753e-15   4.02e-17 
   4400.491  1.715e-15  4.002e-17 
   4401.579  1.714e-15  3.984e-17 
   4402.667   1.68e-15  3.957e-17 
   4403.755  1.724e-15  3.976e-17 
   4404.843   1.67e-15  3.924e-17 
    4405.93  1.684e-15   3.94e-17 
   4407.018  1.708e-15  3.941e-17 
   4408.106    1.7e-15  3.963e-17 
   4409.194  1.684e-15  3.956e-17 
   4410.281  1.692e-15  3.966e-17 
    4411.37  1.705e-15  3.997e-17 
   4412.458  1.731e-15  4.025e-17 
   4413.545  1.649e-15  3.944e-17 
   4414.633  1.742e-15  4.015e-17 
   4415.721  1.769e-15  4.032e-17 
   4416.809  1.739e-15  3.987e-17 
   4417.897  1.684e-15  3.966e-17 
   4418.985   1.75e-15  4.005e-17 
   4420.073   1.71e-15  3.981e-17 
    4421.16  1.745e-15  4.025e-17 
   4422.249  1.704e-15  3.961e-17 
   4423.337  1.743e-15  3.983e-17 
   4424.425  1.746e-15  3.976e-17 
   4425.512  1.715e-15  3.962e-17 
   4426.601  1.745e-15  3.984e-17 
   4427.689  1.724e-15  3.987e-17 
   4428.776  1.719e-15  3.953e-17 
   4429.865  1.744e-15  3.967e-17 
   4430.953  1.764e-15  3.983e-17 
   4432.041  1.766e-15   3.99e-17 
   4433.129  1.715e-15  3.935e-17 
   4434.217  1.704e-15   3.93e-17 
   4435.305  1.733e-15  3.944e-17 
   4436.393    1.7e-15  3.916e-17 
   4437.481  1.721e-15  3.941e-17 
    4438.57  1.722e-15  3.955e-17 
   4439.658  1.718e-15  3.946e-17 
   4440.745  1.671e-15  3.915e-17 
   4441.834  1.709e-15  3.938e-17 
   4442.922  1.742e-15  3.955e-17 
    4444.01  1.664e-15  3.897e-17 
   4445.098  1.665e-15  3.897e-17 
   4446.187  1.741e-15  3.968e-17 
   4447.275  1.713e-15  3.934e-17 
   4448.362  1.777e-15  4.002e-17 
   4449.451    1.7e-15  3.923e-17 
   4450.539   1.72e-15  3.951e-17 
   4451.627  1.677e-15  3.898e-17 
   4452.715  1.731e-15  3.949e-17 
   4453.804  1.677e-15  3.895e-17 
   4454.892  1.675e-15  3.883e-17 
    4455.98  1.667e-15  3.874e-17 
   4457.068  1.698e-15  3.881e-17 
   4458.157  1.721e-15  3.885e-17 
   4459.244  1.695e-15  3.862e-17 
   4460.333  1.668e-15  3.856e-17 
   4461.422  1.605e-15  3.813e-17 
    4462.51  1.607e-15   3.83e-17 
   4463.598  1.601e-15   3.82e-17 
   4464.686  1.634e-15  3.874e-17 
   4465.775  1.612e-15  3.823e-17 
   4466.862  1.588e-15  3.822e-17 
   4467.951  1.585e-15  3.812e-17 
    4469.04  1.686e-15   3.89e-17 
   4470.128  1.558e-15  3.777e-17 
   4471.216  1.606e-15  3.825e-17 
   4472.305  1.568e-15  3.801e-17 
   4473.393  1.595e-15  3.824e-17 
   4474.481  1.592e-15  3.827e-17 
   4475.569   1.51e-15  3.762e-17 
   4476.658  1.564e-15  3.794e-17 
   4477.746  1.583e-15  3.807e-17 
   4478.834  1.544e-15  3.769e-17 
   4479.923  1.498e-15   3.71e-17 
   4481.012  1.515e-15  3.698e-17 
     4482.1  1.508e-15  3.687e-17 
   4483.188  1.522e-15  3.697e-17 
   4484.277  1.472e-15  3.675e-17 
   4485.365  1.536e-15  3.732e-17 
   4486.453  1.498e-15  3.735e-17 
   4487.542  1.489e-15  3.728e-17 
   4488.631  1.492e-15  3.711e-17 
   4489.719  1.464e-15  3.678e-17 
   4490.807  1.466e-15   3.67e-17 
   4491.896  1.481e-15  3.688e-17 
   4492.984  1.433e-15  3.647e-17 
   4494.073  1.436e-15  3.645e-17 
   4495.161  1.478e-15  3.701e-17 
    4496.25  1.421e-15   3.65e-17 
   4497.338  1.414e-15  3.651e-17 
   4498.427  1.394e-15  3.625e-17 
   4499.515  1.392e-15  3.616e-17 
   4500.603  1.381e-15  3.608e-17 
   4501.692  1.355e-15  3.583e-17 
   4502.781  1.335e-15  3.577e-17 
    4503.87  1.351e-15   3.57e-17 
   4504.958  1.364e-15  3.588e-17 
   4506.046  1.318e-15  3.573e-17 
   4507.135  1.309e-15  3.567e-17 
   4508.223  1.331e-15  3.562e-17 
   4509.312  1.273e-15  3.522e-17 
   4510.401  1.303e-15  3.539e-17 
    4511.49  1.327e-15  3.562e-17 
   4512.577  1.261e-15    3.5e-17 
   4513.666  1.319e-15  3.561e-17 
   4514.755  1.352e-15  3.576e-17 
   4515.843  1.308e-15  3.536e-17 
   4516.932  1.298e-15  3.527e-17 
   4518.021  1.346e-15  3.578e-17 
    4519.11  1.313e-15  3.543e-17 
   4520.198  1.267e-15  3.529e-17 
   4521.287  1.288e-15  3.557e-17 
   4522.375  1.273e-15  3.529e-17 
   4523.463   1.29e-15  3.529e-17 
   4524.552  1.251e-15  3.485e-17 
   4525.641  1.266e-15  3.489e-17 
    4526.73  1.252e-15  3.433e-17 
   4527.818  1.229e-15  3.426e-17 
   4528.907  1.221e-15  3.409e-17 
   4529.996  1.194e-15  3.399e-17 
   4531.084  1.172e-15  3.368e-17 
   4532.173  1.218e-15  3.399e-17 
   4533.262  1.208e-15  3.402e-17 
   4534.351  1.219e-15  3.408e-17 
   4535.439  1.164e-15  3.355e-17 
   4536.528  1.197e-15   3.39e-17 
   4537.617  1.174e-15  3.379e-17 
   4538.705   1.16e-15  3.385e-17 
   4539.794  1.187e-15  3.415e-17 
   4540.883  1.217e-15  3.438e-17 
   4541.972  1.176e-15  3.398e-17 
    4543.06  1.165e-15  3.383e-17 
   4544.149  1.151e-15  3.379e-17 
   4545.238  1.183e-15  3.395e-17 
   4546.326  1.117e-15  3.342e-17 
   4547.415  1.112e-15  3.323e-17 
   4548.504  1.118e-15  3.306e-17 
   4549.593  1.164e-15   3.34e-17 
   4550.681  1.132e-15  3.305e-17 
    4551.77  1.136e-15  3.315e-17 
   4552.859  1.149e-15  3.332e-17 
   4553.947  1.145e-15  3.337e-17 
   4555.036  1.156e-15  3.336e-17 
   4556.125  1.136e-15  3.319e-17 
   4557.214  1.129e-15  3.327e-17 
   4558.302  1.143e-15  3.345e-17 
   4559.391  1.111e-15  3.323e-17 
    4560.48  1.169e-15  3.389e-17 
   4561.568  1.103e-15  3.327e-17 
   4562.657  1.137e-15  3.345e-17 
   4563.746  1.129e-15  3.345e-17 
   4564.834  1.121e-15  3.301e-17 
   4565.924  1.095e-15  3.289e-17 
   4567.013  1.131e-15  3.328e-17 
   4568.102   1.16e-15  3.361e-17 
    4569.19  1.121e-15  3.317e-17 
   4570.279   1.16e-15  3.372e-17 
   4571.368  1.131e-15  3.332e-17 
   4572.456  1.127e-15  3.325e-17 
   4573.545   1.15e-15  3.339e-17 
   4574.634  1.153e-15  3.348e-17 
   4575.723  1.131e-15  3.328e-17 
   4576.811  1.141e-15  3.334e-17 
   4577.901  1.147e-15  3.342e-17 
    4578.99  1.128e-15  3.312e-17 
   4580.078  1.115e-15  3.261e-17 
   4581.167  1.209e-15  3.373e-17 
   4582.256  1.125e-15  3.288e-17 
   4583.345  1.167e-15  3.305e-17 
   4584.433  1.154e-15  3.302e-17 
   4585.522  1.177e-15  3.324e-17 
   4586.612  1.184e-15  3.346e-17 
     4587.7  1.157e-15  3.317e-17 
   4588.789  1.182e-15  3.348e-17 
   4589.878  1.159e-15  3.322e-17 
   4590.967  1.168e-15  3.356e-17 
   4592.055  1.168e-15  3.344e-17 
   4593.144  1.177e-15  3.337e-17 
   4594.234  1.162e-15  3.329e-17 
   4595.322  1.201e-15  3.356e-17 
   4596.411  1.182e-15  3.349e-17 
     4597.5  1.148e-15  3.317e-17 
   4598.589    1.2e-15  3.347e-17 
   4599.677  1.198e-15  3.352e-17 
   4600.767  1.205e-15  3.349e-17 
   4601.856  1.164e-15  3.313e-17 
   4602.944  1.255e-15  3.384e-17 
   4604.033  1.179e-15  3.327e-17 
   4605.122  1.207e-15  3.355e-17 
   4606.211  1.255e-15  3.386e-17 
     4607.3   1.21e-15  3.366e-17 
   4608.389  1.195e-15  3.339e-17 
   4609.478  1.222e-15  3.395e-17 
   4610.566  1.199e-15  3.359e-17 
   4611.655   1.23e-15  3.395e-17 
   4612.744  1.243e-15  3.408e-17 
   4613.834   1.27e-15  3.434e-17 
   4614.922  1.223e-15  3.373e-17 
   4616.011  1.241e-15  3.387e-17 
     4617.1  1.188e-15  3.346e-17 
   4618.188  1.235e-15  3.389e-17 
   4619.278  1.232e-15  3.379e-17 
   4620.367  1.265e-15  3.428e-17 
   4621.456  1.304e-15  3.453e-17 
   4622.544  1.249e-15  3.416e-17 
   4623.633  1.231e-15  3.401e-17 
   4624.723  1.229e-15  3.404e-17 
   4625.811  1.274e-15  3.427e-17 
     4626.9  1.277e-15  3.434e-17 
   4627.989  1.257e-15  3.433e-17 
   4629.078  1.228e-15  3.393e-17 
   4630.166  1.268e-15  3.414e-17 
   4631.256  1.247e-15  3.384e-17 
   4632.345  1.252e-15  3.387e-17 
   4633.433  1.274e-15  3.412e-17 
   4634.522  1.259e-15    3.4e-17 
   4635.611  1.263e-15  3.408e-17 
     4636.7  1.246e-15  3.398e-17 
   4637.789  1.261e-15  3.396e-17 
   4638.878   1.25e-15  3.388e-17 
   4639.967  1.283e-15  3.421e-17 
   4641.056  1.315e-15  3.462e-17 
   4642.145  1.303e-15  3.444e-17 
   4643.234  1.298e-15  3.455e-17 
   4644.322  1.276e-15  3.401e-17 
   4645.411  1.295e-15  3.436e-17 
   4646.501  1.296e-15  3.422e-17 
    4647.59  1.263e-15  3.411e-17 
   4648.678   1.31e-15  3.437e-17 
   4649.767    1.3e-15   3.43e-17 
   4650.856  1.301e-15  3.446e-17 
   4651.945  1.329e-15  3.476e-17 
   4653.034  1.298e-15  3.471e-17 
   4654.123  1.292e-15  3.458e-17 
   4655.212  1.302e-15  3.475e-17 
     4656.3  1.304e-15  3.462e-17 
    4657.39  1.325e-15  3.488e-17 
   4658.479  1.313e-15  3.495e-17 
   4659.567  1.317e-15    3.5e-17 
   4660.656  1.337e-15  3.522e-17 
   4661.745   1.28e-15  3.475e-17 
   4662.835  1.378e-15  3.559e-17 
   4663.923  1.349e-15  3.526e-17 
   4665.012  1.313e-15  3.477e-17 
   4666.101  1.343e-15  3.499e-17 
   4667.189  1.318e-15  3.452e-17 
   4668.279  1.344e-15  3.463e-17 
   4669.368  1.369e-15  3.498e-17 
   4670.457  1.369e-15  3.502e-17 
   4671.545  1.323e-15  3.486e-17 
   4672.634  1.326e-15  3.488e-17 
   4673.724  1.357e-15  3.521e-17 
   4674.812  1.352e-15  3.514e-17 
   4675.901  1.313e-15  3.479e-17 
    4676.99  1.338e-15   3.51e-17 
   4678.079  1.339e-15  3.501e-17 
   4679.168  1.355e-15  3.496e-17 
   4680.257  1.357e-15   3.48e-17 
   4681.346  1.345e-15  3.457e-17 
   4682.434  1.367e-15  3.501e-17 
   4683.523  1.391e-15  3.526e-17 
   4684.612  1.383e-15  3.524e-17 
   4685.702  1.409e-15  3.538e-17 
    4686.79  1.369e-15  3.495e-17 
   4687.879  1.368e-15  3.509e-17 
   4688.968  1.357e-15  3.502e-17 
   4690.056  1.412e-15  3.546e-17 
   4691.146  1.346e-15  3.485e-17 
   4692.235   1.37e-15    3.5e-17 
   4693.324  1.364e-15  3.507e-17 
   4694.412  1.365e-15  3.483e-17 
   4695.501  1.351e-15  3.485e-17 
    4696.59  1.354e-15   3.49e-17 
   4697.679  1.412e-15  3.557e-17 
   4698.768  1.353e-15  3.494e-17 
   4699.857  1.408e-15  3.543e-17 
   4700.945  1.414e-15  3.554e-17 
   4702.034  1.412e-15  3.568e-17 
   4703.123  1.389e-15  3.537e-17 
   4704.212  1.411e-15  3.554e-17 
   4705.301   1.42e-15  3.585e-17 
    4706.39  1.416e-15  3.588e-17 
   4707.479   1.42e-15  3.587e-17 
   4708.567  1.423e-15  3.609e-17 
   4709.656  1.376e-15  3.581e-17 
   4710.745  1.447e-15  3.654e-17 
   4711.834  1.477e-15  3.664e-17 
   4712.923  1.446e-15   3.64e-17 
   4714.012  1.436e-15  3.636e-17 
   4715.101  1.455e-15  3.645e-17 
   4716.189  1.449e-15  3.639e-17 
   4717.278  1.451e-15  3.638e-17 
   4718.367  1.423e-15  3.614e-17 
   4719.456  1.455e-15  3.655e-17 
   4720.544  1.456e-15  3.649e-17 
   4721.633  1.449e-15  3.642e-17 
   4722.723  1.433e-15  3.653e-17 
   4723.811  1.449e-15  3.647e-17 
     4724.9  1.472e-15  3.669e-17 
   4725.989  1.467e-15  3.659e-17 
   4727.078  1.406e-15  3.627e-17 
   4728.166  1.425e-15  3.636e-17 
   4729.255  1.429e-15  3.624e-17 
   4730.344  1.428e-15  3.623e-17 
   4731.432  1.387e-15  3.608e-17 
   4732.521  1.471e-15  3.678e-17 
    4733.61  1.453e-15   3.67e-17 
     4734.7  1.452e-15  3.652e-17 
   4735.788  1.419e-15   3.64e-17 
   4736.877  1.381e-15  3.596e-17 
   4737.966  1.442e-15  3.647e-17 
   4739.054  1.396e-15  3.599e-17 
   4740.143  1.464e-15  3.686e-17 
   4741.232  1.431e-15  3.662e-17 
   4742.321  1.479e-15   3.71e-17 
   4743.409  1.415e-15  3.671e-17 
   4744.498  1.401e-15  3.656e-17 
   4745.587  1.437e-15  3.664e-17 
   4746.675  1.424e-15  3.654e-17 
   4747.764  1.424e-15  3.621e-17 
   4748.853  1.372e-15  3.563e-17 
   4749.942  1.426e-15  3.595e-17 
    4751.03  1.422e-15  3.598e-17 
   4752.119  1.432e-15  3.617e-17 
   4753.208  1.451e-15  3.621e-17 
   4754.296  1.413e-15  3.584e-17 
   4755.385  1.398e-15  3.592e-17 
   4756.474   1.39e-15  3.564e-17 
   4757.562  1.381e-15   3.56e-17 
   4758.651  1.425e-15  3.591e-17 
    4759.74  1.391e-15  3.579e-17 
   4760.829  1.379e-15   3.55e-17 
   4761.917  1.433e-15  3.608e-17 
   4763.006  1.365e-15  3.538e-17 
   4764.095   1.37e-15  3.532e-17 
   4765.183  1.383e-15  3.536e-17 
   4766.272  1.345e-15  3.503e-17 
   4767.361   1.38e-15  3.501e-17 
    4768.45  1.384e-15  3.526e-17 
   4769.538  1.314e-15  3.479e-17 
   4770.627   1.35e-15  3.523e-17 
   4771.716  1.368e-15  3.536e-17 
   4772.803  1.391e-15  3.544e-17 
   4773.892  1.355e-15  3.533e-17 
   4774.981  1.327e-15  3.497e-17 
    4776.07  1.355e-15  3.542e-17 
   4777.158  1.277e-15  3.471e-17 
   4778.247  1.327e-15   3.51e-17 
   4779.336  1.352e-15  3.555e-17 
   4780.424  1.368e-15  3.585e-17 
   4781.513  1.388e-15    3.6e-17 
   4782.601  1.355e-15  3.545e-17 
    4783.69  1.321e-15  3.505e-17 
   4784.778  1.308e-15   3.48e-17 
   4785.867  1.263e-15  3.433e-17 
   4786.956  1.305e-15  3.466e-17 
   4788.044  1.311e-15  3.474e-17 
   4789.133  1.295e-15  3.437e-17 
   4790.221  1.285e-15  3.446e-17 
    4791.31  1.263e-15  3.409e-17 
   4792.398  1.263e-15  3.426e-17 
   4793.487  1.238e-15  3.414e-17 
   4794.576  1.236e-15  3.411e-17 
   4795.664  1.253e-15  3.427e-17 
   4796.752  1.246e-15  3.411e-17 
   4797.841  1.234e-15  3.393e-17 
    4798.93    1.2e-15  3.333e-17 
   4800.018  1.222e-15  3.371e-17 
   4801.106  1.235e-15   3.38e-17 
   4802.195  1.235e-15  3.372e-17 
   4803.283  1.146e-15  3.298e-17 
   4804.372  1.217e-15  3.351e-17 
   4805.461  1.217e-15  3.359e-17 
   4806.549  1.212e-15   3.35e-17 
   4807.637  1.238e-15  3.377e-17 
   4808.726  1.191e-15  3.333e-17 
   4809.814  1.175e-15  3.318e-17 
   4810.902  1.199e-15  3.327e-17 
   4811.991  1.173e-15  3.318e-17 
    4813.08  1.145e-15  3.277e-17 
   4814.167  1.151e-15  3.297e-17 
   4815.256  1.154e-15  3.313e-17 
   4816.345  1.143e-15  3.319e-17 
   4817.433  1.162e-15  3.328e-17 
   4818.521  1.123e-15  3.301e-17 
    4819.61  1.085e-15  3.235e-17 
   4820.698  1.208e-15  3.373e-17 
   4821.786  1.132e-15   3.31e-17 
   4822.875   1.12e-15  3.295e-17 
   4823.963  1.069e-15  3.242e-17 
   4825.052  1.113e-15  3.273e-17 
    4826.14  1.144e-15  3.303e-17 
   4827.228  1.132e-15   3.29e-17 
   4828.317  1.104e-15  3.266e-17 
   4829.404  1.092e-15  3.253e-17 
   4830.493  1.083e-15  3.245e-17 
   4831.582  1.147e-15  3.298e-17 
    4832.67  1.149e-15   3.32e-17 
   4833.758  1.115e-15  3.276e-17 
   4834.846   1.08e-15  3.255e-17 
   4835.935  1.074e-15  3.256e-17 
   4837.022   1.09e-15  3.258e-17 
   4838.111  1.045e-15  3.206e-17 
   4839.199  1.063e-15  3.242e-17 
   4840.288  1.052e-15  3.223e-17 
   4841.376  1.021e-15  3.207e-17 
   4842.464  1.107e-15  3.256e-17 
   4843.553  1.115e-15  3.286e-17 
    4844.64  1.073e-15  3.228e-17 
   4845.729  1.042e-15  3.207e-17 
   4846.817  1.043e-15  3.209e-17 
   4847.905  1.017e-15  3.183e-17 
   4848.993  1.053e-15  3.239e-17 
   4850.081  1.055e-15  3.232e-17 
    4851.17   1.08e-15  3.252e-17 
   4852.257  1.024e-15   3.19e-17 
   4853.346  1.026e-15  3.198e-17 
   4854.434  1.041e-15  3.215e-17 
   4855.523  1.032e-15  3.203e-17 
    4856.61   1.04e-15  3.177e-17 
   4857.698  1.047e-15  3.205e-17 
   4858.787  1.028e-15   3.17e-17 
   4859.874  1.031e-15  3.165e-17 
   4860.963  1.027e-15  3.134e-17 
   4862.051  1.043e-15  3.149e-17 
   4863.138  9.788e-16  3.084e-17 
   4864.227  1.025e-15  3.152e-17 
   4865.315   1.02e-15  3.152e-17 
   4866.403  1.004e-15  3.147e-17 
   4867.491   1.01e-15  3.176e-17 
   4868.579   1.03e-15  3.222e-17 
   4869.667  1.023e-15  3.222e-17 
   4870.754   1.04e-15  3.223e-17 
   4871.843  1.035e-15  3.196e-17 
   4872.931   1.04e-15  3.219e-17 
   4874.019  9.892e-16  3.179e-17 
   4875.107  9.978e-16   3.18e-17 
   4876.195  1.015e-15   3.22e-17 
   4877.283  1.022e-15  3.231e-17 
    4878.37   1.03e-15  3.225e-17 
   4879.459  1.033e-15  3.235e-17 
   4880.547  1.012e-15  3.216e-17 
   4881.635  1.053e-15  3.258e-17 
   4882.722  1.053e-15  3.272e-17 
    4883.81  1.033e-15  3.231e-17 
   4884.898  1.033e-15  3.216e-17 
   4885.986  1.013e-15  3.204e-17 
   4887.074  1.074e-15  3.253e-17 
   4888.162  1.056e-15  3.226e-17 
    4889.25  1.094e-15  3.291e-17 
   4890.337   1.05e-15  3.216e-17 
   4891.425  1.029e-15  3.173e-17 
   4892.513  1.002e-15  3.156e-17 
   4893.601   1.04e-15  3.212e-17 
   4894.689  1.055e-15  3.233e-17 
   4895.777  1.081e-15  3.266e-17 
   4896.865  1.066e-15  3.261e-17 
   4897.952  1.034e-15  3.241e-17 
    4899.04   1.04e-15  3.248e-17 
   4900.128  1.077e-15  3.275e-17 
   4901.215  1.035e-15  3.219e-17 
   4902.303  1.066e-15  3.251e-17 
   4903.391  1.067e-15  3.245e-17 
   4904.479  1.096e-15  3.268e-17 
   4905.566  1.042e-15  3.234e-17 
   4906.654   1.01e-15   3.19e-17 
   4907.742  1.015e-15  3.198e-17 
   4908.829  1.088e-15   3.25e-17 
   4909.917  1.033e-15  3.196e-17 
   4911.005  1.073e-15  3.221e-17 
   4912.093  1.089e-15  3.263e-17 
    4913.18  1.087e-15  3.241e-17 
   4914.267  1.097e-15   3.27e-17 
   4915.355   1.11e-15  3.286e-17 
   4916.442  1.112e-15  3.274e-17 
    4917.53  1.101e-15  3.262e-17 
   4918.618    1.1e-15  3.244e-17 
   4919.705  1.067e-15  3.198e-17 
   4920.793  1.122e-15  3.234e-17 
    4921.88  1.088e-15  3.205e-17 
   4922.968  1.106e-15  3.214e-17 
   4924.055  1.118e-15   3.24e-17 
   4925.143  1.116e-15  3.251e-17 
   4926.231  1.115e-15  3.256e-17 
   4927.317   1.14e-15  3.275e-17 
   4928.405  1.148e-15  3.278e-17 
   4929.493  1.141e-15  3.285e-17 
   4930.581  1.112e-15  3.241e-17 
   4931.667  1.121e-15  3.249e-17 
   4932.755   1.15e-15  3.272e-17 
   4933.843  1.125e-15  3.255e-17 
   4934.929  1.184e-15   3.31e-17 
   4936.017  1.131e-15  3.248e-17 
   4937.105  1.164e-15  3.286e-17 
   4938.192  1.149e-15  3.266e-17 
   4939.279  1.124e-15  3.228e-17 
   4940.367  1.186e-15  3.271e-17 
   4941.454  1.191e-15  3.295e-17 
   4942.541  1.173e-15  3.288e-17 
   4943.629  1.148e-15  3.252e-17 
   4944.716  1.151e-15  3.267e-17 
   4945.804  1.181e-15  3.296e-17 
    4946.89  1.177e-15  3.275e-17 
   4947.978  1.163e-15  3.275e-17 
   4949.065  1.196e-15  3.301e-17 
   4950.152  1.197e-15  3.318e-17 
   4951.239  1.229e-15  3.321e-17 
   4952.327  1.214e-15  3.327e-17 
   4953.414  1.174e-15  3.283e-17 
   4954.501  1.216e-15  3.343e-17 
   4955.588  1.215e-15  3.316e-17 
   4956.676  1.234e-15  3.311e-17 
   4957.762  1.222e-15  3.295e-17 
    4958.85   1.19e-15  3.255e-17 
   4959.937  1.233e-15  3.309e-17 
   4961.025  1.195e-15  3.285e-17 
   4962.111  1.239e-15  3.327e-17 
   4963.198  1.202e-15  3.288e-17 
   4964.286  1.231e-15  3.309e-17 
   4965.372  1.262e-15  3.352e-17 
   4966.459  1.228e-15  3.302e-17 
   4967.547   1.27e-15  3.356e-17 
   4968.633  1.233e-15  3.278e-17 
    4969.72  1.278e-15  3.363e-17 
   4970.808  1.197e-15  3.275e-17 
   4971.895  1.242e-15  3.332e-17 
   4972.981  1.243e-15  3.333e-17 
   4974.068  1.272e-15  3.385e-17 
   4975.156  1.283e-15  3.386e-17 
   4976.242  1.253e-15  3.382e-17 
   4977.329  1.251e-15  3.363e-17 
   4978.416  1.293e-15  3.418e-17 
   4979.503    1.3e-15  3.431e-17 
    4980.59  1.249e-15  3.381e-17 
   4981.677  1.244e-15  3.386e-17 
   4982.764  1.285e-15  3.416e-17 
    4983.85  1.297e-15  3.429e-17 
   4984.937  1.257e-15   3.38e-17 
   4986.024  1.311e-15  3.427e-17 
   4987.111  1.334e-15  3.458e-17 
   4988.197  1.325e-15  3.448e-17 
   4989.284  1.335e-15  3.447e-17 
   4990.371  1.336e-15  3.447e-17 
   4991.457  1.295e-15  3.399e-17 
   4992.544  1.294e-15    3.4e-17 
   4993.632  1.323e-15  3.406e-17 
   4994.718  1.335e-15   3.41e-17 
   4995.804  1.346e-15   3.41e-17 
   4996.891  1.336e-15  3.395e-17 
   4997.978  1.349e-15  3.408e-17 
   4999.064  1.307e-15  3.354e-17 
   5000.151    1.3e-15  3.358e-17 
   5001.238  1.335e-15  3.371e-17 
   5002.325  1.363e-15  3.391e-17 
   5003.411  1.352e-15  3.378e-17 
   5004.498   1.38e-15  3.404e-17 
   5005.585  1.306e-15  3.345e-17 
    5006.67  1.364e-15   3.38e-17 
   5007.757  1.306e-15  3.322e-17 
   5008.844  1.353e-15  3.376e-17 
   5009.931  1.328e-15  3.357e-17 
   5011.017  1.334e-15   3.36e-17 
   5012.103  1.358e-15   3.38e-17 
    5013.19  1.395e-15  3.413e-17 
   5014.276  1.301e-15  3.306e-17 
   5015.363  1.336e-15  3.345e-17 
   5016.449  1.309e-15  3.315e-17 
   5017.535   1.33e-15  3.342e-17 
   5018.622  1.359e-15  3.373e-17 
   5019.708  1.364e-15  3.389e-17 
   5020.795  1.385e-15  3.413e-17 
   5021.881  1.339e-15  3.357e-17 
   5022.967  1.357e-15  3.372e-17 
   5024.054  1.369e-15  3.384e-17 
   5025.139  1.379e-15  3.384e-17 
   5026.226  1.333e-15   3.34e-17 
   5027.313  1.345e-15  3.354e-17 
   5028.399   1.37e-15  3.385e-17 
   5029.485  1.339e-15  3.357e-17 
   5030.571  1.392e-15  3.414e-17 
   5031.658   1.39e-15  3.416e-17 
   5032.743  1.405e-15  3.427e-17 
    5033.83  1.383e-15  3.424e-17 
   5034.916   1.35e-15  3.359e-17 
   5036.002  1.394e-15  3.399e-17 
   5037.088  1.361e-15  3.382e-17 
   5038.174  1.378e-15  3.376e-17 
   5039.261  1.344e-15  3.357e-17 
   5040.346  1.375e-15  3.374e-17 
   5041.432   1.33e-15  3.337e-17 
   5042.519  1.364e-15  3.371e-17 
   5043.605  1.315e-15  3.316e-17 
    5044.69    1.4e-15  3.402e-17 
   5045.777  1.342e-15  3.363e-17 
   5046.863  1.316e-15  3.341e-17 
   5047.948  1.341e-15  3.387e-17 
   5049.034  1.314e-15  3.341e-17 
   5050.121  1.325e-15  3.341e-17 
   5051.207  1.309e-15  3.315e-17 
   5052.292  1.346e-15  3.361e-17 
   5053.378   1.36e-15  3.359e-17 
   5054.464  1.345e-15  3.376e-17 
   5055.549  1.333e-15  3.366e-17 
   5056.636  1.332e-15  3.353e-17 
   5057.722  1.325e-15   3.35e-17 
   5058.808  1.287e-15  3.334e-17 
   5059.893   1.33e-15  3.366e-17 
   5060.979  1.327e-15  3.357e-17 
   5062.065  1.336e-15  3.387e-17 
    5063.15  1.329e-15  3.386e-17 
   5064.236  1.339e-15  3.393e-17 
   5065.322  1.341e-15  3.391e-17 
   5066.407  1.339e-15  3.404e-17 
   5067.493  1.307e-15  3.374e-17 
   5068.579  1.251e-15  3.318e-17 
   5069.665    1.3e-15  3.382e-17 
    5070.75  1.285e-15   3.37e-17 
   5071.836  1.253e-15  3.345e-17 
   5072.921  1.366e-15  3.426e-17 
   5074.006  1.297e-15  3.357e-17 
   5075.092  1.283e-15  3.331e-17 
   5076.178  1.303e-15  3.348e-17 
   5077.264  1.321e-15  3.373e-17 
   5078.349  1.295e-15  3.354e-17 
   5079.434  1.271e-15  3.323e-17 
    5080.52  1.287e-15  3.371e-17 
   5081.605  1.334e-15  3.431e-17 
   5082.691  1.306e-15  3.435e-17 
   5083.776  1.343e-15  3.484e-17 
   5084.862  1.282e-15  3.458e-17 
   5085.947  1.273e-15  3.463e-17 
   5087.032  1.233e-15  3.418e-17 
   5088.118  1.243e-15  3.411e-17 
   5089.202   1.31e-15  3.463e-17 
   5090.288  1.322e-15  3.461e-17 
   5091.374   1.32e-15   3.43e-17 
   5092.459  1.284e-15  3.366e-17 
   5093.544  1.239e-15  3.326e-17 
   5094.629  1.264e-15  3.346e-17 
   5095.715  1.266e-15  3.336e-17 
   5096.799  1.276e-15  3.348e-17 
   5097.885  1.215e-15   3.31e-17 
    5098.97  1.271e-15  3.362e-17 
   5100.056   1.26e-15  3.357e-17 
    5101.14  1.225e-15  3.324e-17 
   5102.225  1.275e-15  3.371e-17 
   5103.311  1.196e-15  3.284e-17 
   5104.395  1.269e-15  3.344e-17 
   5105.481   1.24e-15  3.305e-17 
   5106.566  1.251e-15  3.298e-17 
   5107.651  1.243e-15  3.293e-17 
   5108.735  1.252e-15  3.305e-17 
   5109.821  1.234e-15  3.274e-17 
   5110.906  1.203e-15  3.261e-17 
    5111.99  1.273e-15  3.336e-17 
   5113.075  1.203e-15  3.281e-17 
   5114.161  1.224e-15  3.289e-17 
   5115.245  1.244e-15  3.315e-17 
    5116.33  1.248e-15  3.337e-17 
   5117.415  1.241e-15  3.343e-17 
     5118.5   1.22e-15  3.298e-17 
   5119.584  1.243e-15  3.321e-17 
   5120.669  1.205e-15  3.275e-17 
   5121.754  1.263e-15  3.319e-17 
   5122.838  1.204e-15  3.255e-17 
   5123.923  1.199e-15  3.241e-17 
   5125.008  1.196e-15  3.247e-17 
   5126.093  1.249e-15  3.294e-17 
   5127.177  1.234e-15  3.281e-17 
   5128.262  1.231e-15   3.28e-17 
   5129.347  1.196e-15   3.24e-17 
   5130.431   1.19e-15  3.251e-17 
   5131.516  1.225e-15  3.293e-17 
   5132.601   1.21e-15  3.276e-17 
   5133.686   1.16e-15  3.226e-17 
    5134.77  1.151e-15  3.215e-17 
   5135.854  1.159e-15  3.224e-17 
   5136.939  1.217e-15  3.275e-17 
   5138.023  1.147e-15  3.208e-17 
   5139.108  1.219e-15  3.265e-17 
   5140.192  1.167e-15  3.224e-17 
   5141.277  1.179e-15  3.235e-17 
   5142.361  1.177e-15  3.217e-17 
   5143.446  1.162e-15  3.223e-17 
    5144.53  1.116e-15   3.17e-17 
   5145.614  1.177e-15  3.243e-17 
   5146.698  1.172e-15  3.252e-17 
   5147.783  1.185e-15  3.259e-17 
   5148.868   1.18e-15  3.265e-17 
   5149.951  1.166e-15  3.248e-17 
   5151.036  1.159e-15  3.238e-17 
    5152.12  1.187e-15  3.297e-17 
   5153.204  1.152e-15  3.256e-17 
   5154.288  1.123e-15  3.224e-17 
   5155.373   1.18e-15  3.283e-17 
   5156.457   1.16e-15  3.271e-17 
    5157.54  1.137e-15   3.24e-17 
   5158.625  1.162e-15  3.252e-17 
   5159.709  1.151e-15  3.236e-17 
   5160.793  1.163e-15  3.263e-17 
   5161.877  1.152e-15  3.249e-17 
   5162.961  1.145e-15  3.224e-17 
   5164.045  1.135e-15   3.21e-17 
   5165.129  1.169e-15  3.235e-17 
   5166.213  1.124e-15   3.17e-17 
   5167.297  1.145e-15  3.178e-17 
    5168.38  1.113e-15  3.163e-17 
   5169.465  1.103e-15  3.149e-17 
   5170.549   1.11e-15  3.138e-17 
   5171.632   1.08e-15  3.127e-17 
   5172.716   1.12e-15  3.163e-17 
     5173.8  1.137e-15   3.17e-17 
   5174.884  1.127e-15   3.17e-17 
   5175.967  1.097e-15  3.163e-17 
   5177.051  1.098e-15  3.176e-17 
   5178.135  1.103e-15  3.211e-17 
   5179.218  1.115e-15  3.212e-17 
   5180.302   1.11e-15  3.211e-17 
   5181.386  1.091e-15  3.183e-17 
    5182.47  1.105e-15  3.178e-17 
   5183.553  1.085e-15  3.163e-17 
   5184.637  1.072e-15  3.133e-17 
   5185.721  1.086e-15  3.156e-17 
   5186.804  1.104e-15  3.155e-17 
   5187.887  1.113e-15  3.219e-17 
   5188.971  1.058e-15  3.161e-17 
   5190.055  1.113e-15  3.236e-17 
   5191.138  1.134e-15  3.258e-17 
   5192.221  1.108e-15  3.233e-17 
   5193.305  1.114e-15  3.236e-17 
   5194.388  1.052e-15  3.188e-17 
   5195.471  1.149e-15  3.284e-17 
   5196.555  1.108e-15  3.304e-17 
   5197.639  1.078e-15  3.334e-17 
   5198.721  1.079e-15  3.407e-17 
   5199.805  1.047e-15   3.38e-17 
   5200.888  1.087e-15  3.412e-17 
   5201.971  1.072e-15  3.354e-17 
   5203.054  1.088e-15  3.337e-17 
   5204.138  1.066e-15  3.281e-17 
   5205.221  1.031e-15  3.217e-17 
   5206.304  1.105e-15  3.265e-17 
   5207.387  1.086e-15  3.249e-17 
   5208.471   1.09e-15  3.253e-17 
   5209.553  1.054e-15  3.227e-17 
   5210.636  1.086e-15  3.251e-17 
    5211.72  1.076e-15  3.251e-17 
   5212.803  1.069e-15  3.273e-17 
   5213.885  1.067e-15   3.27e-17 
   5214.969  1.059e-15  3.267e-17 
   5216.052  1.076e-15  3.272e-17 
   5217.134  1.089e-15  3.269e-17 
   5218.217  1.105e-15  3.318e-17 
     5219.3  1.053e-15  3.244e-17 
   5220.384  1.095e-15  3.326e-17 
   5221.466  1.077e-15  3.295e-17 
   5222.549  1.032e-15  3.247e-17 
   5223.632   1.09e-15  3.292e-17 
   5224.714  1.072e-15  3.275e-17 
   5225.797  1.081e-15  3.276e-17 
    5226.88  1.088e-15  3.278e-17 
   5227.962  1.049e-15  3.245e-17 
   5229.045   1.08e-15  3.264e-17 
   5230.128  1.011e-15   3.19e-17 
   5231.211  1.102e-15  3.311e-17 
   5232.293  1.078e-15  3.272e-17 
   5233.375   1.07e-15  3.278e-17 
   5234.458  1.083e-15  3.263e-17 
    5235.54  1.078e-15  3.278e-17 
   5236.623  1.066e-15  3.268e-17 
   5237.706  1.069e-15  3.292e-17 
   5238.788  1.083e-15  3.322e-17 
    5239.87      1e-15  3.227e-17 
   5240.953  1.066e-15  3.289e-17 
   5242.036  1.027e-15  3.244e-17 
   5243.117  1.096e-15   3.31e-17 
     5244.2  1.067e-15  3.301e-17 
   5245.282  1.076e-15  3.292e-17 
   5246.365  1.078e-15  3.284e-17 
   5247.447  1.081e-15  3.317e-17 
   5248.529  1.028e-15  3.249e-17 
   5249.612  1.076e-15  3.301e-17 
   5250.693  1.083e-15  3.293e-17 
   5251.775  1.025e-15  3.257e-17 
   5252.858  1.074e-15  3.294e-17 
    5253.94   1.11e-15  3.336e-17 
   5255.022  1.111e-15  3.365e-17 
   5256.104  1.071e-15  3.312e-17 
   5257.186  1.063e-15  3.289e-17 
   5258.268  1.104e-15  3.357e-17 
    5259.35  1.076e-15  3.338e-17 
   5260.432  1.029e-15  3.276e-17 
   5261.515  1.072e-15  3.336e-17 
   5262.596  1.122e-15  3.367e-17 
   5263.678  1.091e-15   3.32e-17 
    5264.76  1.046e-15  3.258e-17 
   5265.841  1.074e-15  3.285e-17 
   5266.923  1.076e-15  3.281e-17 
   5268.005  1.107e-15  3.307e-17 
   5269.087  1.063e-15  3.266e-17 
   5270.169  1.061e-15  3.271e-17 
   5271.251   1.12e-15  3.349e-17 
   5272.333  1.076e-15  3.288e-17 
   5273.413  1.082e-15  3.289e-17 
   5274.495  1.051e-15  3.275e-17 
   5275.577  1.083e-15  3.313e-17 
   5276.659   1.01e-15  3.219e-17 
    5277.74  1.029e-15  3.253e-17 
   5278.822  1.067e-15  3.303e-17 
   5279.904  1.065e-15  3.307e-17 
   5280.985  1.018e-15  3.257e-17 
   5282.066   1.04e-15  3.275e-17 
   5283.148  1.068e-15  3.289e-17 
   5284.229  1.039e-15  3.264e-17 
    5285.31  1.065e-15  3.296e-17 
   5286.392  1.075e-15  3.316e-17 
   5287.474  1.055e-15  3.318e-17 
   5288.554  1.054e-15  3.293e-17 
   5289.636  1.031e-15  3.265e-17 
   5290.717  1.029e-15   3.27e-17 
   5291.798  1.033e-15   3.26e-17 
   5292.879  1.059e-15  3.295e-17 
   5293.961  1.056e-15  3.314e-17 
   5295.042  1.018e-15  3.266e-17 
   5296.123   1.03e-15  3.266e-17 
   5297.204  1.056e-15  3.301e-17 
   5298.286  1.068e-15  3.313e-17 
   5299.366  9.928e-16  3.227e-17 
   5300.447  1.033e-15  3.282e-17 
   5301.529  9.942e-16  3.247e-17 
    5302.61  1.048e-15  3.317e-17 
    5303.69  1.029e-15  3.297e-17 
   5304.771  1.061e-15  3.328e-17 
   5305.852  1.023e-15  3.297e-17 
   5306.933  1.038e-15   3.32e-17 
   5308.014  9.951e-16  3.271e-17 
   5309.095    9.9e-16  3.277e-17 
   5310.176  1.005e-15  3.291e-17 
   5311.256  1.012e-15  3.309e-17 
   5312.337  1.046e-15  3.358e-17 
   5313.418   1.05e-15  3.385e-17 
   5314.498   1.03e-15  3.359e-17 
   5315.579  1.025e-15  3.327e-17 
    5316.66  9.795e-16  3.287e-17 
   5317.741  1.046e-15  3.363e-17 
   5318.821  1.049e-15  3.381e-17 
   5319.901  1.038e-15  3.361e-17 
   5320.982  1.036e-15  3.383e-17 
   5322.062  1.048e-15  3.385e-17 
   5323.143  1.014e-15  3.369e-17 
   5324.223  1.018e-15  3.376e-17 
   5325.304  9.964e-16  3.338e-17 
   5326.384  1.037e-15  3.376e-17 
   5327.465  9.557e-16  3.279e-17 
   5328.545   9.87e-16  3.338e-17 
   5329.625  1.025e-15  3.404e-17 
   5330.705  1.056e-15   3.45e-17 
   5331.786  9.709e-16  3.371e-17 
   5332.866  1.018e-15   3.45e-17 
   5333.946  9.677e-16  3.373e-17 
   5335.026   9.82e-16  3.409e-17 
   5336.107  1.036e-15  3.468e-17 
   5337.186  9.911e-16  3.434e-17 
   5338.266  1.026e-15  3.499e-17 
   5339.347  9.751e-16  3.435e-17 
   5340.427  1.006e-15  3.475e-17 
   5341.506   1.01e-15  3.473e-17 
   5342.587  9.745e-16   3.46e-17 
   5343.667  9.619e-16  3.433e-17 
   5344.746  9.795e-16  3.482e-17 
   5345.826   1.03e-15   3.55e-17 
   5346.906   9.81e-16  3.497e-17 
   5347.986  1.006e-15  3.546e-17 
   5349.066  9.953e-16  3.541e-17 
   5350.146  9.888e-16  3.551e-17 
   5351.226  9.814e-16   3.56e-17 
   5352.305  9.886e-16  3.583e-17 
   5353.385   9.83e-16   3.58e-17 
   5354.465  1.052e-15   3.66e-17 
   5355.544    1.1e-15  3.777e-17 
   5356.623  1.111e-15  3.812e-17 
   5357.703  1.062e-15  3.743e-17 
   5358.783  1.034e-15  3.703e-17 
   5359.862  9.793e-16  3.645e-17 
   5360.942  1.003e-15  3.627e-17 
   5362.022  9.296e-16  3.533e-17 
     5363.1  9.581e-16  3.588e-17 
    5364.18  9.871e-16  3.639e-17 
    5365.26  9.222e-16  3.533e-17 
   5366.339  9.312e-16   3.56e-17 
   5367.418  9.714e-16  3.636e-17 
   5368.497  9.443e-16  3.637e-17 
   5369.577  9.527e-16   3.62e-17 
   5370.655  9.297e-16  3.581e-17 
   5371.735  9.327e-16  3.597e-17 
   5372.814  9.229e-16  3.613e-17 
   5373.894  8.805e-16  3.608e-17 
   5374.972  9.398e-16   3.68e-17 
   5376.052  9.199e-16   3.66e-17 
   5377.131  9.025e-16  3.661e-17 
   5378.209  9.056e-16  3.699e-17 
   5379.289  9.282e-16  3.712e-17 
   5380.368  9.794e-16  3.768e-17 
   5381.447  9.445e-16  3.719e-17 
   5382.525  9.064e-16  3.684e-17 
   5383.604  9.592e-16  3.753e-17 
   5384.684  9.078e-16  3.694e-17 
   5385.762   9.06e-16  3.682e-17 
   5386.841  9.754e-16  3.815e-17 
    5387.92  8.924e-16  3.714e-17 
   5388.999  9.244e-16  3.764e-17 
   5390.077  9.234e-16  3.798e-17 
   5391.156  9.614e-16   3.86e-17 
   5392.235  9.008e-16  3.797e-17 
   5393.313  9.119e-16  3.838e-17 
   5394.391  9.132e-16  3.822e-17 
    5395.47  9.638e-16  3.894e-17 
   5396.549  9.156e-16  3.181e-17 
   5397.627  8.982e-16  3.153e-17 
   5398.706  9.159e-16  3.161e-17 
   5399.784  9.026e-16  3.133e-17 
   5400.862   8.94e-16   3.12e-17 
   5401.941  9.068e-16  3.142e-17 
   5403.019  8.823e-16  3.113e-17 
   5404.098  8.875e-16  3.091e-17 
   5405.175  9.031e-16  3.114e-17 
   5406.254  8.905e-16  3.112e-17 
   5407.332  8.884e-16  3.088e-17 
    5408.41  8.612e-16  3.046e-17 
   5409.488  8.814e-16   3.07e-17 
   5410.567  8.809e-16  3.096e-17 
   5411.644  8.671e-16  3.093e-17 
   5412.722  8.556e-16   3.06e-17 
   5413.801  8.654e-16   3.05e-17 
   5414.879  8.549e-16  3.044e-17 
   5415.956  8.829e-16    3.1e-17 
   5417.035  9.193e-16  3.128e-17 
   5418.113  8.849e-16  3.085e-17 
    5419.19  8.742e-16  3.092e-17 
   5420.268   8.83e-16  3.103e-17 
   5421.346  8.882e-16   3.08e-17 
   5422.424  8.572e-16  3.031e-17 
   5423.501  8.784e-16  3.059e-17 
   5424.579   8.81e-16  3.071e-17 
   5425.657  8.827e-16  3.076e-17 
   5426.734  8.778e-16   3.04e-17 
   5427.812  8.601e-16   3.01e-17 
    5428.89   8.83e-16   3.03e-17 
   5429.968  8.687e-16  3.035e-17 
   5431.045  8.735e-16  3.015e-17 
   5432.122  8.654e-16  2.991e-17 
     5433.2  8.396e-16  2.974e-17 
   5434.277  8.675e-16  3.009e-17 
   5435.355  8.572e-16  2.993e-17 
   5436.432  8.466e-16  2.964e-17 
    5437.51  8.543e-16  2.968e-17 
   5438.586  8.544e-16  2.974e-17 
   5439.664  8.242e-16  2.954e-17 
   5440.742  8.588e-16  2.979e-17 
   5441.818  8.693e-16  2.981e-17 
   5442.895  8.731e-16      3e-17 
   5443.973  8.695e-16  3.014e-17 
    5445.05  8.576e-16  2.991e-17 
   5446.127  8.599e-16  2.978e-17 
   5447.204  8.654e-16  2.972e-17 
   5448.281  8.415e-16  2.961e-17 
   5449.358  8.379e-16  2.957e-17 
   5450.435  8.338e-16  2.932e-17 
   5451.512  8.415e-16  2.942e-17 
   5452.589  8.684e-16  3.008e-17 
   5453.665  8.193e-16  3.006e-17 
   5454.742  8.406e-16  3.066e-17 
    5455.82  8.788e-16  3.156e-17 
   5456.896  8.877e-16  3.212e-17 
   5457.973  9.079e-16  3.281e-17 
    5459.05  9.465e-16  3.378e-17 
   5460.127  9.297e-16  3.419e-17 
   5461.202  9.646e-16  3.475e-17 
   5462.279  9.869e-16   3.48e-17 
   5463.356  9.702e-16  3.387e-17 
   5464.432   9.26e-16  3.246e-17 
   5465.509  8.927e-16  3.152e-17 
   5466.586  8.988e-16  3.118e-17 
   5467.662  8.626e-16  3.059e-17 
   5468.738  8.546e-16  3.018e-17 
   5469.815  8.613e-16  2.981e-17 
   5470.891  8.622e-16  2.975e-17 
   5471.967  8.577e-16  2.956e-17 
   5473.043  8.418e-16   2.91e-17 
    5474.12  8.435e-16  2.879e-17 
   5475.196  8.435e-16   2.89e-17 
   5476.272  8.526e-16  2.915e-17 
   5477.348  8.561e-16  2.908e-17 
   5478.425  8.335e-16  2.874e-17 
     5479.5  8.673e-16  2.913e-17 
   5480.576  8.761e-16  2.933e-17 
   5481.653  8.632e-16   2.92e-17 
   5482.729  8.399e-16   2.88e-17 
   5483.804  8.158e-16  2.835e-17 
    5484.88  8.097e-16  2.826e-17 
   5485.956  8.416e-16  2.871e-17 
   5487.031  8.275e-16  2.831e-17 
   5488.108  8.438e-16  2.826e-17 
   5489.184  8.814e-16  2.869e-17 
    5490.26  8.373e-16  2.831e-17 
   5491.335  8.211e-16  2.789e-17 
    5492.41  8.369e-16  2.767e-17 
   5493.486  8.414e-16  2.775e-17 
   5494.561  8.641e-16  2.804e-17 
   5495.637  8.626e-16  2.809e-17 
   5496.713  8.486e-16  2.781e-17 
   5497.789  8.196e-16  2.739e-17 
   5498.863  8.296e-16   2.74e-17 
   5499.939  8.315e-16  2.754e-17 
   5501.015  8.352e-16  2.744e-17 
   5502.089   8.38e-16  2.709e-17 
   5503.165   8.35e-16  2.692e-17 
   5504.241  8.389e-16  2.716e-17 
   5505.315  8.371e-16   2.72e-17 
   5506.391  8.459e-16  2.686e-17 
   5507.466  8.337e-16  2.672e-17 
   5508.542  8.931e-16  2.768e-17 
   5509.616  9.285e-16  2.816e-17 
   5510.691  9.572e-16  2.833e-17 
   5511.767  1.018e-15  2.878e-17 
   5512.841  1.053e-15  2.929e-17 
   5513.916   1.15e-15   2.98e-17 
   5514.991  1.211e-15   2.99e-17 
   5516.067    1.2e-15  2.974e-17 
   5517.141  1.145e-15  2.915e-17 
   5518.216  1.081e-15  2.858e-17 
   5519.291  1.033e-15  2.826e-17 
   5520.365  9.592e-16   2.74e-17 
    5521.44  9.212e-16  2.674e-17 
   5522.515  9.149e-16  2.658e-17 
    5523.59  9.124e-16  2.643e-17 
   5524.664  8.794e-16  2.598e-17 
   5525.739  8.809e-16   2.57e-17 
   5526.813  8.873e-16  2.582e-17 
   5527.887  8.644e-16  2.558e-17 
   5528.962  8.516e-16  2.514e-17 
   5530.037  8.318e-16  2.479e-17 
   5531.111  8.259e-16  2.451e-17 
   5532.185  8.398e-16  2.454e-17 
    5533.26  8.405e-16  2.469e-17 
   5534.334  8.516e-16   2.45e-17 
   5535.408  8.411e-16  2.426e-17 
   5536.482  8.569e-16  2.438e-17 
   5537.557  8.862e-16  2.467e-17 
   5538.631  8.525e-16  2.429e-17 
   5539.705  8.298e-16  2.383e-17 
   5540.779  8.339e-16  2.376e-17 
   5541.853  8.579e-16  2.391e-17 
   5542.927  8.507e-16  2.384e-17 
   5544.001  8.391e-16  2.354e-17 
   5545.075  8.344e-16  2.341e-17 
   5546.149  8.608e-16  2.366e-17 
   5547.222  8.668e-16  2.361e-17 
   5548.297  8.404e-16  2.312e-17 
   5549.371  8.234e-16  2.271e-17 
   5550.444  8.255e-16  2.273e-17 
    5552.79  8.471e-16  1.912e-17 
   5554.307  8.246e-16  1.869e-17 
   5555.824   8.57e-16  1.896e-17 
   5557.341  8.122e-16  1.859e-17 
   5558.858  8.419e-16  1.871e-17 
   5560.375  8.624e-16  1.888e-17 
   5561.892  8.449e-16  1.873e-17 
   5563.409  7.954e-16  1.828e-17 
   5564.926  8.555e-16  1.865e-17 
   5566.443  8.475e-16  1.867e-17 
    5567.96  8.268e-16  1.846e-17 
   5569.477    8.1e-16  1.987e-17 
   5570.995  8.421e-16  2.425e-17 
   5572.512  8.114e-16  2.682e-17 
   5574.029  8.431e-16  2.834e-17 
   5575.546  8.182e-16  2.927e-17 
   5577.063  8.304e-16  2.991e-17 
   5578.581  8.602e-16  2.951e-17 
   5580.098  8.501e-16  2.649e-17 
   5581.615  8.113e-16  2.387e-17 
   5583.133  8.307e-16  2.241e-17 
    5584.65  8.667e-16  2.121e-17 
   5586.168  8.066e-16  1.975e-17 
   5587.685  8.315e-16  1.913e-17 
   5589.202  8.049e-16  1.842e-17 
    5590.72  8.076e-16    1.8e-17 
   5592.237  7.961e-16   1.77e-17 
   5593.755  8.228e-16  1.794e-17 
   5595.272  8.366e-16  1.796e-17 
    5596.79  8.169e-16  1.769e-17 
   5598.308  7.948e-16  1.763e-17 
   5599.825  8.191e-16  1.786e-17 
   5601.343  8.149e-16  1.781e-17 
   5602.861  8.312e-16  1.789e-17 
   5604.379  8.068e-16  1.769e-17 
   5605.897  8.157e-16  1.773e-17 
   5607.414  8.389e-16  1.799e-17 
   5608.932  8.269e-16  1.781e-17 
    5610.45  8.113e-16  1.765e-17 
   5611.968  8.036e-16  1.761e-17 
   5613.486  8.027e-16  1.751e-17 
   5615.004  7.826e-16  1.743e-17 
   5616.522  8.241e-16  1.773e-17 
   5618.039  8.348e-16  1.784e-17 
   5619.558  7.823e-16  1.736e-17 
   5621.076  8.328e-16   1.78e-17 
   5622.594  8.043e-16  1.754e-17 
   5624.112  8.149e-16   1.76e-17 
    5625.63  8.187e-16  1.761e-17 
   5627.148  8.136e-16  1.759e-17 
   5628.667  8.243e-16  1.753e-17 
   5630.184  8.218e-16  1.759e-17 
   5631.703  8.022e-16  1.741e-17 
   5633.221  8.087e-16  1.734e-17 
   5634.739  8.151e-16  1.736e-17 
   5636.257   8.11e-16  1.736e-17 
   5637.776  8.085e-16  1.721e-17 
   5639.295  8.095e-16  1.726e-17 
   5640.812   8.13e-16  1.735e-17 
   5642.331  7.935e-16  1.711e-17 
   5643.849  8.273e-16  1.738e-17 
   5645.368  8.128e-16   1.72e-17 
   5646.887  8.013e-16  1.706e-17 
   5648.405  8.109e-16  1.714e-17 
   5649.924  8.311e-16  1.723e-17 
   5651.442  7.965e-16  1.687e-17 
   5652.961  7.802e-16  1.672e-17 
    5654.48  8.284e-16  1.706e-17 
   5655.998  7.866e-16  1.664e-17 
   5657.517  7.984e-16  1.672e-17 
   5659.035   7.91e-16  1.668e-17 
   5660.554  7.714e-16  1.652e-17 
   5662.073  7.958e-16  1.668e-17 
   5663.591  7.765e-16  1.652e-17 
   5665.111  7.895e-16   1.67e-17 
   5666.629  7.942e-16  1.679e-17 
   5668.148  8.033e-16  1.686e-17 
   5669.667  8.084e-16  1.695e-17 
   5671.186  7.831e-16  1.674e-17 
   5672.705  7.835e-16  1.671e-17 
   5674.223  7.904e-16  1.679e-17 
   5675.743  7.884e-16  1.671e-17 
   5677.262  7.971e-16  1.691e-17 
   5678.781  7.767e-16  1.681e-17 
     5680.3  7.825e-16  1.704e-17 
   5681.819  8.169e-16  1.743e-17 
   5683.338  7.829e-16  1.739e-17 
   5684.857  7.861e-16  1.749e-17 
   5686.376  7.714e-16  1.747e-17 
   5687.896  7.775e-16  1.748e-17 
   5689.414   7.71e-16  1.732e-17 
   5690.934   7.45e-16  1.698e-17 
   5692.453  7.969e-16  1.709e-17 
   5693.972  7.675e-16  1.668e-17 
   5695.492  7.573e-16  1.653e-17 
   5697.011  7.745e-16  1.644e-17 
   5698.531   7.57e-16  1.614e-17 
   5700.049   7.79e-16  1.619e-17 
   5701.569  7.685e-16  1.604e-17 
   5703.089  7.628e-16  1.593e-17 
   5704.608  7.816e-16  1.601e-17 
   5706.128  7.812e-16  1.594e-17 
   5707.647  7.591e-16   1.57e-17 
   5709.167  7.759e-16  1.588e-17 
   5710.687  7.875e-16  1.591e-17 
   5712.206  7.778e-16  1.576e-17 
   5713.726  7.676e-16  1.566e-17 
   5715.245  7.582e-16  1.554e-17 
   5716.765  7.544e-16  1.543e-17 
   5718.285  7.469e-16  1.544e-17 
   5719.804  7.573e-16  1.545e-17 
   5721.324  7.456e-16   1.53e-17 
   5722.844  7.502e-16   1.53e-17 
   5724.364  7.479e-16  1.527e-17 
   5725.884  7.549e-16  1.526e-17 
   5727.403  7.374e-16  1.508e-17 
   5728.924  7.321e-16  1.506e-17 
   5730.443  7.306e-16  1.501e-17 
   5731.963  7.288e-16  1.497e-17 
   5733.483  7.707e-16  1.523e-17 
   5735.003  7.398e-16  1.497e-17 
   5736.523  7.481e-16  1.501e-17 
   5738.043  7.371e-16    1.5e-17 
   5739.563  7.271e-16  1.486e-17 
   5741.083   7.34e-16  1.493e-17 
   5742.603  7.359e-16  1.495e-17 
   5744.124  7.524e-16  1.498e-17 
   5745.643  7.199e-16  1.475e-17 
   5747.164  7.259e-16  1.483e-17 
   5748.684   7.38e-16  1.489e-17 
   5750.204  7.464e-16  1.494e-17 
   5751.725  7.208e-16  1.477e-17 
   5753.245  7.264e-16  1.474e-17 
   5754.765  7.195e-16  1.471e-17 
   5756.285  7.306e-16  1.493e-17 
   5757.806  7.297e-16  1.487e-17 
   5759.327  6.938e-16  1.458e-17 
   5760.847  7.256e-16  1.497e-17 
   5762.367  7.294e-16  1.509e-17 
   5763.887  7.301e-16  1.525e-17 
   5765.408  7.137e-16  1.535e-17 
   5766.929  7.259e-16  1.556e-17 
   5768.449   7.03e-16  1.533e-17 
    5769.97  7.231e-16  1.554e-17 
    5771.49  7.206e-16   1.54e-17 
   5773.011  7.287e-16  1.524e-17 
   5774.532   7.16e-16  1.501e-17 
   5776.052  7.438e-16  1.515e-17 
   5777.573  7.223e-16  1.485e-17 
   5779.093  7.159e-16  1.476e-17 
   5780.615  7.171e-16  1.481e-17 
   5782.135   7.36e-16  1.495e-17 
   5783.656  7.238e-16  1.499e-17 
   5785.177   7.26e-16  1.523e-17 
   5786.697  7.201e-16  1.525e-17 
   5788.219  7.331e-16   1.55e-17 
   5789.739  7.067e-16  1.538e-17 
    5791.26  7.287e-16  1.548e-17 
   5792.782  7.055e-16  1.519e-17 
   5794.302  7.186e-16  1.519e-17 
   5795.823   7.02e-16  1.481e-17 
   5797.344  7.031e-16  1.484e-17 
   5798.865   7.09e-16  1.484e-17 
   5800.387  7.107e-16   1.47e-17 
   5801.907  7.145e-16  1.474e-17 
   5803.429  7.053e-16  1.472e-17 
   5804.949  7.187e-16  1.471e-17 
   5806.471  7.069e-16  1.458e-17 
   5807.993  7.209e-16  1.475e-17 
   5809.513  7.292e-16  1.478e-17 
   5811.035  7.205e-16  1.467e-17 
   5812.556   7.09e-16  1.461e-17 
   5814.077  7.268e-16  1.473e-17 
   5815.599  7.039e-16  1.453e-17 
    5817.12  7.227e-16  1.478e-17 
   5818.641  7.109e-16  1.465e-17 
   5820.162  6.961e-16  1.446e-17 
   5821.684  6.937e-16  1.454e-17 
   5823.205  6.963e-16  1.461e-17 
   5824.727  7.145e-16  1.471e-17 
   5826.249  7.073e-16  1.465e-17 
    5827.77  6.952e-16  1.461e-17 
   5829.292  7.093e-16  1.467e-17 
   5830.813  7.311e-16  1.486e-17 
   5832.335  6.873e-16  1.454e-17 
   5833.857  6.863e-16  1.449e-17 
   5835.378  6.979e-16  1.459e-17 
     5836.9  7.148e-16  1.475e-17 
   5838.421  7.002e-16  1.466e-17 
   5839.943  7.036e-16  1.466e-17 
   5841.465   6.97e-16  1.469e-17 
   5842.986   6.79e-16  1.447e-17 
   5844.508  6.686e-16  1.438e-17 
    5846.03  7.181e-16  1.483e-17 
   5847.552  7.018e-16  1.463e-17 
   5849.074  7.108e-16  1.468e-17 
   5850.595  6.928e-16  1.466e-17 
   5852.118  6.863e-16  1.461e-17 
   5853.639  6.883e-16  1.457e-17 
   5855.162  6.798e-16  1.457e-17 
   5856.684  6.852e-16  1.456e-17 
   5858.205  6.958e-16  1.466e-17 
   5859.728  6.843e-16  1.466e-17 
   5861.249  6.672e-16  1.457e-17 
   5862.772  6.914e-16  1.476e-17 
   5864.293  6.668e-16  1.473e-17 
   5865.816  6.541e-16  1.463e-17 
   5867.338  6.722e-16  1.465e-17 
    5868.86  6.729e-16  1.471e-17 
   5870.383   6.84e-16   1.48e-17 
   5871.904  6.596e-16  1.455e-17 
   5873.427  6.709e-16  1.457e-17 
    5874.95  6.872e-16  1.465e-17 
   5876.471  6.461e-16  1.426e-17 
   5877.994  6.534e-16   1.43e-17 
   5879.516  6.434e-16  1.424e-17 
   5881.039  6.535e-16  1.433e-17 
   5882.561  6.252e-16  1.525e-17 
   5884.083  6.765e-16  1.709e-17 
   5885.606  6.519e-16  1.767e-17 
   5887.128  6.516e-16  1.829e-17 
   5888.651  6.813e-16  1.965e-17 
   5890.174  6.445e-16  2.062e-17 
   5891.696  6.179e-16   2.04e-17 
   5893.219  6.352e-16  1.986e-17 
   5894.741  6.321e-16   1.95e-17 
   5896.264  6.456e-16  1.916e-17 
   5897.787  6.146e-16  1.788e-17 
   5899.309  6.633e-16   1.67e-17 
   5900.832  6.443e-16  1.569e-17 
   5902.354  6.321e-16  1.509e-17 
   5903.877  6.372e-16  1.462e-17 
   5905.399  6.245e-16  1.425e-17 
   5906.923   6.35e-16  1.416e-17 
   5908.446  6.336e-16  1.413e-17 
   5909.968  6.336e-16  1.408e-17 
   5911.491  6.551e-16  1.433e-17 
   5913.014  6.345e-16  1.415e-17 
   5914.537  6.267e-16  1.403e-17 
    5916.06  6.317e-16  1.408e-17 
   5917.583  6.288e-16  1.405e-17 
   5919.106  6.236e-16  1.396e-17 
   5920.628  6.206e-16  1.397e-17 
   5922.152  6.272e-16  1.405e-17 
   5923.675  6.254e-16  1.396e-17 
   5925.198  6.545e-16  1.421e-17 
   5926.721  6.287e-16   1.41e-17 
   5928.244   6.32e-16  1.413e-17 
   5929.767  6.422e-16  1.427e-17 
   5931.291  6.457e-16  1.427e-17 
   5932.814  6.289e-16  1.409e-17 
   5934.337  6.499e-16  1.424e-17 
    5935.86  6.198e-16  1.395e-17 
   5937.384  6.155e-16  1.379e-17 
   5938.906  6.144e-16  1.379e-17 
    5940.43   6.13e-16   1.37e-17 
   5941.954  6.235e-16   1.37e-17 
   5943.477  6.265e-16  1.371e-17 
     5945.0  6.137e-16  1.364e-17 
   5946.523  6.124e-16  1.361e-17 
   5948.047   6.37e-16  1.379e-17 
   5949.571  6.363e-16  1.389e-17 
   5951.094  6.204e-16  1.378e-17 
   5952.618   6.26e-16  1.374e-17 
   5954.141  6.241e-16  1.375e-17 
   5955.665  6.336e-16  1.379e-17 
   5957.189  5.949e-16   1.34e-17 
   5958.712  6.176e-16  1.362e-17 
   5960.236  6.057e-16  1.343e-17 
   5961.759  6.124e-16  1.347e-17 
   5963.283  6.038e-16  1.338e-17 
   5964.807  6.193e-16  1.351e-17 
    5966.33  6.128e-16  1.341e-17 
   5967.854  6.296e-16  1.356e-17 
   5969.377  5.932e-16  1.334e-17 
   5970.902  6.176e-16  1.348e-17 
   5972.426  6.112e-16  1.342e-17 
   5973.949  5.957e-16  1.336e-17 
   5975.473  5.974e-16  1.329e-17 
   5976.997  6.023e-16  1.339e-17 
   5978.521   5.97e-16  1.328e-17 
   5980.044  5.869e-16  1.318e-17 
   5981.569  6.237e-16  1.343e-17 
   5983.093  6.077e-16  1.334e-17 
   5984.616  6.208e-16  1.338e-17 
   5986.141  6.238e-16  1.339e-17 
   5987.664  6.106e-16  1.327e-17 
   5989.189   6.03e-16  1.325e-17 
   5990.713  6.047e-16  1.329e-17 
   5992.237   6.25e-16  1.341e-17 
   5993.761  5.969e-16  1.317e-17 
   5995.285   6.16e-16  1.334e-17 
    5996.81  6.113e-16  1.331e-17 
   5998.334  6.036e-16  1.321e-17 
   5999.858  5.918e-16  1.317e-17 
   6001.383  6.056e-16  1.317e-17 
   6002.906  6.039e-16  1.321e-17 
   6004.431  6.123e-16  1.325e-17 
   6005.956   6.22e-16  1.331e-17 
   6007.479  5.916e-16  1.305e-17 
   6009.004  5.997e-16  1.303e-17 
   6010.528  6.053e-16  1.312e-17 
   6012.053  5.935e-16  1.304e-17 
   6013.577  6.066e-16  1.304e-17 
   6015.102  6.005e-16    1.3e-17 
   6016.627  6.104e-16  1.308e-17 
    6018.15  5.997e-16  1.301e-17 
   6019.675  5.964e-16  1.298e-17 
   6021.199  6.064e-16  1.305e-17 
   6022.724  5.952e-16  1.296e-17 
   6024.249  6.083e-16  1.307e-17 
   6025.773  6.163e-16  1.317e-17 
   6027.299   6.01e-16  1.305e-17 
   6028.823  6.087e-16  1.306e-17 
   6030.348  5.831e-16  1.291e-17 
   6031.873  6.075e-16  1.311e-17 
   6033.397   6.04e-16  1.307e-17 
   6034.922  5.921e-16  1.297e-17 
   6036.446  5.899e-16  1.291e-17 
   6037.972  6.109e-16  1.303e-17 
   6039.497  6.037e-16    1.3e-17 
   6041.021  6.046e-16  1.301e-17 
   6042.546  6.127e-16  1.304e-17 
   6044.071  6.112e-16  1.299e-17 
   6045.596  5.875e-16  1.282e-17 
   6047.121  6.122e-16  1.302e-17 
   6048.646    6.1e-16  1.299e-17 
   6050.171   5.85e-16   1.28e-17 
   6051.696  5.911e-16  1.283e-17 
   6053.221  6.043e-16  1.291e-17 
   6054.746  5.843e-16   1.28e-17 
   6056.271  5.997e-16  1.286e-17 
   6057.797  6.021e-16  1.286e-17 
   6059.321  5.936e-16  1.283e-17 
   6060.847  6.152e-16  1.296e-17 
   6062.371  6.136e-16  1.292e-17 
   6063.897  6.075e-16  1.292e-17 
   6065.423  5.882e-16  1.274e-17 
   6066.947  6.027e-16  1.286e-17 
   6068.473  6.143e-16   1.29e-17 
   6069.998  6.134e-16  1.295e-17 
   6071.524  6.161e-16  1.298e-17 
   6073.049  6.058e-16  1.283e-17 
   6074.574  5.943e-16  1.276e-17 
     6076.1  6.176e-16   1.29e-17 
   6077.625   6.01e-16  1.276e-17 
   6079.151  6.173e-16  1.292e-17 
   6080.675  6.101e-16  1.281e-17 
   6082.201  5.979e-16  1.273e-17 
   6083.727  6.085e-16  1.285e-17 
   6085.252  6.058e-16  1.281e-17 
   6086.778  6.209e-16  1.285e-17 
   6088.303   6.12e-16  1.285e-17 
   6089.829  6.263e-16  1.295e-17 
   6091.355  6.029e-16  1.277e-17 
    6092.88  5.862e-16  1.269e-17 
   6094.406  6.231e-16  1.292e-17 
   6095.931  6.065e-16  1.281e-17 
   6097.458  5.757e-16   1.27e-17 
   6098.984  5.931e-16   1.28e-17 
   6100.509  6.162e-16  1.298e-17 
   6102.035  5.959e-16   1.29e-17 
    6103.56   6.18e-16  1.317e-17 
   6105.086  5.957e-16  1.316e-17 
   6106.613  6.157e-16  1.344e-17 
   6108.138  6.075e-16  1.355e-17 
   6109.664   5.95e-16  1.359e-17 
    6111.19  6.021e-16   1.37e-17 
   6112.716  5.704e-16  1.351e-17 
   6114.241  6.138e-16  1.366e-17 
   6115.768  5.974e-16  1.345e-17 
   6117.294   6.12e-16  1.339e-17 
    6118.82  5.857e-16  1.305e-17 
   6120.346  5.962e-16  1.297e-17 
   6121.872  5.917e-16  1.288e-17 
   6123.398  5.997e-16  1.286e-17 
   6124.925  5.986e-16  1.277e-17 
    6126.45  6.052e-16  1.282e-17 
   6127.977  6.106e-16   1.28e-17 
   6129.502  5.902e-16  1.256e-17 
   6131.029  5.877e-16  1.259e-17 
   6132.556   5.94e-16  1.266e-17 
   6134.081  6.014e-16  1.266e-17 
   6135.608   5.95e-16  1.262e-17 
   6137.134  6.013e-16  1.268e-17 
    6138.66  6.022e-16  1.263e-17 
   6140.187  5.971e-16   1.27e-17 
   6141.713  5.901e-16   1.26e-17 
    6143.24  5.834e-16  1.252e-17 
   6144.766  6.027e-16  1.268e-17 
   6146.292  5.866e-16   1.25e-17 
   6147.818  5.989e-16  1.261e-17 
   6149.345  5.736e-16  1.246e-17 
   6150.872  5.886e-16  1.265e-17 
   6152.398  5.842e-16  1.259e-17 
   6153.925  6.097e-16  1.273e-17 
   6155.451  6.105e-16  1.277e-17 
   6156.978  5.829e-16  1.259e-17 
   6158.505  5.854e-16  1.258e-17 
   6160.031  5.952e-16  1.257e-17 
   6161.558  6.212e-16  1.275e-17 
   6163.084  5.901e-16   1.24e-17 
   6164.611   5.91e-16   1.24e-17 
   6166.138  6.017e-16   1.24e-17 
   6167.664  5.835e-16  1.221e-17 
   6169.192  5.883e-16  1.224e-17 
   6170.718  5.906e-16  1.225e-17 
   6172.245  5.844e-16  1.216e-17 
   6173.772  5.775e-16   1.21e-17 
   6175.299  5.933e-16  1.223e-17 
   6176.826  5.941e-16  1.214e-17 
   6178.352  5.954e-16  1.221e-17 
   6179.879  5.811e-16  1.207e-17 
   6181.406  5.844e-16  1.204e-17 
   6182.933  5.822e-16  1.204e-17 
   6184.461  5.897e-16  1.212e-17 
   6185.987  5.909e-16  1.211e-17 
   6187.514  5.763e-16  1.205e-17 
   6189.041  5.874e-16  1.214e-17 
   6190.568  5.805e-16  1.201e-17 
   6192.096  5.776e-16  1.205e-17 
   6193.622  5.962e-16  1.221e-17 
    6195.15  5.931e-16  1.209e-17 
   6196.677  5.888e-16  1.213e-17 
   6198.204  5.931e-16  1.218e-17 
   6199.732  5.702e-16  1.202e-17 
   6201.258  5.718e-16  1.205e-17 
   6202.786  5.794e-16  1.212e-17 
   6204.313  5.698e-16  1.202e-17 
    6205.84  5.717e-16  1.202e-17 
   6207.367  5.626e-16  1.199e-17 
   6208.895  5.863e-16  1.215e-17 
   6210.423   5.88e-16  1.211e-17 
   6211.949  5.858e-16  1.218e-17 
   6213.477  5.765e-16  1.202e-17 
   6215.004  5.629e-16  1.189e-17 
   6216.532  5.957e-16  1.219e-17 
    6218.06   5.78e-16  1.205e-17 
   6219.587  5.725e-16  1.193e-17 
   6221.115  5.728e-16  1.202e-17 
   6222.642  5.569e-16  1.183e-17 
    6224.17  5.673e-16  1.186e-17 
   6225.698  5.755e-16  1.197e-17 
   6227.225  5.986e-16  1.212e-17 
   6228.753  5.613e-16   1.19e-17 
    6230.28   5.66e-16  1.208e-17 
   6231.808  5.725e-16  1.225e-17 
   6233.336  5.644e-16  1.219e-17 
   6234.863  5.655e-16   1.23e-17 
   6236.391  5.649e-16   1.24e-17 
   6237.918   5.64e-16  1.226e-17 
   6239.446  5.778e-16  1.225e-17 
   6240.974  5.955e-16  1.237e-17 
   6242.502  5.832e-16  1.216e-17 
    6244.03  5.763e-16  1.206e-17 
   6245.557  5.843e-16  1.211e-17 
   6247.086  5.606e-16  1.183e-17 
   6248.613  5.742e-16  1.195e-17 
   6250.141  5.737e-16  1.196e-17 
    6251.67   5.61e-16  1.197e-17 
   6253.197  5.565e-16  1.203e-17 
   6254.725  5.702e-16  1.222e-17 
   6256.253  5.603e-16  1.217e-17 
   6257.781   5.67e-16  1.226e-17 
    6259.31  5.794e-16  1.234e-17 
   6260.837  5.594e-16  1.205e-17 
   6262.366  5.558e-16  1.189e-17 
   6263.893  5.644e-16  1.202e-17 
   6265.422  5.497e-16  1.185e-17 
    6266.95  5.814e-16  1.197e-17 
   6268.478  5.651e-16  1.186e-17 
   6270.006  5.581e-16  1.182e-17 
   6271.534  5.561e-16  1.174e-17 
   6273.063  5.739e-16  1.204e-17 
    6274.59  5.668e-16  1.202e-17 
   6276.119   5.57e-16  1.195e-17 
   6277.648  5.711e-16  1.212e-17 
   6279.175  5.646e-16  1.205e-17 
   6280.704  5.612e-16  1.197e-17 
   6282.232  5.575e-16  1.203e-17 
   6283.761  5.644e-16  1.207e-17 
    6285.29  5.649e-16  1.207e-17 
   6286.817  5.552e-16   1.21e-17 
   6288.346  5.421e-16   1.19e-17 
   6289.874  5.569e-16  1.197e-17 
   6291.403    5.4e-16  1.193e-17 
   6292.932  5.644e-16  1.365e-17 
    6294.46  5.659e-16  1.607e-17 
   6295.989  5.323e-16  1.725e-17 
   6297.517  5.404e-16  1.799e-17 
   6299.046  5.443e-16  1.842e-17 
   6300.574  5.532e-16   1.85e-17 
   6302.103  5.725e-16  1.741e-17 
   6303.632  5.436e-16  1.495e-17 
    6305.16  5.558e-16  1.361e-17 
   6306.689  5.409e-16  1.277e-17 
   6308.217  5.424e-16  1.212e-17 
   6309.747  5.372e-16  1.167e-17 
   6311.276  5.621e-16  1.174e-17 
   6312.804  5.483e-16  1.156e-17 
   6314.333  5.585e-16  1.157e-17 
   6315.861  5.576e-16   1.16e-17 
   6317.391  5.453e-16  1.146e-17 
    6318.92  5.391e-16  1.136e-17 
   6320.448  5.497e-16  1.149e-17 
   6321.978   5.34e-16  1.134e-17 
   6323.506  5.312e-16  1.137e-17 
   6325.035  5.376e-16  1.147e-17 
   6326.565  5.505e-16  1.153e-17 
   6328.093  5.392e-16  1.148e-17 
   6329.623  5.382e-16  1.149e-17 
   6331.151  5.424e-16  1.149e-17 
    6332.68   5.45e-16  1.133e-17 
   6334.209  5.338e-16   1.12e-17 
   6335.738   5.38e-16  1.125e-17 
   6337.268   5.29e-16  1.111e-17 
   6338.797  5.389e-16  1.113e-17 
   6340.326   5.22e-16  1.099e-17 
   6341.855  5.367e-16  1.105e-17 
   6343.384  5.423e-16  1.116e-17 
   6344.914  5.263e-16  1.104e-17 
   6346.443  5.327e-16  1.108e-17 
   6347.972  5.194e-16  1.099e-17 
   6349.501  5.501e-16  1.128e-17 
   6351.031  5.318e-16  1.116e-17 
    6352.56   5.39e-16   1.12e-17 
   6354.089  5.417e-16  1.124e-17 
   6355.619  5.377e-16  1.135e-17 
   6357.148  5.293e-16  1.218e-17 
   6358.678  5.598e-16  1.311e-17 
   6360.206  5.353e-16  1.332e-17 
   6361.736  5.367e-16  1.359e-17 
   6363.266  5.409e-16  1.362e-17 
   6364.795  5.367e-16  1.341e-17 
   6366.325  5.144e-16  1.249e-17 
   6367.854  5.327e-16  1.179e-17 
   6369.384   5.31e-16  1.135e-17 
   6370.914  5.264e-16  1.107e-17 
   6372.443  5.288e-16  1.103e-17 
   6373.973  5.365e-16   1.11e-17 
   6375.502  5.136e-16  1.094e-17 
   6377.032  5.424e-16  1.117e-17 
   6378.562  5.467e-16  1.119e-17 
   6380.091   5.27e-16   1.11e-17 
   6381.621  5.235e-16  1.111e-17 
   6383.151  5.323e-16  1.113e-17 
   6384.681  5.329e-16  1.111e-17 
    6386.21  5.423e-16  1.117e-17 
    6387.74  5.317e-16  1.104e-17 
    6389.27  5.122e-16  1.089e-17 
     6390.8  5.358e-16  1.103e-17 
    6392.33  5.237e-16  1.094e-17 
   6393.859  5.269e-16  1.095e-17 
   6395.389  5.327e-16  1.102e-17 
    6396.92  5.135e-16   1.09e-17 
   6398.449  5.288e-16    1.1e-17 
    6399.98   5.21e-16    1.1e-17 
   6401.509   5.38e-16  1.109e-17 
   6403.039  5.232e-16  1.104e-17 
    6404.57   5.07e-16  1.085e-17 
   6406.099  5.172e-16  1.094e-17 
    6407.63  5.139e-16  1.086e-17 
   6409.159  5.157e-16  1.088e-17 
    6410.69  5.125e-16  1.093e-17 
   6412.219  5.128e-16   1.09e-17 
    6413.75  5.308e-16  1.102e-17 
    6415.28  5.102e-16  1.087e-17 
    6416.81  5.152e-16  1.093e-17 
   6418.341  5.251e-16  1.097e-17 
    6419.87  5.116e-16  1.087e-17 
   6421.401  5.176e-16  1.093e-17 
   6422.932  5.166e-16  1.088e-17 
   6424.461  5.146e-16  1.087e-17 
   6425.992  5.186e-16   1.09e-17 
   6427.522  5.112e-16  1.086e-17 
   6429.052  5.141e-16  1.089e-17 
   6430.583  5.068e-16  1.083e-17 
   6432.113   4.97e-16  1.078e-17 
   6433.644  5.147e-16   1.09e-17 
   6435.174  5.174e-16  1.092e-17 
   6436.705  5.204e-16   1.09e-17 
   6438.235  5.123e-16  1.083e-17 
   6439.765  5.126e-16   1.09e-17 
   6441.296   5.18e-16  1.091e-17 
   6442.826  5.198e-16  1.093e-17 
   6444.357  5.222e-16  1.094e-17 
   6445.887  5.138e-16  1.091e-17 
   6447.418  5.146e-16  1.093e-17 
   6448.949  5.022e-16  1.083e-17 
   6450.479  5.016e-16  1.081e-17 
    6452.01  5.133e-16  1.094e-17 
    6453.54  5.062e-16  1.085e-17 
   6455.071   5.09e-16  1.091e-17 
   6456.602  5.057e-16  1.091e-17 
   6458.133  5.146e-16    1.1e-17 
   6459.664  5.007e-16  1.093e-17 
   6461.194  5.092e-16  1.105e-17 
   6462.725  5.102e-16  1.108e-17 
   6464.256  5.027e-16  1.103e-17 
   6465.787  5.045e-16  1.106e-17 
   6467.318  5.067e-16   1.11e-17 
   6468.848  5.037e-16  1.104e-17 
   6470.379  5.167e-16  1.112e-17 
    6471.91  5.061e-16    1.1e-17 
   6473.441  4.863e-16  1.074e-17 
   6474.972  4.943e-16   1.08e-17 
   6476.503  4.934e-16   1.07e-17 
   6478.034  4.961e-16  1.073e-17 
   6479.565  4.949e-16  1.073e-17 
   6481.096  5.059e-16  1.079e-17 
   6482.627  4.944e-16  1.067e-17 
   6484.158  5.039e-16  1.072e-17 
   6485.689  5.084e-16  1.075e-17 
    6487.22  5.048e-16  1.072e-17 
   6488.751  4.948e-16  1.067e-17 
   6490.283  5.158e-16  1.084e-17 
   6491.814  4.954e-16  1.073e-17 
   6493.345  4.941e-16  1.091e-17 
   6494.876   4.96e-16  1.101e-17 
   6496.407  5.183e-16  1.117e-17 
   6497.938  5.023e-16  1.116e-17 
    6499.47  5.161e-16  1.129e-17 
   6501.001  4.955e-16  1.105e-17 
   6502.532  5.014e-16  1.099e-17 
   6504.064  5.057e-16  1.094e-17 
   6505.595  4.965e-16  1.081e-17 
   6507.126  4.896e-16  1.079e-17 
   6508.658  4.844e-16  1.068e-17 
   6510.189  4.915e-16  1.065e-17 
   6511.721  4.981e-16  1.063e-17 
   6513.252  4.923e-16  1.058e-17 
   6514.783  4.976e-16   1.06e-17 
   6516.315  4.962e-16  1.061e-17 
   6517.846  5.095e-16  1.076e-17 
   6519.378  4.858e-16  1.051e-17 
   6520.909  4.802e-16  1.054e-17 
   6522.441  5.041e-16  1.073e-17 
   6523.972   4.94e-16  1.057e-17 
   6525.504   4.99e-16  1.063e-17 
   6527.036  4.967e-16  1.078e-17 
   6528.567  5.083e-16  1.086e-17 
   6530.099  4.975e-16  1.077e-17 
    6531.63  4.745e-16  1.064e-17 
   6533.162  4.982e-16  1.079e-17 
   6534.694  4.893e-16  1.064e-17 
   6536.226  4.973e-16  1.066e-17 
   6537.758   4.94e-16  1.055e-17 
   6539.289  4.869e-16  1.044e-17 
   6540.821  4.877e-16  1.047e-17 
   6542.353  5.007e-16  1.058e-17 
   6543.884  4.873e-16  1.042e-17 
   6545.417  4.812e-16  1.041e-17 
   6546.948  4.961e-16  1.056e-17 
    6548.48  4.912e-16  1.046e-17 
   6550.012  4.692e-16  1.041e-17 
   6551.544  4.866e-16  1.049e-17 
   6553.076  4.681e-16  1.032e-17 
   6554.608   4.82e-16  1.044e-17 
    6556.14  4.789e-16  1.048e-17 
   6557.671  4.897e-16  1.054e-17 
   6559.204  4.706e-16  1.046e-17 
   6560.736  4.967e-16  1.066e-17 
   6562.268  4.611e-16  1.039e-17 
     6563.8   4.84e-16  1.055e-17 
   6565.332   4.79e-16  1.037e-17 
   6566.864  4.752e-16   1.01e-17 
   6568.397  4.805e-16  1.008e-17 
   6569.928  4.776e-16  1.013e-17 
   6571.461  4.948e-16  1.027e-17 
   6572.992  4.693e-16  1.007e-17 
   6574.525  4.642e-16  1.008e-17 
   6576.057  4.846e-16  1.015e-17 
   6577.589  4.788e-16  1.018e-17 
   6579.122  4.793e-16  1.014e-17 
   6580.654  4.665e-16  9.913e-18 
   6582.186  4.704e-16  9.928e-18 
   6583.718  4.852e-16  1.004e-17 
   6585.251  4.792e-16   9.97e-18 
   6586.784  4.822e-16  9.999e-18 
   6588.315  4.701e-16  9.904e-18 
   6589.848  4.571e-16  9.805e-18 
    6591.38  4.656e-16  9.847e-18 
   6592.913  4.866e-16  1.003e-17 
   6594.446  4.845e-16  1.002e-17 
   6595.978  4.699e-16  9.859e-18 
    6597.51  4.759e-16  1.002e-17 
   6599.042   4.86e-16  1.008e-17 
   6600.575  4.734e-16  9.942e-18 
   6602.107  4.584e-16  9.854e-18 
    6603.64  4.749e-16  9.981e-18 
   6605.173   4.63e-16  9.819e-18 
   6606.705  4.569e-16  9.764e-18 
   6608.238  4.708e-16  9.857e-18 
    6609.77   4.68e-16  9.768e-18 
   6611.303  4.601e-16  9.716e-18 
   6612.836  4.797e-16  9.847e-18 
   6614.368  4.589e-16  9.675e-18 
   6615.902  4.663e-16  9.782e-18 
   6617.434  4.733e-16  9.819e-18 
   6618.967  4.524e-16  9.646e-18 
     6620.5  4.632e-16  9.689e-18 
   6622.032  4.735e-16   9.87e-18 
   6623.565  4.602e-16  9.767e-18 
   6625.098  4.578e-16  9.716e-18 
   6626.631  4.525e-16  9.709e-18 
   6628.163  4.908e-16  9.959e-18 
   6629.696  4.639e-16  9.746e-18 
    6631.23  4.558e-16  9.732e-18 
   6632.762  4.579e-16  9.723e-18 
   6634.295  4.569e-16  9.672e-18 
   6635.828  4.616e-16  9.793e-18 
   6637.361  4.571e-16  9.682e-18 
   6638.894  4.455e-16  9.541e-18 
   6640.427   4.61e-16  9.712e-18 
    6641.96   4.54e-16  9.645e-18 
   6643.493   4.49e-16  9.562e-18 
   6645.026  4.502e-16  9.587e-18 
    6646.56  4.572e-16  9.629e-18 
   6648.092  4.469e-16  9.541e-18 
   6649.626   4.33e-16  9.439e-18 
   6651.158  4.531e-16  9.642e-18 
   6652.692  4.414e-16  9.512e-18 
   6654.224  4.527e-16  9.619e-18 
   6655.758  4.436e-16   9.57e-18 
   6657.292   4.48e-16  9.582e-18 
   6658.824  4.441e-16  9.621e-18 
   6660.358  4.578e-16  9.702e-18 
   6661.891  4.568e-16  9.681e-18 
   6663.424  4.528e-16  9.683e-18 
   6664.958  4.335e-16  9.574e-18 
   6666.491  4.485e-16  9.611e-18 
   6668.024  4.527e-16   9.67e-18 
   6669.557  4.499e-16  9.659e-18 
   6671.091  4.486e-16   9.64e-18 
   6672.624  4.544e-16  9.691e-18 
   6674.158  4.557e-16  9.718e-18 
   6675.691  4.554e-16  9.739e-18 
   6677.224  4.459e-16  9.644e-18 
   6678.758  4.531e-16  9.726e-18 
   6680.291  4.366e-16  9.573e-18 
   6681.825  4.564e-16  9.732e-18 
   6683.359  4.515e-16  9.675e-18 
   6684.892  4.365e-16  9.563e-18 
   6686.426  4.313e-16    9.5e-18 
   6687.959   4.47e-16  9.682e-18 
   6689.493  4.534e-16  9.706e-18 
   6691.027  4.462e-16  9.646e-18 
    6692.56  4.445e-16  9.691e-18 
   6694.094  4.431e-16  9.654e-18 
   6695.627  4.215e-16  9.429e-18 
   6697.161  4.476e-16  9.699e-18 
   6698.694  4.381e-16  9.641e-18 
   6700.228  4.351e-16  9.629e-18 
   6701.762  4.511e-16  9.756e-18 
   6703.295   4.34e-16  9.726e-18 
    6704.83   4.36e-16  9.699e-18 
   6706.363   4.44e-16  9.825e-18 
   6707.897   4.37e-16  9.808e-18 
   6709.431  4.498e-16  9.831e-18 
   6710.964  4.467e-16  9.775e-18 
   6712.499  4.376e-16   9.75e-18 
   6714.032  4.413e-16   9.73e-18 
   6715.566  4.439e-16   9.75e-18 
   6717.101  4.427e-16  9.751e-18 
   6718.634  4.292e-16  9.613e-18 
   6720.168  4.355e-16  9.658e-18 
   6721.702  4.387e-16  9.645e-18 
   6723.236  4.333e-16  9.544e-18 
   6724.769   4.38e-16  9.598e-18 
   6726.304  4.516e-16   9.77e-18 
   6727.838  4.304e-16  9.603e-18 
   6729.372  4.361e-16  9.573e-18 
   6730.906  4.358e-16  9.577e-18 
    6732.44  4.339e-16  9.562e-18 
   6733.974  4.377e-16  9.597e-18 
   6735.509  4.509e-16  9.695e-18 
   6737.042  4.286e-16  9.545e-18 
   6738.577  4.317e-16  9.516e-18 
    6740.11  4.417e-16  9.661e-18 
   6741.645  4.316e-16  9.561e-18 
    6743.18  4.276e-16  9.466e-18 
   6744.713  4.341e-16  9.548e-18 
   6746.248   4.24e-16  9.436e-18 
   6747.782  4.291e-16  9.445e-18 
   6749.316  4.366e-16  9.552e-18 
    6750.85   4.42e-16  9.542e-18 
   6752.385  4.268e-16  9.449e-18 
   6753.919  4.326e-16  9.497e-18 
   6755.453  4.298e-16  9.459e-18 
   6756.988  4.116e-16  9.269e-18 
   6758.522  4.388e-16  9.489e-18 
   6760.057  4.239e-16  9.406e-18 
   6761.591  4.269e-16  9.449e-18 
   6763.125  4.358e-16  9.437e-18 
    6764.66  4.134e-16  9.315e-18 
   6766.194  4.206e-16  9.318e-18 
   6767.729  4.195e-16  9.341e-18 
   6769.263  4.203e-16  9.311e-18 
   6770.798  4.257e-16  9.333e-18 
   6772.333   4.27e-16  9.342e-18 
   6773.867  4.209e-16  9.301e-18 
   6775.402  4.311e-16  9.364e-18 
   6776.936  4.161e-16  9.236e-18 
   6778.471  4.234e-16  9.294e-18 
   6780.006  4.083e-16  9.171e-18 
    6781.54  4.106e-16  9.165e-18 
   6783.075  4.279e-16   9.29e-18 
   6784.609  4.145e-16  9.194e-18 
   6786.144  4.074e-16  9.126e-18 
   6787.679  4.193e-16  9.205e-18 
   6789.213   4.19e-16  9.181e-18 
   6790.748   4.14e-16  9.121e-18 
   6792.283  4.117e-16  9.096e-18 
   6793.818  4.301e-16  9.227e-18 
   6795.352  4.207e-16  9.128e-18 
   6796.887  4.213e-16   9.18e-18 
   6798.422  4.135e-16  9.054e-18 
   6799.957  4.145e-16  9.094e-18 
   6801.492  4.101e-16  9.031e-18 
   6803.026  4.138e-16  9.076e-18 
   6804.562  4.072e-16   8.98e-18 
   6806.097  4.172e-16  9.089e-18 
   6807.631   4.13e-16  9.002e-18 
   6809.167  4.108e-16  8.979e-18 
   6810.701   4.12e-16  8.972e-18 
   6812.236  4.171e-16  8.997e-18 
   6813.772  4.018e-16  8.902e-18 
   6815.306  4.183e-16  9.019e-18 
   6816.842  4.004e-16  8.854e-18 
   6818.376  4.018e-16  8.893e-18 
   6819.912  4.016e-16  8.876e-18 
   6821.446  4.187e-16  9.114e-18 
   6822.982  4.009e-16  9.134e-18 
   6824.517  4.195e-16   9.41e-18 
   6826.052  3.991e-16  9.336e-18 
   6827.587  4.103e-16  9.574e-18 
   6829.122  3.954e-16  9.616e-18 
   6830.657  4.119e-16  9.657e-18 
   6832.193  4.065e-16  9.503e-18 
   6833.728  4.052e-16  9.355e-18 
   6835.263  4.146e-16  9.349e-18 
   6836.798    4.1e-16  9.194e-18 
   6838.334  4.059e-16  8.972e-18 
   6839.868  3.992e-16  8.879e-18 
   6841.404  3.992e-16  8.857e-18 
    6842.94  3.938e-16  8.776e-18 
   6844.475   4.06e-16  8.827e-18 
    6846.01  4.015e-16  8.769e-18 
   6847.545  3.923e-16   8.68e-18 
   6849.081  4.035e-16  8.778e-18 
   6850.617  3.982e-16   8.71e-18 
   6852.152      4e-16  8.697e-18 
   6853.687  3.943e-16  8.677e-18 
   6855.222  3.955e-16  8.702e-18 
   6856.758  3.989e-16  8.906e-18 
   6858.294  3.998e-16  9.281e-18 
   6859.829  3.941e-16  9.416e-18 
   6861.365  3.944e-16   9.55e-18 
     6862.9  4.042e-16   9.86e-18 
   6864.436  4.005e-16  1.031e-17 
   6865.971  3.994e-16  1.051e-17 
   6867.507  3.912e-16  1.031e-17 
   6869.043  3.755e-16  1.012e-17 
   6870.578  3.826e-16  1.004e-17 
   6872.114  3.826e-16  9.856e-18 
   6873.649  3.862e-16  9.647e-18 
   6875.185  3.944e-16  9.532e-18 
   6876.721  3.881e-16  9.284e-18 
   6878.256  4.001e-16  9.198e-18 
   6879.792   3.87e-16      9e-18 
   6881.328  3.878e-16  8.987e-18 
   6882.864  3.935e-16  9.132e-18 
     6884.4  4.023e-16  9.281e-18 
   6885.935  3.777e-16  9.177e-18 
   6887.471  3.908e-16  9.336e-18 
   6889.007  3.866e-16  9.337e-18 
   6890.543  3.835e-16  9.252e-18 
   6892.078  3.911e-16  9.205e-18 
   6893.614  3.911e-16   9.15e-18 
   6895.151   3.81e-16  9.138e-18 
   6896.686  3.847e-16  9.235e-18 
   6898.222  3.924e-16  9.257e-18 
   6899.758  3.835e-16  9.197e-18 
   6901.294  3.827e-16  9.115e-18 
    6902.83  4.025e-16  9.185e-18 
   6904.366  3.795e-16  8.947e-18 
   6905.902  3.829e-16  8.985e-18 
   6907.438  3.827e-16  9.061e-18 
   6908.974  3.916e-16  9.167e-18 
    6910.51  3.823e-16  9.091e-18 
   6912.046   3.93e-16  9.142e-18 
   6913.583  3.803e-16  9.033e-18 
   6915.118  3.837e-16   8.95e-18 
   6916.655  4.021e-16   9.18e-18 
    6918.19  3.845e-16  9.212e-18 
   6919.727  3.844e-16  9.328e-18 
   6921.263  3.779e-16  9.219e-18 
   6922.799   3.93e-16  9.377e-18 
   6924.336  3.986e-16  9.414e-18 
   6925.871   3.91e-16  9.195e-18 
   6927.408  3.924e-16   9.08e-18 
   6928.944  3.834e-16  8.931e-18 
    6930.48   3.76e-16  8.827e-18 
   6932.017  3.916e-16  8.982e-18 
   6933.552  3.994e-16  9.171e-18 
   6935.089  3.926e-16  9.198e-18 
   6936.625  3.851e-16  9.239e-18 
   6938.162  4.047e-16  9.453e-18 
   6939.698  3.832e-16  9.249e-18 
   6941.234   3.93e-16  9.239e-18 
   6942.771  3.943e-16  9.382e-18 
   6944.307  3.908e-16  9.456e-18 
   6945.844  3.937e-16  9.513e-18 
   6947.381  4.018e-16   9.62e-18 
   6948.916  4.002e-16  9.596e-18 
   6950.453  3.925e-16  9.434e-18 
   6951.989  3.928e-16  9.308e-18 
   6953.526  3.998e-16   9.22e-18 
   6955.062  3.962e-16  9.113e-18 
   6956.599   3.88e-16  9.102e-18 
   6958.136  4.009e-16  9.174e-18 
   6959.672  4.014e-16  9.107e-18 
   6961.209  3.967e-16  9.089e-18 
   6962.745  4.045e-16  9.139e-18 
   6964.282  3.936e-16  9.084e-18 
   6965.819  3.975e-16   9.12e-18 
   6967.355  3.938e-16  9.115e-18 
   6968.892  3.944e-16  9.095e-18 
   6970.428  4.078e-16  9.242e-18 
   6971.965   4.03e-16  9.229e-18 
   6973.502   4.04e-16   9.28e-18 
   6975.039  3.983e-16  9.265e-18 
   6976.576  3.984e-16  9.347e-18 
   6978.112  3.909e-16  9.245e-18 
   6979.649  3.967e-16  9.293e-18 
   6981.185   4.01e-16  9.254e-18 
   6982.723  4.022e-16  9.146e-18 
    6984.26  3.895e-16  9.114e-18 
   6985.796  3.939e-16  9.159e-18 
   6987.333  3.952e-16  9.185e-18 
    6988.87  4.094e-16  9.262e-18 
   6990.407  4.138e-16  9.359e-18 
   6991.944  3.957e-16  9.135e-18 
    6993.48  4.044e-16  9.165e-18 
   6995.018  4.034e-16  9.219e-18 
   6996.554  4.062e-16  9.213e-18 
   6998.092  4.008e-16  9.129e-18 
   6999.628   3.99e-16  9.196e-18 
   7001.165  3.944e-16  9.166e-18 
   7002.703  3.942e-16  9.174e-18 
   7004.239   4.02e-16  9.239e-18 
   7005.777  4.002e-16  9.263e-18 
   7007.313  4.009e-16  9.243e-18 
   7008.851  4.045e-16  9.243e-18 
   7010.388  4.042e-16  9.257e-18 
   7011.925  3.913e-16  9.126e-18 
   7013.462  4.045e-16  9.263e-18 
   7014.999  4.108e-16  9.218e-18 
   7016.536  4.014e-16  9.044e-18 
   7018.074  3.946e-16  9.054e-18 
    7019.61  4.113e-16  9.191e-18 
   7021.148  3.988e-16  9.035e-18 
   7022.685   4.01e-16  9.121e-18 
   7024.222  4.087e-16  9.217e-18 
   7025.759  4.094e-16  9.184e-18 
   7027.297  4.009e-16  9.074e-18 
   7028.834  4.184e-16  9.237e-18 
   7030.371  4.038e-16  9.033e-18 
   7031.909  3.954e-16   8.95e-18 
   7033.445   3.94e-16  8.968e-18 
   7034.983  3.873e-16  8.905e-18 
   7036.521  3.969e-16  9.013e-18 
   7038.058  3.982e-16  9.062e-18 
   7039.595  3.958e-16  9.019e-18 
   7041.132  4.054e-16  9.028e-18 
    7042.67  4.029e-16  9.119e-18 
   7044.207  3.981e-16  9.049e-18 
   7045.745  3.951e-16  9.017e-18 
   7047.283  4.047e-16  9.169e-18 
   7048.819  3.995e-16   9.11e-18 
   7050.357  4.196e-16  9.266e-18 
   7051.894  3.987e-16  9.042e-18 
   7053.432  4.136e-16  9.045e-18 
    7054.97  4.137e-16  9.033e-18 
   7056.507  4.069e-16  9.028e-18 
   7058.045  4.128e-16  9.064e-18 
   7059.582  3.823e-16  8.767e-18 
    7061.12  4.114e-16  9.112e-18 
   7062.658  4.126e-16  9.081e-18 
   7064.195  4.059e-16   8.96e-18 
   7065.733  3.949e-16  8.935e-18 
    7067.27  4.147e-16  9.058e-18 
   7068.808  4.102e-16   8.93e-18 
   7070.345  4.029e-16    8.9e-18 
   7071.883  4.003e-16  8.902e-18 
   7073.422  3.937e-16  8.779e-18 
   7074.959  4.042e-16  8.916e-18 
   7076.497  4.076e-16  8.923e-18 
   7078.034  3.871e-16  8.737e-18 
   7079.572   4.06e-16  8.839e-18 
    7081.11  4.124e-16   8.98e-18 
   7082.648  3.992e-16  8.789e-18 
   7084.186  4.027e-16  8.774e-18 
   7085.723  4.093e-16  8.892e-18 
   7087.261  3.956e-16  8.752e-18 
   7088.799  4.068e-16  8.849e-18 
   7090.337  3.956e-16  8.769e-18 
   7091.875   3.93e-16  8.647e-18 
   7093.413  4.037e-16  8.737e-18 
   7094.951   4.08e-16  8.769e-18 
   7096.488   4.09e-16  8.753e-18 
   7098.027  4.066e-16  8.656e-18 
   7099.565  4.115e-16  8.722e-18 
   7101.102  4.166e-16   8.72e-18 
   7102.641  4.109e-16  8.677e-18 
   7104.178  3.964e-16   8.57e-18 
   7105.717  4.083e-16  8.658e-18 
   7107.254  4.107e-16  8.602e-18 
   7108.793  4.091e-16  8.637e-18 
   7110.331  4.147e-16  8.645e-18 
   7111.869  4.136e-16  8.636e-18 
   7113.407  4.032e-16  8.583e-18 
   7114.945  4.201e-16  8.718e-18 
   7116.483   4.06e-16  8.606e-18 
   7118.022  4.162e-16  8.691e-18 
   7119.559  4.096e-16  8.646e-18 
   7121.098  4.117e-16  8.643e-18 
   7122.635      4e-16   8.57e-18 
   7124.174  4.191e-16  8.712e-18 
   7125.713  4.096e-16  8.606e-18 
    7127.25   4.22e-16  8.696e-18 
   7128.789  4.031e-16  8.589e-18 
   7130.327  4.115e-16  8.606e-18 
   7131.865  4.085e-16  8.587e-18 
   7133.403  4.174e-16  8.666e-18 
   7134.942  4.057e-16  8.561e-18 
    7136.48  4.093e-16  8.578e-18 
   7138.018  4.157e-16  8.688e-18 
   7139.557  4.153e-16  8.684e-18 
   7141.095  4.089e-16  8.623e-18 
   7142.633  4.073e-16  8.706e-18 
   7144.172  4.138e-16  8.708e-18 
    7145.71  3.927e-16  8.554e-18 
   7147.249  4.105e-16  8.633e-18 
   7148.787  4.115e-16  8.665e-18 
   7150.326  4.042e-16  8.567e-18 
   7151.863  4.148e-16  8.623e-18 
   7153.402  4.134e-16  8.588e-18 
   7154.941  4.051e-16  8.554e-18 
   7156.479  4.083e-16  8.595e-18 
   7158.018  4.073e-16  8.625e-18 
   7159.556  4.134e-16  8.653e-18 
   7161.095  4.083e-16   8.69e-18 
   7162.634  4.026e-16  8.736e-18 
   7164.172  4.097e-16  8.889e-18 
   7165.711  4.082e-16  8.894e-18 
   7167.249  4.146e-16  9.091e-18 
   7168.788  4.141e-16  9.219e-18 
   7170.326  4.228e-16  9.372e-18 
   7171.865  4.228e-16  9.423e-18 
   7173.404   4.22e-16  9.433e-18 
   7174.942  4.083e-16  9.341e-18 
   7176.481  4.197e-16  9.371e-18 
    7178.02   4.02e-16  9.153e-18 
   7179.559  4.203e-16  9.281e-18 
   7181.098  4.223e-16  9.462e-18 
   7182.636  4.089e-16  9.463e-18 
   7184.175  4.262e-16  9.626e-18 
   7185.713  4.201e-16  9.504e-18 
   7187.253  3.916e-16  9.256e-18 
   7188.792  4.069e-16  9.395e-18 
    7190.33  4.122e-16  9.404e-18 
   7191.869  4.265e-16  9.443e-18 
   7193.407  4.082e-16  9.255e-18 
   7194.947  4.262e-16  9.431e-18 
   7196.485  4.143e-16  9.395e-18 
   7198.024  4.036e-16  9.293e-18 
   7199.564  4.159e-16  9.462e-18 
   7201.102  4.015e-16  9.318e-18 
   7202.641  4.177e-16  9.357e-18 
    7204.18  4.176e-16  9.287e-18 
   7205.719  4.182e-16  9.188e-18 
   7207.258  4.048e-16  8.964e-18 
   7208.797  4.082e-16  8.893e-18 
   7210.336  4.201e-16  8.872e-18 
   7211.875   4.13e-16  8.769e-18 
   7213.414   4.16e-16  8.801e-18 
   7214.953  4.116e-16  8.765e-18 
   7216.492   3.97e-16  8.665e-18 
   7218.031   4.15e-16  8.821e-18 
    7219.57  4.149e-16  8.881e-18 
   7221.109  4.122e-16   8.91e-18 
   7222.648   4.64e-16  9.344e-18 
   7224.188  5.384e-16  9.866e-18 
   7225.727  5.853e-16  1.024e-17 
   7227.266  6.476e-16   1.07e-17 
   7228.805  6.743e-16  1.104e-17 
   7230.344  6.185e-16  1.093e-17 
   7231.883  5.171e-16  1.041e-17 
   7233.422  4.303e-16   1.01e-17 
   7234.962  4.222e-16  1.041e-17 
   7236.501   4.04e-16  1.051e-17 
    7238.04  4.351e-16  1.105e-17 
    7239.58  4.267e-16  1.151e-17 
   7241.118  4.215e-16  1.157e-17 
   7242.658  4.053e-16  1.116e-17 
   7244.198  4.099e-16  1.071e-17 
   7245.736  3.989e-16  1.037e-17 
   7247.276   4.14e-16  1.021e-17 
   7248.815  3.907e-16  9.726e-18 
   7250.355  4.196e-16  9.835e-18 
   7251.895  3.983e-16  9.526e-18 
   7253.433  4.115e-16  9.599e-18 
   7254.973  4.047e-16  9.432e-18 
   7256.512  4.012e-16  9.187e-18 
   7258.052  3.953e-16  9.086e-18 
   7259.591  3.891e-16  9.064e-18 
   7261.131  4.087e-16  9.326e-18 
    7262.67  3.922e-16  9.227e-18 
   7264.209  3.986e-16  9.257e-18 
   7265.749  3.967e-16  9.144e-18 
   7267.288  4.005e-16  9.174e-18 
   7268.828  3.927e-16  9.362e-18 
   7270.368  3.929e-16  1.018e-17 
   7271.907  3.969e-16  1.094e-17 
   7273.447   3.92e-16  1.116e-17 
   7274.986  4.078e-16  1.132e-17 
   7276.526  3.937e-16   1.11e-17 
   7278.065  4.031e-16   1.08e-17 
   7279.605  3.954e-16  1.005e-17 
   7281.145  3.822e-16    9.6e-18 
   7282.684  3.973e-16    9.6e-18 
   7284.224  3.845e-16  9.565e-18 
   7285.763  4.025e-16  9.738e-18 
   7287.303  3.921e-16  9.553e-18 
   7288.843  3.844e-16  9.322e-18 
   7290.383  4.071e-16  9.489e-18 
   7291.923  3.881e-16  9.274e-18 
   7293.462   3.89e-16  9.164e-18 
   7295.002  3.914e-16   9.07e-18 
   7296.541  3.864e-16  9.085e-18 
   7298.081  3.865e-16  9.294e-18 
   7299.622  3.933e-16  9.431e-18 
   7301.161  3.974e-16  9.511e-18 
   7302.701  3.928e-16  9.471e-18 
    7304.24  3.877e-16  9.302e-18 
    7305.78  3.902e-16  9.278e-18 
   7307.321  3.954e-16  9.148e-18 
    7308.86  3.932e-16  9.202e-18 
     7310.4   3.95e-16  9.877e-18 
    7311.94  3.815e-16  1.019e-17 
    7313.48  3.982e-16  1.047e-17 
   7315.019  4.071e-16  1.055e-17 
    7316.56  3.738e-16  1.026e-17 
     7318.1  3.905e-16  9.922e-18 
   7319.639  3.756e-16  9.129e-18 
    7321.18  3.825e-16  8.907e-18 
   7322.719  3.968e-16  8.994e-18 
    7324.26  3.923e-16  9.147e-18 
     7325.8  3.875e-16  9.267e-18 
   7327.339  3.831e-16  9.281e-18 
    7328.88  3.745e-16  9.134e-18 
   7330.419  3.716e-16  9.161e-18 
    7331.96   3.89e-16  8.989e-18 
     7333.5  3.896e-16  8.908e-18 
    7335.04  3.836e-16  9.534e-18 
    7336.58  3.711e-16  9.714e-18 
    7338.12  3.799e-16  9.815e-18 
    7339.66  3.866e-16  9.882e-18 
     7341.2  3.703e-16   9.89e-18 
   7342.741   3.63e-16  9.416e-18 
   7344.281  3.639e-16  8.795e-18 
   7345.821   3.67e-16   8.53e-18 
   7347.361  3.763e-16   8.54e-18 
   7348.901  3.721e-16  8.456e-18 
   7350.442  3.727e-16  8.508e-18 
   7351.982  3.828e-16  8.606e-18 
   7353.522  3.763e-16  8.767e-18 
   7355.063  3.786e-16  8.864e-18 
   7356.602  3.758e-16  8.841e-18 
   7358.143  3.892e-16  8.947e-18 
   7359.683  3.784e-16  8.869e-18 
   7361.223  3.669e-16  8.604e-18 
   7362.764  3.791e-16  8.831e-18 
   7364.304  3.841e-16  9.273e-18 
   7365.845  3.968e-16  9.454e-18 
   7367.384  3.574e-16  9.172e-18 
   7368.925  3.679e-16  9.191e-18 
   7370.466  3.777e-16  9.202e-18 
   7372.006  3.578e-16  8.642e-18 
   7373.547  3.715e-16  8.389e-18 
   7375.086   3.64e-16  8.217e-18 
   7376.627  3.603e-16  8.081e-18 
   7378.167  3.696e-16  8.193e-18 
   7379.708  3.671e-16  8.188e-18 
   7381.249  3.596e-16  8.064e-18 
   7382.789  3.695e-16  8.183e-18 
    7384.33  3.701e-16  8.159e-18 
    7385.87  3.531e-16  8.095e-18 
   7387.411  3.693e-16  8.366e-18 
   7388.951  3.649e-16  8.341e-18 
   7390.491  3.576e-16  8.255e-18 
   7392.032  3.767e-16  8.637e-18 
   7393.572  3.797e-16  8.705e-18 
   7395.113  3.684e-16  8.309e-18 
   7396.653  3.711e-16  8.606e-18 
   7398.194  3.693e-16  8.657e-18 
   7399.735  3.639e-16  8.578e-18 
   7401.276  3.526e-16  8.462e-18 
   7402.817  3.584e-16   8.53e-18 
   7404.357  3.658e-16  8.271e-18 
   7405.898  3.554e-16  7.974e-18 
   7407.439  3.649e-16  7.986e-18 
   7408.979  3.535e-16  7.819e-18 
    7410.52  3.541e-16  7.862e-18 
    7412.06  3.547e-16  7.892e-18 
   7413.601  3.777e-16  8.022e-18 
   7415.142  3.576e-16  7.833e-18 
   7416.683  3.603e-16  7.914e-18 
   7418.224  3.594e-16  7.851e-18 
   7419.764   3.58e-16  7.823e-18 
   7421.305  3.414e-16  7.694e-18 
   7422.846  3.541e-16  7.807e-18 
   7424.387  3.482e-16  7.854e-18 
   7425.928  3.522e-16  7.912e-18 
   7427.468   3.52e-16  7.949e-18 
    7429.01  3.462e-16  7.867e-18 
    7430.55   3.49e-16  7.938e-18 
   7432.091  3.516e-16  8.001e-18 
   7433.632  3.589e-16  8.139e-18 
   7435.173  3.462e-16   8.04e-18 
   7436.714  3.571e-16  8.144e-18 
   7438.254  3.486e-16  8.076e-18 
   7439.796  3.431e-16  8.016e-18 
   7441.336  3.402e-16  7.832e-18 
   7442.878  3.286e-16  7.613e-18 
   7444.419  3.328e-16  7.619e-18 
   7445.959  3.458e-16  7.725e-18 
   7447.501  3.489e-16  7.741e-18 
   7449.041  3.383e-16  7.655e-18 
   7450.583  3.385e-16  7.677e-18 
   7452.124  3.326e-16  7.646e-18 
   7453.665  3.422e-16  7.707e-18 
   7455.206  3.473e-16  7.787e-18 
   7456.747  3.376e-16  7.723e-18 
   7458.288  3.379e-16  7.749e-18 
   7459.829  3.513e-16  7.907e-18 
    7461.37  3.422e-16  7.862e-18 
   7462.912  3.453e-16  7.902e-18 
   7464.452  3.346e-16  7.921e-18 
   7465.994  3.274e-16  7.899e-18 
   7467.534  3.561e-16  8.192e-18 
   7469.076  3.473e-16  8.231e-18 
   7470.617  3.485e-16  8.202e-18 
   7472.158  3.355e-16  8.144e-18 
     7473.7  3.436e-16  8.223e-18 
    7475.24  3.519e-16  8.305e-18 
   7476.782  3.338e-16  8.166e-18 
   7478.323  3.378e-16  8.318e-18 
   7479.864  3.327e-16  8.273e-18 
   7481.406  3.381e-16  8.278e-18 
   7482.947  3.379e-16  8.153e-18 
   7484.488  3.454e-16  8.166e-18 
   7486.029  3.254e-16  7.903e-18 
   7487.571  3.318e-16  7.875e-18 
   7489.113  3.358e-16  7.894e-18 
   7490.653  3.336e-16  7.897e-18 
   7492.195  3.349e-16  7.879e-18 
   7493.736  3.469e-16  8.005e-18 
   7495.278  3.209e-16  7.747e-18 
   7496.818  3.315e-16  7.802e-18 
    7498.36  3.462e-16  7.935e-18 
   7499.902  3.301e-16  7.793e-18 
   7501.443  3.343e-16  7.862e-18 
   7502.985  3.298e-16  7.804e-18 
   7504.526  3.283e-16  7.789e-18 
   7506.068  3.354e-16  7.882e-18 
   7507.609  3.313e-16  7.815e-18 
    7509.15  3.263e-16  7.798e-18 
   7510.692  3.281e-16  7.846e-18 
   7512.233  3.489e-16  8.056e-18 
   7513.775  3.383e-16  8.009e-18 
   7515.316  3.233e-16  7.937e-18 
   7516.858  3.309e-16  8.229e-18 
     7518.4  3.199e-16  8.604e-18 
   7519.941  3.402e-16  8.927e-18 
   7521.483  3.257e-16  8.848e-18 
   7523.024  3.288e-16  8.975e-18 
   7524.566  3.338e-16  9.001e-18 
   7526.108  3.307e-16  8.853e-18 
   7527.649  3.254e-16  8.432e-18 
   7529.191  3.178e-16  8.217e-18 
   7530.732  3.318e-16  8.241e-18 
   7532.274  3.276e-16  8.174e-18 
   7533.815  3.172e-16  7.986e-18 
   7535.357  3.384e-16  8.093e-18 
   7536.899  3.246e-16  8.019e-18 
    7538.44  3.205e-16  7.961e-18 
   7539.983  3.191e-16  7.995e-18 
   7541.524   3.26e-16  8.018e-18 
   7543.066  3.079e-16  7.863e-18 
   7544.608  3.143e-16  7.915e-18 
   7546.149   3.26e-16  7.977e-18 
   7547.691  3.215e-16   7.95e-18 
   7549.233  3.241e-16  7.995e-18 
   7550.775  3.327e-16  8.119e-18 
   7552.316  3.148e-16  8.091e-18 
   7553.858  3.126e-16  8.125e-18 
     7555.4  3.235e-16  8.193e-18 
   7556.942  3.185e-16  8.209e-18 
   7558.484  3.295e-16   8.25e-18 
   7560.025  3.341e-16  8.256e-18 
   7561.567  3.267e-16  8.122e-18 
    7563.11  3.299e-16  8.176e-18 
   7564.651  3.197e-16  8.226e-18 
   7566.193  3.224e-16  8.596e-18 
   7567.735   3.29e-16  8.872e-18 
   7569.277  3.268e-16  8.895e-18 
   7570.818  3.239e-16   8.88e-18 
   7572.361  3.212e-16  8.787e-18 
   7573.903  3.234e-16  8.657e-18 
   7575.445  3.132e-16  8.265e-18 
   7576.987   3.09e-16  8.035e-18 
   7578.528  3.127e-16  7.987e-18 
   7580.071  3.207e-16  8.221e-18 
   7581.613  3.188e-16   8.34e-18 
   7583.155  3.368e-16  8.451e-18 
   7584.697  3.262e-16   8.37e-18 
   7586.239  3.292e-16  8.432e-18 
   7587.781  3.205e-16  8.368e-18 
   7589.323  3.135e-16  8.402e-18 
   7590.865  3.236e-16  9.039e-18 
   7592.407  3.264e-16  1.004e-17 
   7593.949  3.326e-16   1.15e-17 
   7595.492  3.069e-16  1.268e-17 
   7597.033  3.073e-16  1.431e-17 
   7598.576   3.21e-16  1.615e-17 
   7600.118  3.143e-16  1.734e-17 
    7601.66  2.953e-16  1.745e-17 
   7603.202  3.206e-16  1.825e-17 
   7604.744   3.04e-16  1.768e-17 
   7606.286  3.024e-16   1.66e-17 
   7607.829  3.214e-16  1.572e-17 
   7609.371  3.148e-16  1.401e-17 
   7610.913  3.295e-16    1.3e-17 
   7612.455  3.266e-16  1.172e-17 
   7613.998  3.108e-16  1.033e-17 
   7615.539  2.968e-16  9.493e-18 
   7617.082  3.244e-16  9.556e-18 
   7618.625  3.135e-16  9.614e-18 
   7620.166  3.101e-16  9.977e-18 
   7621.709   3.15e-16  1.061e-17 
   7623.251  3.104e-16  1.134e-17 
   7624.794  3.202e-16  1.201e-17 
   7626.336  3.219e-16  1.215e-17 
   7627.878  3.199e-16   1.22e-17 
   7629.421  2.971e-16  1.177e-17 
   7630.963  3.276e-16  1.186e-17 
   7632.505   3.23e-16   1.14e-17 
   7634.047  3.055e-16  1.084e-17 
    7635.59  3.066e-16  1.069e-17 
   7637.133  3.233e-16  1.075e-17 
   7638.675  3.168e-16  1.044e-17 
   7640.217  3.187e-16   1.03e-17 
   7641.759  3.129e-16  9.987e-18 
   7643.302  3.009e-16  9.655e-18 
   7644.845   3.04e-16  9.555e-18 
   7646.387  3.207e-16  9.627e-18 
    7647.93  3.059e-16  9.317e-18 
   7649.472  2.989e-16  9.121e-18 
   7651.015  3.188e-16  9.267e-18 
   7652.557  3.084e-16  9.106e-18 
   7654.099  3.105e-16  8.846e-18 
   7655.642  3.142e-16  8.957e-18 
   7657.184  3.025e-16  8.767e-18 
   7658.727  3.087e-16  8.704e-18 
   7660.269  3.239e-16  8.823e-18 
   7661.812   3.05e-16  8.687e-18 
   7663.355  3.096e-16  8.639e-18 
   7664.897  3.113e-16  8.413e-18 
    7666.44   3.05e-16  8.189e-18 
   7667.982  3.139e-16  8.288e-18 
   7669.525  3.145e-16   8.21e-18 
   7671.067  3.006e-16  7.991e-18 
   7672.611  3.145e-16  8.128e-18 
   7674.154  3.165e-16  8.127e-18 
   7675.696  3.112e-16  8.015e-18 
   7677.239  3.129e-16  8.088e-18 
   7678.781  3.138e-16  8.094e-18 
   7680.324  3.107e-16  8.115e-18 
   7681.867  3.194e-16  8.239e-18 
   7683.409  3.219e-16   8.19e-18 
   7684.952  3.123e-16  8.186e-18 
   7686.494  3.123e-16  8.193e-18 
   7688.038  3.302e-16  8.317e-18 
    7689.58   3.08e-16  8.116e-18 
   7691.123  3.233e-16  8.217e-18 
   7692.666  3.101e-16  8.128e-18 
   7694.208  3.134e-16  8.155e-18 
   7695.752  3.079e-16  8.122e-18 
   7697.294  3.122e-16  8.165e-18 
   7698.837   3.11e-16  8.134e-18 
    7700.38   3.13e-16   8.08e-18 
   7701.923  2.962e-16  7.895e-18 
   7703.466  3.168e-16  7.931e-18 
   7705.008  3.059e-16  7.965e-18 
   7706.551  3.241e-16  8.747e-18 
   7708.094  3.243e-16  9.111e-18 
   7709.637  3.147e-16   9.41e-18 
    7711.18  3.163e-16   9.99e-18 
   7712.723  3.298e-16   1.04e-17 
   7714.266  3.027e-16  1.008e-17 
   7715.808  3.085e-16  9.649e-18 
   7717.352   3.21e-16  9.508e-18 
   7718.895  3.136e-16  9.075e-18 
   7720.437  3.159e-16  8.632e-18 
   7721.981  3.141e-16   8.37e-18 
   7723.523  3.046e-16   8.21e-18 
   7725.067  3.134e-16  8.272e-18 
   7726.609  3.176e-16  8.253e-18 
   7728.152  3.012e-16  7.956e-18 
   7729.696   3.14e-16   7.99e-18 
   7731.238  3.127e-16  7.957e-18 
   7732.782  3.135e-16  7.931e-18 
   7734.324  3.187e-16  7.995e-18 
   7735.868  3.208e-16  7.969e-18 
   7737.411  3.067e-16  7.774e-18 
   7738.954  3.228e-16  7.881e-18 
   7740.497  3.066e-16  7.764e-18 
    7742.04  3.122e-16   7.84e-18 
   7743.583  3.154e-16  8.374e-18 
   7745.126  3.225e-16  9.378e-18 
   7746.669   3.12e-16  9.736e-18 
   7748.213  3.166e-16  9.842e-18 
   7749.755  3.248e-16   9.89e-18 
   7751.299  3.156e-16   9.73e-18 
   7752.842  3.228e-16   9.28e-18 
   7754.385  3.197e-16  8.725e-18 
   7755.929  3.159e-16  8.547e-18 
   7757.471  3.208e-16  8.544e-18 
   7759.015  3.138e-16  8.501e-18 
   7760.558   3.04e-16  8.327e-18 
   7762.101  3.092e-16  8.148e-18 
   7763.644   3.06e-16  7.811e-18 
   7765.188   3.11e-16  7.735e-18 
   7766.731  3.094e-16  7.772e-18 
   7768.274  2.969e-16  7.821e-18 
   7769.818  3.114e-16  7.955e-18 
    7771.36  2.997e-16  7.852e-18 
   7772.904  3.024e-16   7.91e-18 
   7774.448  3.185e-16  8.227e-18 
    7775.99  2.919e-16  8.027e-18 
   7777.534  3.125e-16  8.195e-18 
   7779.077  3.179e-16  8.214e-18 
   7780.621  3.077e-16   8.12e-18 
   7782.163  2.977e-16  8.013e-18 
   7783.707  3.105e-16  7.918e-18 
   7785.251  3.012e-16  7.788e-18 
   7786.794  3.202e-16  8.124e-18 
   7788.338  3.131e-16  8.802e-18 
    7789.88   3.02e-16  9.146e-18 
   7791.424  2.954e-16  9.164e-18 
   7792.968  3.053e-16  9.238e-18 
   7794.511  3.157e-16   9.23e-18 
   7796.055  3.227e-16  8.934e-18 
   7797.598  2.933e-16  7.993e-18 
   7799.141  2.996e-16  7.657e-18 
   7800.684  3.001e-16  7.635e-18 
   7802.228  3.052e-16  7.926e-18 
   7803.772  3.149e-16  8.229e-18 
   7805.315  2.993e-16  8.242e-18 
   7806.859  2.987e-16   8.24e-18 
   7808.402  3.056e-16  8.341e-18 
   7809.946  3.056e-16  8.209e-18 
    7811.49  3.012e-16  8.024e-18 
   7813.033  2.945e-16  7.846e-18 
   7814.577    3.1e-16  8.332e-18 
    7816.12  3.032e-16  9.123e-18 
   7817.664  3.076e-16  9.431e-18 
   7819.207  2.935e-16   9.43e-18 
   7820.751  3.048e-16  9.537e-18 
   7822.295  3.039e-16  9.452e-18 
   7823.838   2.95e-16  8.836e-18 
   7825.382  3.008e-16  8.101e-18 
   7826.925  3.019e-16  7.802e-18 
   7828.469  2.983e-16  7.722e-18 
   7830.013  2.978e-16  7.688e-18 
   7831.556  3.101e-16  7.785e-18 
     7833.1  2.996e-16  7.686e-18 
   7834.643  3.025e-16    7.9e-18 
   7836.187  3.162e-16  8.303e-18 
    7837.73  3.088e-16  8.292e-18 
   7839.274  3.108e-16  8.357e-18 
   7840.818  3.152e-16  8.449e-18 
   7842.362  3.036e-16   8.26e-18 
   7843.906  2.967e-16  8.132e-18 
   7845.449  3.116e-16  8.201e-18 
   7846.993   3.06e-16   8.78e-18 
   7848.537  3.043e-16  9.443e-18 
    7850.08  3.136e-16  9.752e-18 
   7851.624   3.01e-16  9.681e-18 
   7853.168  3.096e-16  9.748e-18 
   7854.712  2.928e-16  9.734e-18 
   7856.255  2.974e-16  9.287e-18 
   7857.799  2.966e-16  8.732e-18 
   7859.343  3.146e-16  8.753e-18 
   7860.887   2.97e-16  8.527e-18 
   7862.431  2.989e-16  8.571e-18 
   7863.974  3.069e-16  8.618e-18 
   7865.518  3.045e-16  8.805e-18 
   7867.063  3.068e-16  8.973e-18 
   7868.606  3.006e-16  9.048e-18 
    7870.15  2.947e-16  8.816e-18 
   7871.694  2.924e-16  8.763e-18 
   7873.238  3.019e-16  8.697e-18 
   7874.781  2.977e-16  8.479e-18 
   7876.326  2.952e-16  8.493e-18 
    7877.87  2.969e-16  8.647e-18 
   7879.413  2.875e-16  8.537e-18 
   7880.958  2.881e-16  8.506e-18 
   7882.501  2.898e-16  8.509e-18 
   7884.045  3.014e-16  8.813e-18 
    7885.59  3.076e-16   9.01e-18 
   7887.133  2.912e-16   8.99e-18 
   7888.677  2.916e-16  9.009e-18 
   7890.221   2.94e-16  9.016e-18 
   7891.765  2.937e-16  8.772e-18 
   7893.309  2.795e-16   8.26e-18 
   7894.853   2.89e-16  8.006e-18 
   7896.398  2.997e-16  8.004e-18 
   7897.941  3.063e-16  8.099e-18 
   7899.485  2.946e-16  7.948e-18 
   7901.029  2.895e-16  7.963e-18 
   7902.573  2.884e-16   7.93e-18 
   7904.118   2.86e-16    7.9e-18 
   7905.661  2.978e-16  8.263e-18 
   7907.206  3.084e-16  9.334e-18 
   7908.749  2.937e-16  1.023e-17 
   7910.294  2.934e-16  1.052e-17 
   7911.837  3.043e-16  1.063e-17 
   7913.382  2.931e-16  1.061e-17 
   7914.926  3.001e-16  1.084e-17 
    7916.47  2.934e-16  1.014e-17 
   7918.014  3.051e-16  9.536e-18 
   7919.558  2.814e-16  9.112e-18 
   7921.103   2.92e-16  9.123e-18 
   7922.647  2.965e-16  8.971e-18 
   7924.191  2.965e-16  8.628e-18 
   7925.735  2.951e-16  8.636e-18 
   7927.279  2.908e-16  8.681e-18 
   7928.824  2.879e-16   8.65e-18 
   7930.367  2.843e-16  8.586e-18 
   7931.912  2.865e-16  8.573e-18 
   7933.457  2.871e-16  8.354e-18 
     7935.0  2.906e-16  8.068e-18 
   7936.545  2.938e-16  7.968e-18 
   7938.088  2.819e-16  7.811e-18 
   7939.633  2.861e-16  7.918e-18 
   7941.178  3.017e-16  8.097e-18 
   7942.722  2.816e-16  8.105e-18 
   7944.266  2.837e-16  8.339e-18 
    7945.81  3.044e-16  8.599e-18 
   7947.355  2.769e-16  8.408e-18 
   7948.898   2.86e-16  8.462e-18 
   7950.443  2.918e-16  8.432e-18 
   7951.988  2.792e-16  8.107e-18 
   7953.532  2.877e-16   8.03e-18 
   7955.076   2.86e-16  7.913e-18 
    7956.62  2.876e-16  8.063e-18 
   7958.165  2.852e-16  8.746e-18 
    7959.71  2.885e-16  9.735e-18 
   7961.253  2.907e-16  1.001e-17 
   7962.798  2.741e-16  9.975e-18 
   7964.342  2.878e-16  1.003e-17 
   7965.887  2.874e-16  9.885e-18 
   7967.431  2.855e-16  8.974e-18 
   7968.975  2.802e-16  8.276e-18 
    7970.52  2.739e-16  8.006e-18 
   7972.064  2.846e-16  8.113e-18 
   7973.609  2.831e-16  8.467e-18 
   7975.153  2.764e-16  8.652e-18 
   7976.698  2.845e-16  8.763e-18 
   7978.243   2.78e-16  8.761e-18 
   7979.786  2.844e-16  8.681e-18 
   7981.331  2.642e-16  8.352e-18 
   7982.875  2.802e-16  8.167e-18 
    7984.42  2.687e-16  7.869e-18 
   7985.964  2.798e-16  8.221e-18 
   7987.509  2.808e-16  9.231e-18 
   7989.054  2.911e-16  9.841e-18 
   7990.598  2.848e-16  9.985e-18 
   7992.143  2.754e-16  9.966e-18 
   7993.687  2.671e-16  9.839e-18 
   7995.232  2.789e-16  9.536e-18 
   7996.776  2.704e-16  8.522e-18 
   7998.321  2.653e-16  7.986e-18 
   7999.866  2.706e-16   7.81e-18 
    8001.41  2.729e-16  7.801e-18 
   8002.955  2.733e-16  7.792e-18 
   8004.499  2.677e-16  7.813e-18 
   8006.044  2.771e-16  7.868e-18 
   8007.589  2.765e-16  8.014e-18 
   8009.133  2.706e-16  8.223e-18 
   8010.678  2.718e-16  8.271e-18 
   8012.222  2.725e-16  8.324e-18 
   8013.767  2.699e-16  8.352e-18 
   8015.311  2.683e-16   8.25e-18 
   8016.856  2.823e-16  8.236e-18 
   8018.401  2.628e-16  8.061e-18 
   8019.945  2.754e-16  8.757e-18 
    8021.49  2.851e-16  9.299e-18 
   8023.034  2.663e-16  9.218e-18 
   8024.579  2.788e-16  9.408e-18 
   8026.125  2.676e-16  9.212e-18 
   8027.669  2.625e-16  8.857e-18 
   8029.214  2.534e-16  8.149e-18 
   8030.758  2.661e-16  7.841e-18 
   8032.303  2.659e-16  7.726e-18 
   8033.847  2.591e-16  7.578e-18 
   8035.392   2.54e-16  7.512e-18 
   8036.938  2.622e-16  7.536e-18 
   8038.482   2.61e-16  7.504e-18 
   8040.027  2.622e-16  7.524e-18 
   8041.571   2.66e-16  7.502e-18 
   8043.116  2.578e-16  7.472e-18 
   8044.662  2.638e-16  7.525e-18 
   8046.206  2.581e-16  7.615e-18 
   8047.751  2.519e-16  7.708e-18 
   8049.295  2.668e-16  7.807e-18 
   8050.841   2.69e-16  7.879e-18 
   8052.385   2.63e-16   7.71e-18 
    8053.93  2.591e-16  7.642e-18 
   8055.475  2.622e-16  7.759e-18 
    8057.02  2.625e-16   7.98e-18 
   8058.565  2.432e-16  7.963e-18 
   8060.109  2.633e-16  8.116e-18 
   8061.654  2.708e-16  8.234e-18 
     8063.2   2.52e-16  7.967e-18 
   8064.744  2.667e-16  7.801e-18 
   8066.289  2.554e-16  7.447e-18 
   8067.834  2.516e-16  7.293e-18 
   8069.379   2.63e-16  7.404e-18 
   8070.923  2.607e-16  7.379e-18 
   8072.469  2.524e-16  7.321e-18 
   8074.014  2.577e-16   7.39e-18 
   8075.558  2.621e-16  7.417e-18 
   8077.104  2.493e-16  7.274e-18 
   8078.648  2.599e-16  7.383e-18 
   8080.193  2.459e-16  7.272e-18 
   8081.739  2.511e-16  7.296e-18 
   8083.283  2.508e-16  7.246e-18 
   8084.829  2.562e-16   7.29e-18 
   8086.373  2.501e-16  7.258e-18 
   8087.918   2.57e-16  7.412e-18 
   8089.463  2.456e-16   7.28e-18 
   8091.008  2.464e-16  7.282e-18 
   8092.554  2.593e-16  7.375e-18 
   8094.098   2.55e-16  7.395e-18 
   8095.644  2.634e-16  7.448e-18 
   8097.188    2.5e-16  7.446e-18 
   8098.733  2.566e-16  7.592e-18 
   8100.279  2.599e-16  7.612e-18 
   8101.823  2.498e-16    7.5e-18 
   8103.369  2.697e-16  7.703e-18 
   8104.913   2.44e-16  7.393e-18 
   8106.459  2.573e-16  7.329e-18 
   8108.003   2.57e-16  7.286e-18 
   8109.549  2.504e-16  7.289e-18 
   8111.094  2.595e-16  7.319e-18 
   8112.639   2.42e-16  7.163e-18 
   8114.184  2.382e-16  7.116e-18 
   8115.729  2.518e-16  7.248e-18 
   8117.275  2.517e-16  7.225e-18 
    8118.82  2.429e-16  7.158e-18 
   8120.365  2.545e-16  7.264e-18 
    8121.91  2.506e-16  7.186e-18 
   8123.455  2.488e-16   7.22e-18 
     8125.0  2.462e-16  7.195e-18 
   8126.545  2.516e-16  7.287e-18 
   8128.091  2.428e-16   7.29e-18 
   8129.636  2.388e-16   7.32e-18 
   8131.181  2.314e-16  7.366e-18 
   8132.726   2.48e-16  7.537e-18 
   8134.271  2.312e-16  7.428e-18 
   8135.817  2.432e-16  7.484e-18 
   8137.362  2.396e-16  7.437e-18 
   8138.907  2.422e-16  7.466e-18 
   8140.453  2.532e-16  7.594e-18 
   8141.997  2.471e-16  7.605e-18 
   8143.543  2.441e-16  7.624e-18 
   8145.088  2.469e-16  7.681e-18 
   8146.633  2.345e-16  7.552e-18 
   8148.179  2.432e-16  7.659e-18 
   8149.724  2.445e-16  7.658e-18 
   8151.269  2.456e-16  7.605e-18 
   8152.814  2.418e-16  7.521e-18 
    8154.36  2.337e-16   7.37e-18 
   8155.905  2.333e-16  7.333e-18 
    8157.45  2.525e-16  7.638e-18 
   8158.996  2.391e-16  7.697e-18 
   8160.541  2.409e-16  7.806e-18 
   8162.086  2.368e-16  7.795e-18 
   8163.631  2.457e-16  7.739e-18 
   8165.177  2.432e-16  7.748e-18 
   8166.723  2.323e-16  7.582e-18 
   8168.267  2.438e-16  7.669e-18 
   8169.813  2.486e-16  7.493e-18 
   8171.358  2.436e-16  7.418e-18 
   8172.904  2.447e-16  7.549e-18 
   8174.448  2.556e-16  7.928e-18 
   8175.994  2.429e-16  8.064e-18 
    8177.54  2.417e-16  8.264e-18 
   8179.085  2.335e-16  8.291e-18 
   8180.631  2.287e-16  8.184e-18 
   8182.176  2.398e-16  8.194e-18 
   8183.721  2.411e-16  8.232e-18 
   8185.267  2.341e-16  8.168e-18 
   8186.812  2.398e-16  8.173e-18 
   8188.358  2.523e-16  8.391e-18 
   8189.903  2.392e-16   8.48e-18 
   8191.449  2.423e-16  8.554e-18 
   8192.994   2.38e-16  8.466e-18 
   8194.539  2.291e-16  8.483e-18 
   8196.085  2.414e-16  8.569e-18 
    8197.63   2.42e-16  8.315e-18 
   8199.176  2.294e-16  7.867e-18 
   8200.721  2.398e-16  7.719e-18 
   8202.267  2.457e-16  7.605e-18 
   8203.813  2.299e-16  7.315e-18 
   8205.358  2.316e-16  7.314e-18 
   8206.904  2.282e-16   7.22e-18 
   8208.449  2.419e-16  7.389e-18 
   8209.994  2.301e-16  7.258e-18 
   8211.539   2.37e-16  7.305e-18 
   8213.085  2.423e-16  7.325e-18 
   8214.631  2.356e-16  7.261e-18 
   8216.176  2.272e-16  7.239e-18 
   8217.722  2.373e-16  7.316e-18 
   8219.267  2.379e-16  7.368e-18 
   8220.813  2.339e-16  7.426e-18 
   8222.359  2.339e-16  7.618e-18 
   8223.904  2.455e-16  8.112e-18 
    8225.45  2.451e-16  8.437e-18 
   8226.995  2.304e-16  8.612e-18 
   8228.541  2.248e-16  8.394e-18 
   8230.086  2.484e-16  8.446e-18 
   8231.632  2.494e-16  8.069e-18 
   8233.178  2.478e-16  7.798e-18 
   8234.723  2.435e-16  7.571e-18 
   8236.269  2.503e-16  7.558e-18 
   8237.814  2.444e-16  7.495e-18 
    8239.36  2.493e-16  7.583e-18 
   8240.907  2.413e-16  7.567e-18 
   8242.452  2.327e-16  7.382e-18 
   8243.998  2.365e-16   7.38e-18 
   8245.543  2.318e-16  7.257e-18 
   8247.089  2.327e-16  7.208e-18 
   8248.634  2.326e-16  7.217e-18 
    8250.18  2.326e-16  7.208e-18 
   8251.726  2.327e-16  7.266e-18 
   8253.271   2.35e-16  7.388e-18 
   8254.817  2.275e-16  7.327e-18 
   8256.362   2.39e-16  7.474e-18 
   8257.909  2.273e-16  7.318e-18 
   8259.455  2.476e-16  7.501e-18 
     8261.0  2.325e-16  7.234e-18 
   8262.546  2.375e-16  7.255e-18 
   8264.091  2.321e-16  7.183e-18 
   8265.637  2.283e-16  7.115e-18 
   8267.182    2.3e-16  7.112e-18 
   8268.729  2.305e-16  7.242e-18 
   8270.275  2.379e-16   7.49e-18 
    8271.82  2.356e-16  7.786e-18 
   8273.366  2.295e-16  8.122e-18 
   8274.911  2.403e-16  8.553e-18 
   8276.458  2.287e-16  8.937e-18 
   8278.004  2.492e-16  9.334e-18 
   8279.549   2.37e-16  9.152e-18 
   8281.095  2.335e-16   9.19e-18 
    8282.64  2.373e-16   9.66e-18 
   8284.187  2.377e-16  9.863e-18 
   8285.732  2.152e-16  9.458e-18 
   8287.278   2.37e-16  9.687e-18 
   8288.824  2.275e-16  9.389e-18 
    8290.37  2.275e-16  9.314e-18 
   8291.916  2.253e-16  8.995e-18 
   8293.461  2.416e-16  9.723e-18 
   8295.007  2.183e-16  9.753e-18 
   8296.553  2.306e-16  9.896e-18 
   8298.099  2.339e-16  9.804e-18 
   8299.645  2.346e-16  9.486e-18 
    8301.19  2.168e-16  8.861e-18 
   8302.737  2.195e-16  7.898e-18 
   8304.282  2.236e-16  7.786e-18 
   8305.828  2.291e-16  7.928e-18 
   8307.375   2.43e-16  8.118e-18 
    8308.92  2.292e-16   7.89e-18 
   8310.466   2.29e-16  7.956e-18 
   8312.012  2.258e-16  7.965e-18 
   8313.558  2.308e-16  7.759e-18 
   8315.103  2.202e-16   7.48e-18 
    8316.65  2.238e-16  7.594e-18 
   8318.196  2.302e-16  7.656e-18 
   8319.741  2.261e-16  7.537e-18 
   8321.288  2.277e-16  7.443e-18 
   8322.833    2.3e-16  7.294e-18 
   8324.379  2.262e-16  7.197e-18 
   8325.926  2.245e-16  7.234e-18 
   8327.471  2.276e-16   7.22e-18 
   8329.017   2.11e-16  7.073e-18 
   8330.563  2.272e-16  7.316e-18 
   8332.109  2.302e-16  7.453e-18 
   8333.655  2.283e-16  7.393e-18 
   8335.201  2.255e-16  7.456e-18 
   8336.747  2.323e-16  7.957e-18 
   8338.293  2.235e-16  9.922e-18 
   8339.839  2.325e-16  1.151e-17 
   8341.385  2.422e-16  1.176e-17 
   8342.931  2.161e-16  1.166e-17 
   8344.477  2.401e-16  1.167e-17 
   8346.023  2.261e-16  1.139e-17 
   8347.569  2.175e-16  1.011e-17 
   8349.115  2.149e-16  9.153e-18 
   8350.661  2.214e-16  8.991e-18 
   8352.207  2.313e-16  8.979e-18 
   8353.753  2.275e-16  8.839e-18 
     8355.3  2.297e-16  8.333e-18 
   8356.845  2.217e-16  7.586e-18 
   8358.392  2.337e-16  7.763e-18 
   8359.937  2.383e-16  8.038e-18 
   8361.484  2.244e-16  7.897e-18 
    8363.03  2.303e-16  7.921e-18 
   8364.576  2.438e-16  8.017e-18 
   8366.122  2.236e-16  7.692e-18 
   8367.668  2.232e-16  7.323e-18 
   8369.214  2.238e-16  7.175e-18 
    8370.76  2.244e-16  7.182e-18 
   8372.306  2.261e-16   7.13e-18 
   8373.853  2.302e-16   7.31e-18 
   8375.398  2.253e-16  7.522e-18 
   8376.945  2.282e-16  8.046e-18 
    8378.49  2.228e-16  8.262e-18 
   8380.037  2.299e-16  8.329e-18 
   8381.583  2.148e-16  8.195e-18 
   8383.129  2.324e-16  8.237e-18 
   8384.675  2.422e-16  7.955e-18 
   8386.221  2.254e-16   7.31e-18 
   8387.768  2.218e-16  7.091e-18 
   8389.313  2.244e-16  7.148e-18 
    8390.86   2.21e-16  7.144e-18 
   8392.406  2.263e-16  8.152e-18 
   8393.952  2.328e-16  9.986e-18 
   8395.499  2.216e-16  1.039e-17 
   8397.044  2.312e-16  1.034e-17 
   8398.591  2.152e-16  1.036e-17 
   8400.136   2.29e-16  1.029e-17 
   8401.683  2.303e-16  9.112e-18 
    8403.23  2.148e-16  7.506e-18 
   8404.775  2.288e-16  7.206e-18 
   8406.322  2.244e-16  7.119e-18 
   8407.867  2.195e-16  7.137e-18 
   8409.414  2.362e-16  7.929e-18 
   8410.961  2.222e-16  8.235e-18 
   8412.506  2.293e-16  8.345e-18 
   8414.053   2.27e-16  8.329e-18 
   8415.599   2.32e-16  8.366e-18 
   8417.145   2.12e-16  7.936e-18 
   8418.691  2.307e-16  7.453e-18 
   8420.238  2.242e-16  7.142e-18 
   8421.784  2.375e-16  7.358e-18 
    8423.33  2.309e-16  8.196e-18 
   8424.877  2.411e-16  1.013e-17 
   8426.422  2.355e-16   1.06e-17 
   8427.969  2.309e-16  1.061e-17 
   8429.516  2.329e-16  1.057e-17 
   8431.061  2.378e-16  1.041e-17 
   8432.608  2.206e-16  9.162e-18 
   8434.154  2.136e-16  7.409e-18 
   8435.701  2.176e-16  7.057e-18 
   8437.246  2.255e-16  6.986e-18 
   8438.793  2.198e-16  6.837e-18 
    8440.34  2.268e-16  6.945e-18 
   8441.886  2.327e-16  7.082e-18 
   8443.432  2.235e-16  6.973e-18 
   8444.978  2.357e-16   7.23e-18 
   8446.525  2.378e-16  7.808e-18 
   8448.072  2.236e-16  8.035e-18 
   8449.617  2.348e-16  8.135e-18 
   8451.164  2.261e-16   8.06e-18 
    8452.71  2.141e-16  7.925e-18 
   8454.257  2.277e-16  7.772e-18 
   8455.802  2.207e-16  7.183e-18 
   8457.349  2.159e-16  6.975e-18 
   8458.896  2.342e-16  8.062e-18 
   8460.442  2.336e-16  9.238e-18 
   8461.988  2.186e-16  9.396e-18 
   8463.534  2.293e-16   9.49e-18 
   8465.081  2.282e-16  9.378e-18 
   8466.628  2.301e-16  9.224e-18 
   8468.174   2.23e-16   8.06e-18 
    8469.72  2.192e-16    7.1e-18 
   8471.266  2.212e-16  6.919e-18 
   8472.813  2.212e-16  6.863e-18 
   8474.359   2.27e-16  6.893e-18 
   8475.906  2.293e-16  6.918e-18 
   8477.453  2.216e-16  6.812e-18 
   8478.998  2.126e-16  6.644e-18 
   8480.545  2.163e-16  6.692e-18 
   8482.091  2.066e-16  6.532e-18 
   8483.638   2.15e-16  6.658e-18 
   8485.184  2.248e-16  6.763e-18 
   8486.731   2.17e-16  6.802e-18 
   8488.277  2.259e-16  7.324e-18 
   8489.823  2.149e-16  7.294e-18 
    8491.37  2.206e-16  7.396e-18 
   8492.916   2.18e-16  7.347e-18 
   8494.463  2.208e-16  7.386e-18 
    8496.01  2.182e-16  7.086e-18 
   8497.556  2.099e-16  6.861e-18 
   8499.103  2.191e-16  7.657e-18 
   8500.648  2.137e-16  7.963e-18 
   8502.195  2.136e-16  7.909e-18 
   8503.741  2.248e-16  8.144e-18 
   8505.288  2.232e-16  7.996e-18 
   8506.835  2.194e-16  7.626e-18 
   8508.381  2.081e-16  6.816e-18 
   8509.928  2.094e-16   6.58e-18 
   8511.474  2.086e-16  6.498e-18 
   8513.021  2.078e-16  6.475e-18 
   8514.568  2.011e-16  6.419e-18 
   8516.114  2.096e-16  6.545e-18 
   8517.661  2.113e-16  6.554e-18 
   8519.206  2.134e-16  6.593e-18 
   8520.753  2.218e-16  6.645e-18 
   8522.299  2.214e-16  6.679e-18 
   8523.846  2.121e-16  6.552e-18 
   8525.393  2.174e-16  6.572e-18 
   8526.939  2.221e-16  6.624e-18 
   8528.486  2.063e-16   6.46e-18 
   8530.032  2.171e-16  6.527e-18 
   8531.579  2.065e-16  6.516e-18 
   8533.126    2.1e-16  6.673e-18 
   8534.672   2.13e-16  6.751e-18 
   8536.219  2.113e-16  6.845e-18 
   8537.765  2.163e-16  6.785e-18 
   8539.312  2.095e-16   6.73e-18 
   8540.858  2.121e-16  6.695e-18 
   8542.405   2.11e-16  6.825e-18 
   8543.952  2.173e-16  7.104e-18 
   8545.498  2.225e-16  7.209e-18 
   8547.045  2.201e-16  7.225e-18 
   8548.591  2.075e-16  7.123e-18 
   8550.138   2.03e-16  7.011e-18 
   8551.685  2.185e-16  6.862e-18 
   8553.231  2.018e-16  6.504e-18 
   8554.778  2.092e-16  6.485e-18 
   8556.324  2.045e-16  6.418e-18 
   8557.871  2.154e-16  6.515e-18 
   8559.417  2.182e-16  6.566e-18 
   8560.964  2.142e-16  6.491e-18 
   8562.511  2.058e-16   6.45e-18 
   8564.057  2.235e-16   6.62e-18 
   8565.604  2.095e-16  6.471e-18 
    8567.15  2.086e-16  6.501e-18 
   8568.697  2.024e-16  6.456e-18 
   8570.243  2.028e-16  6.485e-18 
    8571.79  2.164e-16  6.696e-18 
   8573.338  2.134e-16  6.652e-18 
   8574.884  2.105e-16  6.611e-18 
   8576.431  2.084e-16  6.559e-18 
   8577.977  2.089e-16  6.579e-18 
   8579.524  2.092e-16  6.573e-18 
   8581.071  2.048e-16  6.469e-18 
   8582.617  2.129e-16  6.698e-18 
   8584.164  2.109e-16   6.71e-18 
    8585.71  2.118e-16  6.689e-18 
   8587.257  2.144e-16  6.838e-18 
   8588.803  2.122e-16  6.707e-18 
    8590.35  2.135e-16  6.785e-18 
   8591.898  2.106e-16  6.809e-18 
   8593.444  2.062e-16  6.791e-18 
   8594.991  2.144e-16  6.896e-18 
   8596.537  2.144e-16  6.897e-18 
   8598.084  2.077e-16  6.818e-18 
   8599.631  2.033e-16  6.679e-18 
   8601.177  2.108e-16   6.71e-18 
   8602.724  2.091e-16  6.659e-18 
    8604.27  2.083e-16  6.646e-18 
   8605.818  2.115e-16  6.763e-18 
   8607.364  2.036e-16  6.759e-18 
   8608.911  1.952e-16  6.785e-18 
   8610.458  2.096e-16  7.056e-18 
   8612.004  2.215e-16  7.376e-18 
   8613.551  2.106e-16  7.442e-18 
   8615.097  2.066e-16  7.676e-18 
   8616.645  1.978e-16  7.919e-18 
   8618.192  2.085e-16  8.197e-18 
   8619.738  2.045e-16  8.376e-18 
   8621.285   2.08e-16  8.727e-18 
   8622.831  2.125e-16  9.019e-18 
   8624.378  1.952e-16  9.004e-18 
   8625.925  2.012e-16  9.212e-18 
   8627.472  2.002e-16  9.259e-18 
   8629.019  2.041e-16  9.262e-18 
   8630.565   1.97e-16  9.095e-18 
   8632.112   2.13e-16  9.007e-18 
   8633.658  2.071e-16  8.784e-18 
   8635.206   2.01e-16  8.494e-18 
   8636.753  2.085e-16  8.295e-18 
   8638.299  1.972e-16  7.813e-18 
   8639.846  2.042e-16  7.509e-18 
   8641.392  1.966e-16  7.481e-18 
    8642.94  2.007e-16  7.466e-18 
   8644.486  2.024e-16  7.786e-18 
   8646.033  2.024e-16  8.137e-18 
    8647.58  1.991e-16  8.251e-18 
   8649.126  2.085e-16  8.805e-18 
   8650.674  1.997e-16  8.988e-18 
    8652.22  1.951e-16  8.956e-18 
   8653.767  1.922e-16  9.104e-18 
   8655.313  1.993e-16  9.305e-18 
   8656.861  2.049e-16  9.225e-18 
   8658.408   2.01e-16  9.047e-18 
   8659.954  2.105e-16  9.245e-18 
   8661.501  1.978e-16  9.095e-18 
   8663.048  1.889e-16  8.713e-18 
   8664.595  1.991e-16  8.798e-18 
   8666.142  2.012e-16  8.831e-18 
   8667.688  1.902e-16   8.38e-18 
   8669.236   1.99e-16  8.384e-18 
   8670.782   2.06e-16  8.451e-18 
   8672.329  1.968e-16  8.107e-18 
   8673.875  2.075e-16  8.002e-18 
   8675.423  1.995e-16  7.962e-18 
    8676.97  1.939e-16  7.774e-18 
   8678.516   2.05e-16  7.639e-18 
   8680.063  1.996e-16  7.439e-18 
    8681.61  1.875e-16  7.348e-18 
   8683.157  1.999e-16  7.417e-18 
   8684.704  1.911e-16  7.083e-18 
    8686.25  2.028e-16  7.166e-18 
   8687.798   2.02e-16  7.222e-18 
   8689.344  1.989e-16    7.1e-18 
   8690.891  1.965e-16  6.927e-18 
   8692.438  2.027e-16  7.019e-18 
   8693.985  1.929e-16  6.968e-18 
   8695.532  1.952e-16   6.93e-18 
   8697.078  1.863e-16  6.855e-18 
   8698.626  1.942e-16  6.937e-18 
   8700.172  1.901e-16   6.89e-18 
   8701.719  2.029e-16  6.999e-18 
   8703.267   1.93e-16  6.937e-18 
   8704.813  1.942e-16  6.857e-18 
    8706.36  1.937e-16  6.875e-18 
   8707.907  1.934e-16  6.884e-18 
   8709.454  2.012e-16  6.889e-18 
     8711.0  1.986e-16  6.801e-18 
   8712.547  1.943e-16  6.764e-18 
   8714.095  1.972e-16   6.75e-18 
   8715.641  1.902e-16  6.651e-18 
   8717.188  1.945e-16  6.709e-18 
   8718.735  1.844e-16  6.588e-18 
   8720.282   1.98e-16  6.755e-18 
   8721.828  1.912e-16  6.744e-18 
   8723.376   2.04e-16   6.85e-18 
   8724.923  1.876e-16  6.647e-18 
   8726.469  1.943e-16   6.77e-18 
   8728.017  1.893e-16  6.678e-18 
   8729.563  1.911e-16  6.695e-18 
    8731.11  1.915e-16  6.734e-18 
   8732.658  1.925e-16  6.719e-18 
   8734.204  2.036e-16  6.858e-18 
   8735.752  1.957e-16  6.797e-18 
   8737.298  1.911e-16  6.777e-18 
   8738.845  1.925e-16  6.762e-18 
   8740.392  1.915e-16  6.822e-18 
   8741.939   1.98e-16  6.817e-18 
   8743.486  1.856e-16  6.662e-18 
   8745.033  1.907e-16  6.727e-18 
    8746.58  2.029e-16  6.906e-18 
   8748.126  1.841e-16  6.604e-18 
   8749.674  1.859e-16   6.65e-18 
   8751.221  1.929e-16  6.811e-18 
   8752.767  1.894e-16  7.131e-18 
   8754.315  1.926e-16  7.845e-18 
   8755.861  1.983e-16  8.929e-18 
   8757.409  1.908e-16  9.173e-18 
   8758.955  1.871e-16  9.261e-18 
   8760.502  1.909e-16  9.841e-18 
    8762.05  1.909e-16  1.058e-17 
   8763.596  1.916e-16  1.067e-17 
   8765.144  1.898e-16      1e-17 
    8766.69  2.172e-16  9.984e-18 
   8768.237  1.991e-16  9.734e-18 
   8769.785  1.915e-16   9.23e-18 
   8771.331  1.873e-16   8.89e-18 
   8772.879  1.986e-16  9.986e-18 
   8774.425  2.135e-16  1.035e-17 
   8775.972  1.819e-16   1.01e-17 
   8777.519  1.973e-16   1.02e-17 
   8779.066  1.997e-16  9.679e-18 
   8780.614  1.892e-16  8.489e-18 
    8782.16  1.868e-16  7.016e-18 
   8783.707  1.962e-16  6.995e-18 
   8785.254   1.93e-16  7.471e-18 
   8786.801  1.949e-16  7.801e-18 
   8788.348  1.897e-16  7.856e-18 
   8789.895  1.813e-16  7.764e-18 
   8791.442  1.963e-16  7.869e-18 
   8792.989  1.968e-16   7.62e-18 
   8794.536  1.852e-16  6.879e-18 
   8796.083  1.921e-16  6.631e-18 
    8797.63    1.9e-16    6.6e-18 
   8799.178  1.902e-16  6.611e-18 
   8800.724  1.946e-16  6.675e-18 
   8802.271  1.865e-16  6.615e-18 
   8803.818  1.837e-16  6.603e-18 
   8805.365  1.854e-16    6.7e-18 
   8806.912  1.912e-16  6.791e-18 
   8808.459  1.835e-16  6.687e-18 
   8810.007  1.909e-16  6.752e-18 
   8811.553  1.927e-16  6.742e-18 
     8813.1  1.844e-16  6.624e-18 
   8814.647  1.879e-16  6.555e-18 
   8816.194  1.851e-16  6.552e-18 
   8817.742  1.908e-16  6.739e-18 
   8819.288   1.77e-16  7.375e-18 
   8820.836  1.992e-16   1.05e-17 
   8822.382  1.975e-16  1.241e-17 
    8823.93  1.822e-16   1.26e-17 
   8825.476   1.75e-16  1.254e-17 
   8827.023   1.79e-16  1.265e-17 
   8828.571  1.872e-16  1.203e-17 
   8830.117  1.672e-16  9.927e-18 
   8831.665   1.97e-16  9.408e-18 
   8833.211  1.796e-16   9.26e-18 
   8834.759  1.899e-16  9.195e-18 
   8836.306  1.871e-16   9.05e-18 
   8837.853  1.808e-16  8.716e-18 
     8839.4  1.852e-16  7.481e-18 
   8840.947  1.797e-16  6.648e-18 
   8842.494  1.847e-16  6.717e-18 
   8844.041   1.96e-16  7.259e-18 
   8845.588  1.929e-16  7.439e-18 
   8847.136  1.838e-16  7.369e-18 
   8848.682  1.849e-16  7.318e-18 
   8850.229  2.002e-16   7.45e-18 
   8851.776  2.008e-16   7.17e-18 
   8853.323  1.788e-16  6.503e-18 
    8854.87  1.927e-16  6.521e-18 
   8856.417  1.889e-16  6.524e-18 
   8857.965  1.875e-16  6.541e-18 
   8859.511  1.847e-16  6.609e-18 
   8861.059  1.931e-16  7.341e-18 
   8862.605  1.916e-16   8.13e-18 
   8864.153  1.834e-16  8.137e-18 
     8865.7  1.899e-16  8.113e-18 
   8867.247  1.783e-16  8.019e-18 
   8868.794  1.734e-16  7.831e-18 
   8870.341  1.912e-16  7.175e-18 
   8871.888  1.798e-16  6.419e-18 
   8873.435  1.877e-16  6.395e-18 
   8874.982  1.834e-16  6.345e-18 
    8876.53  1.869e-16  6.344e-18 
   8878.076  1.868e-16  6.795e-18 
   8879.624  1.894e-16  9.159e-18 
    8881.17  1.871e-16  1.081e-17 
   8882.718  1.883e-16  1.106e-17 
   8884.265  1.692e-16  1.079e-17 
   8885.812  1.833e-16  1.092e-17 
   8887.359  1.852e-16  1.036e-17 
   8888.906   1.71e-16  7.927e-18 
   8890.453   1.74e-16  6.565e-18 
     8892.0  1.814e-16   6.38e-18 
   8893.547  1.891e-16  6.514e-18 
   8895.095  1.838e-16  6.483e-18 
   8896.641  1.825e-16  7.288e-18 
   8898.189   1.95e-16  8.269e-18 
   8899.735  1.842e-16  8.407e-18 
   8901.283   1.89e-16  8.325e-18 
    8902.83  1.852e-16  8.368e-18 
   8904.377  1.876e-16  8.244e-18 
   8905.924   1.85e-16  7.279e-18 
   8907.471  1.775e-16   6.53e-18 
   8909.018  1.833e-16  6.459e-18 
   8910.565  1.874e-16  6.498e-18 
   8912.112  1.819e-16  7.056e-18 
    8913.66  1.887e-16  9.605e-18 
   8915.206  1.835e-16  1.104e-17 
   8916.754  1.761e-16  1.099e-17 
     8918.3   1.79e-16  1.106e-17 
   8919.848  1.794e-16  1.107e-17 
   8921.394    1.9e-16  1.036e-17 
   8922.942  1.716e-16  7.624e-18 
   8924.489  1.836e-16  6.651e-18 
   8926.036   1.75e-16  6.458e-18 
   8927.583   1.84e-16  6.589e-18 
    8929.13  1.884e-16  6.579e-18 
   8930.678  1.916e-16  6.643e-18 
   8932.225  1.862e-16  6.458e-18 
   8933.772  1.876e-16  6.334e-18 
   8935.319  1.816e-16  6.359e-18 
   8936.866  1.957e-16  7.182e-18 
   8938.413  1.872e-16  7.892e-18 
    8939.96  1.867e-16  8.063e-18 
   8941.507  1.792e-16  8.026e-18 
   8943.055  1.826e-16  8.039e-18 
   8944.601  1.832e-16  7.926e-18 
   8946.149   1.76e-16  7.179e-18 
   8947.695  1.798e-16  6.539e-18 
   8949.243  1.854e-16  6.607e-18 
    8950.79   1.83e-16  7.432e-18 
   8952.337  1.879e-16  9.577e-18 
   8953.884  1.927e-16  1.057e-17 
   8955.431  1.888e-16  1.041e-17 
   8956.978  1.896e-16  1.042e-17 
   8958.525  1.716e-16  1.033e-17 
   8960.073  1.599e-16  9.715e-18 
    8961.62  1.826e-16  7.829e-18 
   8963.167   1.76e-16  6.901e-18 
   8964.714  1.699e-16  6.673e-18 
   8966.261  1.734e-16  6.624e-18 
   8967.808  1.833e-16  6.819e-18 
   8969.356  1.833e-16  6.828e-18 
   8970.902  1.819e-16  6.938e-18 
    8972.45  1.725e-16  6.764e-18 
   8973.996  1.821e-16   6.72e-18 
   8975.544  1.787e-16  6.649e-18 
    8977.09  1.928e-16  6.809e-18 
   8978.638  1.816e-16  6.697e-18 
   8980.185   1.79e-16  6.704e-18 
   8981.732  1.796e-16   7.14e-18 
    8983.28  1.929e-16   8.13e-18 
   8984.826  1.881e-16  8.707e-18 
   8986.374  1.846e-16  9.441e-18 
    8987.92  1.849e-16  9.842e-18 
   8989.468  1.825e-16  9.277e-18 
   8991.015  1.702e-16  7.843e-18 
   8992.562  1.715e-16  6.806e-18 
   8994.109  1.864e-16  7.073e-18 
   8995.656  1.883e-16  8.209e-18 
   8997.203  1.754e-16  8.969e-18 
   8998.751  1.723e-16  9.367e-18 
   9000.297  1.792e-16  9.676e-18 
   9001.845  1.702e-16  9.634e-18 
   9003.392  1.718e-16  8.833e-18 
   9004.939  1.687e-16  7.183e-18 
   9006.486  1.802e-16  6.889e-18 
   9008.033  1.775e-16  6.714e-18 
   9009.581  1.782e-16  6.498e-18 
   9011.127  1.736e-16  6.476e-18 
   9012.675  1.788e-16  6.659e-18 
   9014.221  1.834e-16  6.761e-18 
   9015.769  1.773e-16  6.664e-18 
   9017.316  1.799e-16  6.641e-18 
   9018.863  1.792e-16   6.64e-18 
    9020.41  1.807e-16  6.733e-18 
   9021.957  1.685e-16  6.723e-18 
   9023.505  1.798e-16  6.799e-18 
   9025.051  1.786e-16  6.725e-18 
   9026.599  1.829e-16   6.75e-18 
   9028.146  1.695e-16  6.495e-18 
   9029.693  1.811e-16  6.498e-18 
    9031.24  1.817e-16  6.556e-18 
   9032.787   1.81e-16  6.756e-18 
   9034.334  1.763e-16  6.776e-18 
   9035.882  1.785e-16  6.772e-18 
   9037.428  1.775e-16  6.909e-18 
   9038.976  1.724e-16  6.951e-18 
   9040.522   1.82e-16  6.837e-18 
    9042.07  1.603e-16  6.485e-18 
   9043.616   1.82e-16  7.229e-18 
   9045.164  1.801e-16  7.459e-18 
   9046.712  1.781e-16  7.438e-18 
   9048.258  1.787e-16  7.596e-18 
   9049.806  1.873e-16   7.74e-18 
   9051.352  1.687e-16  7.247e-18 
     9052.9  1.691e-16   6.64e-18 
   9054.446  1.709e-16  6.352e-18 
   9055.994  1.838e-16  6.415e-18 
   9057.541   1.73e-16  6.323e-18 
   9059.088  1.704e-16  6.602e-18 
   9060.635  1.814e-16  6.778e-18 
   9062.182  1.729e-16  6.546e-18 
   9063.729  1.712e-16  6.636e-18 
   9065.277  1.768e-16  6.844e-18 
   9066.823  1.746e-16  6.909e-18 
   9068.371  1.751e-16  7.083e-18 
   9069.917  1.735e-16  7.152e-18 
   9071.465  1.728e-16  6.933e-18 
   9073.012  1.703e-16  6.676e-18 
   9074.559  1.729e-16  6.628e-18 
   9076.107  1.737e-16  6.823e-18 
   9077.653   1.87e-16  7.091e-18 
   9079.201  1.725e-16  6.955e-18 
   9080.747  1.574e-16  6.631e-18 
   9082.295  1.727e-16   6.77e-18 
   9083.842  1.821e-16  7.003e-18 
   9085.389  1.793e-16  6.983e-18 
   9086.936  1.644e-16  6.914e-18 
   9088.483  1.745e-16  7.089e-18 
    9090.03  1.753e-16  7.138e-18 
   9091.577  1.727e-16  6.996e-18 
   9093.124  1.726e-16  6.989e-18 
   9094.672  1.667e-16  6.952e-18 
   9096.218   1.74e-16  7.363e-18 
   9097.766  1.708e-16  7.627e-18 
   9099.312  1.682e-16  7.512e-18 
    9100.86  1.648e-16  7.438e-18 
   9102.406  1.802e-16  7.724e-18 
   9103.954   1.76e-16  7.726e-18 
   9105.501  1.631e-16  7.184e-18 
   9107.048  1.724e-16  6.972e-18 
   9108.596  1.695e-16  6.521e-18 
   9110.142  1.821e-16  6.529e-18 
    9111.69  1.776e-16  6.498e-18 
   9113.237  1.759e-16  6.607e-18 
   9114.784   1.72e-16   6.83e-18 
   9116.331  1.843e-16  7.185e-18 
   9117.878  1.666e-16  6.874e-18 
   9119.425  1.658e-16  6.579e-18 
   9120.972  1.746e-16  6.619e-18 
   9122.519  1.727e-16  6.543e-18 
   9124.067  1.696e-16  6.588e-18 
   9125.613  1.679e-16  6.813e-18 
   9127.161  1.784e-16  7.282e-18 
   9128.707  1.653e-16  7.226e-18 
   9130.255  1.754e-16  7.443e-18 
   9131.802  1.668e-16  7.508e-18 
   9133.349  1.692e-16  7.614e-18 
   9134.896  1.602e-16  7.292e-18 
   9136.443  1.682e-16  7.155e-18 
    9137.99  1.639e-16  6.795e-18 
   9139.537  1.648e-16  6.614e-18 
   9141.084  1.757e-16  6.729e-18 
   9142.632  1.692e-16  6.609e-18 
   9144.178  1.676e-16  6.527e-18 
   9145.726   1.61e-16  6.645e-18 
   9147.272  1.656e-16  6.984e-18 
    9148.82  1.687e-16  7.463e-18 
   9150.367  1.645e-16   7.91e-18 
   9151.913  1.692e-16  8.335e-18 
   9153.461  1.726e-16  8.195e-18 
   9155.007  1.661e-16  7.975e-18 
   9156.555  1.765e-16  7.771e-18 
   9158.101  1.625e-16  7.422e-18 
   9159.649  1.586e-16   7.13e-18 
   9161.196  1.717e-16  7.147e-18 
   9162.743  1.708e-16  6.912e-18 
    9164.29   1.65e-16  6.801e-18 
   9165.837  1.655e-16  6.734e-18 
   9167.384  1.635e-16  6.698e-18 
   9168.931  1.613e-16  6.913e-18 
   9170.478  1.802e-16  7.484e-18 
   9172.026  1.699e-16  7.585e-18 
   9173.572  1.605e-16  7.631e-18 
    9175.12   1.76e-16  7.584e-18 
   9176.666   1.71e-16  7.083e-18 
   9178.214  1.753e-16   6.96e-18 
   9179.761  1.658e-16  6.782e-18 
   9181.308  1.638e-16  6.875e-18 
   9182.855  1.657e-16  6.911e-18 
   9184.401  1.648e-16  6.776e-18 
   9185.949  1.692e-16  6.656e-18 
   9187.495  1.712e-16  6.625e-18 
   9189.043  1.656e-16  6.628e-18 
    9190.59  1.751e-16  6.814e-18 
   9192.137  1.683e-16  6.802e-18 
   9193.684  1.711e-16  6.897e-18 
   9195.231  1.658e-16  6.728e-18 
   9196.778  1.724e-16  6.698e-18 
   9198.326  1.665e-16  6.497e-18 
   9199.872  1.687e-16   6.47e-18 
   9201.419  1.674e-16  6.416e-18 
   9202.966   1.63e-16  6.539e-18 
   9204.513  1.695e-16  6.585e-18 
    9206.06  1.632e-16  6.631e-18 
   9207.607  1.707e-16  6.679e-18 
   9209.155  1.701e-16  6.743e-18 
   9210.701  1.702e-16  6.921e-18 
   9212.248  1.643e-16  7.094e-18 
   9213.795  1.743e-16  7.261e-18 
   9215.342  1.647e-16  7.105e-18 
   9216.889  1.635e-16  7.019e-18 
   9218.436  1.583e-16  6.851e-18 
   9219.984  1.688e-16  6.944e-18 
    9221.53  1.686e-16  6.934e-18 
   9223.077  1.649e-16  6.926e-18 
   9224.624  1.679e-16  6.939e-18 
   9226.171  1.531e-16  6.738e-18 
   9227.719  1.711e-16  6.829e-18 
   9229.265  1.673e-16  6.688e-18 
   9230.813    1.6e-16  6.566e-18 
   9232.359  1.623e-16  6.688e-18 
   9233.906  1.637e-16  6.702e-18 
   9235.453  1.657e-16   6.76e-18 
     9237.0  1.754e-16  6.905e-18 
   9238.548  1.713e-16  6.782e-18 
   9240.094  1.692e-16  6.784e-18 
   9241.641  1.615e-16  6.785e-18 
   9243.188  1.641e-16   6.83e-18 
   9244.735  1.492e-16  6.703e-18 
   9246.283  1.694e-16  6.936e-18 
   9247.829  1.674e-16  6.888e-18 
   9249.376  1.712e-16  6.925e-18 
   9250.923  1.629e-16  6.749e-18 
    9252.47  1.643e-16    6.6e-18 
   9254.017  1.699e-16  6.603e-18 
   9255.564  1.632e-16  6.665e-18 
   9257.111  1.662e-16  6.816e-18 
   9258.658  1.594e-16  6.732e-18 
   9260.205  1.697e-16  6.855e-18 
   9261.751  1.634e-16  6.648e-18 
   9263.299  1.579e-16  6.447e-18 
   9264.846  1.578e-16  6.403e-18 
   9266.393  1.635e-16  6.501e-18 
    9267.94  1.577e-16  6.391e-18 
   9269.486  1.686e-16  6.647e-18 
   9271.034  1.637e-16   6.71e-18 
    9272.58  1.725e-16  6.851e-18 
   9274.127  1.668e-16  6.982e-18 
   9275.675  1.706e-16  7.212e-18 
   9277.221  1.662e-16   7.37e-18 
   9278.768  1.591e-16   7.25e-18 
   9280.315  1.555e-16  7.294e-18 
   9281.862  1.666e-16  7.532e-18 
   9283.409  1.631e-16  7.632e-18 
   9284.956  1.606e-16  7.558e-18 
   9286.503  1.687e-16  7.666e-18 
    9288.05  1.663e-16   7.64e-18 
   9289.597  1.693e-16  7.745e-18 
   9291.143  1.649e-16  7.848e-18 
   9292.691  1.671e-16   8.09e-18 
   9294.238  1.567e-16   8.26e-18 
   9295.784  1.649e-16  8.338e-18 
   9297.332  1.649e-16  8.459e-18 
   9298.878  1.714e-16  9.206e-18 
   9300.425  1.676e-16  1.081e-17 
   9301.972  1.938e-16  1.244e-17 
   9303.519  1.653e-16  1.318e-17 
   9305.066  1.549e-16  1.453e-17 
   9306.612  1.706e-16  1.746e-17 
    9308.16  1.513e-16  1.896e-17 
   9309.706  1.575e-16  1.788e-17 
   9311.253  1.537e-16   1.78e-17 
   9312.801  1.768e-16  1.922e-17 
   9314.347  1.711e-16  1.981e-17 
   9315.894   1.46e-16  1.735e-17 
   9317.441  1.474e-16  1.601e-17 
   9318.988  1.801e-16  1.811e-17 
   9320.534  1.555e-16   1.89e-17 
   9322.081  1.717e-16  2.029e-17 
   9323.629  1.699e-16  1.988e-17 
   9325.175  1.582e-16  1.747e-17 
   9326.722  1.576e-16   1.28e-17 
   9328.269   1.67e-16   1.06e-17 
   9329.816  1.562e-16  1.098e-17 
   9331.363  1.967e-16  1.354e-17 
   9332.909  1.698e-16  1.543e-17 
   9334.457  1.867e-16  1.663e-17 
   9336.003  1.858e-16  1.666e-17 
    9337.55  1.882e-16  1.627e-17 
   9339.097  1.703e-16    1.7e-17 
   9340.644  1.863e-16  1.823e-17 
   9342.191  1.923e-16  1.784e-17 
   9343.737  1.722e-16  1.469e-17 
   9345.285  1.506e-16  1.179e-17 
   9346.831  1.657e-16   1.03e-17 
   9348.378  1.708e-16  9.956e-18 
   9349.924  1.721e-16   1.06e-17 
   9351.472  1.678e-16  1.174e-17 
   9353.019  1.846e-16  1.309e-17 
   9354.565  1.902e-16  1.431e-17 
   9356.112  1.556e-16  1.314e-17 
   9357.659  1.747e-16  1.158e-17 
   9359.206  1.643e-16  1.016e-17 
   9360.753  1.668e-16  9.883e-18 
   9362.299  1.895e-16  1.075e-17 
   9363.846   1.82e-16  1.132e-17 
   9365.393  1.597e-16  1.236e-17 
    9366.94  1.528e-16  1.567e-17 
   9368.486  1.431e-16  2.312e-17 
   9370.033  2.083e-16  3.005e-17 
    9371.58  1.767e-16  3.023e-17 
   9373.127  1.872e-16  2.947e-17 
   9374.674  1.975e-16   3.11e-17 
    9376.22   1.74e-16   3.36e-17 
   9377.767  1.847e-16  3.174e-17 
   9379.314    1.4e-16  1.951e-17 
   9380.861  1.649e-16  1.291e-17 
   9382.408  1.557e-16  1.119e-17 
   9383.954  1.805e-16   1.07e-17 
   9385.501  1.646e-16   9.32e-18 
   9387.047  1.493e-16  8.283e-18 
   9388.595  1.526e-16  7.931e-18 
   9390.142  1.654e-16  7.847e-18 
   9391.688  1.649e-16  7.679e-18 
   9393.235  1.626e-16  7.807e-18 
   9394.781  1.542e-16  8.244e-18 
   9396.328  1.684e-16  9.814e-18 
   9397.875   1.77e-16  1.092e-17 
   9399.422  1.671e-16  1.113e-17 
   9400.969  1.697e-16  1.121e-17 
   9402.515  1.667e-16  1.069e-17 
   9404.062  1.804e-16  1.017e-17 
   9405.608  1.682e-16  9.115e-18 
   9407.155  1.781e-16  9.274e-18 
   9408.703  1.771e-16  9.371e-18 
   9410.249  1.619e-16  8.976e-18 
   9411.796  1.637e-16  9.238e-18 
   9413.342  1.906e-16  1.098e-17 
   9414.889  1.801e-16  1.228e-17 
   9416.435  1.748e-16  1.295e-17 
   9417.982  1.651e-16  1.296e-17 
   9419.529  1.609e-16  1.252e-17 
   9421.076  1.631e-16  1.221e-17 
   9422.623  1.745e-16  1.183e-17 
   9424.169  1.649e-16   1.15e-17 
   9425.716  1.817e-16  1.264e-17 
   9427.263    1.6e-16  1.205e-17 
   9428.809  1.573e-16  1.036e-17 
   9430.356  1.744e-16  9.511e-18 
   9431.902  1.589e-16   9.79e-18 
   9433.449  1.696e-16  1.321e-17 
   9434.995  1.708e-16  1.764e-17 
   9436.543  1.577e-16  2.184e-17 
    9438.09  1.857e-16  2.785e-17 
   9439.636  1.682e-16  3.081e-17 
   9441.183  1.731e-16  2.562e-17 
   9442.729  1.718e-16   1.64e-17 
   9444.276  1.514e-16  1.088e-17 
   9445.823  1.643e-16  9.804e-18 
   9447.369  1.724e-16  9.187e-18 
   9448.916  1.763e-16  9.185e-18 
   9450.462  1.656e-16  1.024e-17 
   9452.009  1.679e-16  1.306e-17 
   9453.555  1.611e-16  1.636e-17 
   9455.102  1.977e-16  1.863e-17 
   9456.649  1.479e-16  1.948e-17 
   9458.195  1.614e-16  1.918e-17 
   9459.742  1.709e-16  1.701e-17 
   9461.288  1.705e-16  1.294e-17 
   9462.835  1.578e-16  1.003e-17 
   9464.381  1.807e-16  1.013e-17 
   9465.928  1.684e-16  9.827e-18 
   9467.475  1.658e-16  9.958e-18 
   9469.021  1.715e-16  1.087e-17 
   9470.568  1.515e-16  1.392e-17 
   9472.114   1.86e-16  1.716e-17 
   9473.661  1.789e-16  1.711e-17 
   9475.208  1.827e-16  1.808e-17 
   9476.754  1.589e-16  1.954e-17 
   9478.301  1.604e-16  1.976e-17 
   9479.847  1.315e-16  1.507e-17 
   9481.394  1.456e-16  1.107e-17 
    9482.94  1.616e-16  9.764e-18 
   9484.487  1.809e-16  9.303e-18 
   9486.034  1.602e-16  8.428e-18 
    9487.58  1.593e-16  8.201e-18 
   9489.127  1.537e-16  8.541e-18 
   9490.673   1.61e-16  9.441e-18 
    9492.22  1.515e-16  1.032e-17 
   9493.767  1.435e-16  1.146e-17 
   9495.313  1.542e-16  1.378e-17 
    9496.86   1.81e-16  1.818e-17 
   9498.406  1.903e-16  2.028e-17 
   9499.953  1.679e-16  1.755e-17 
   9501.499  1.562e-16  1.464e-17 
   9503.046  1.606e-16   1.26e-17 
   9504.593  1.635e-16  1.089e-17 
   9506.138  1.697e-16  8.996e-18 
   9507.685  1.601e-16  7.973e-18 
   9509.231  1.512e-16  7.707e-18 
   9510.778  1.608e-16  8.138e-18 
   9512.324  1.494e-16  9.005e-18 
   9513.871  1.739e-16  1.114e-17 
   9515.418  1.702e-16  1.257e-17 
   9516.964   1.64e-16  1.373e-17 
   9518.511  1.682e-16  1.451e-17 
   9520.057  1.857e-16  1.408e-17 
   9521.603  1.688e-16  1.265e-17 
    9523.15  1.682e-16  1.102e-17 
   9524.696  1.649e-16  1.052e-17 
   9526.243  1.738e-16  1.026e-17 
   9527.789  1.507e-16  9.539e-18 
   9529.336  1.428e-16  8.909e-18 
   9530.882  1.621e-16   9.16e-18 
   9532.428  1.472e-16  9.263e-18 
   9533.975  1.555e-16   9.17e-18 
   9535.521   1.45e-16   8.93e-18 
   9537.068  1.621e-16  9.193e-18 
   9538.614  1.578e-16  9.114e-18 
   9540.161  1.626e-16  9.527e-18 
   9541.708  1.575e-16  9.823e-18 
   9543.253  1.514e-16  9.781e-18 
     9544.8  1.515e-16  9.895e-18 
   9546.346  1.724e-16   1.07e-17 
   9547.893  1.653e-16  1.135e-17 
   9549.439  1.579e-16  1.196e-17 
   9550.985  1.668e-16  1.304e-17 
   9552.532  1.507e-16  1.369e-17 
   9554.078  1.624e-16  1.411e-17 
   9555.625  1.337e-16  1.132e-17 
   9557.171  1.487e-16  9.613e-18 
   9558.717   1.54e-16  9.427e-18 
   9560.264  1.647e-16  1.128e-17 
    9561.81   1.65e-16  1.463e-17 
   9563.357  1.684e-16    1.7e-17 
   9564.902  1.788e-16  1.743e-17 
   9566.449  1.473e-16   1.63e-17 
   9567.995  1.557e-16  1.515e-17 
   9569.542  1.586e-16  1.231e-17 
   9571.088  1.459e-16  9.204e-18 
   9572.634  1.395e-16  7.888e-18 
   9574.181  1.397e-16  7.792e-18 
   9575.727  1.438e-16  8.202e-18 
   9577.273  1.629e-16  9.001e-18 
   9578.819  1.464e-16  9.173e-18 
   9580.366  1.456e-16  8.966e-18 
   9581.913  1.502e-16  8.634e-18 
   9583.458  1.542e-16  8.592e-18 
   9585.005  1.624e-16  9.289e-18 
   9586.551  1.523e-16   9.81e-18 
   9588.097  1.492e-16  1.083e-17 
   9589.644  1.574e-16  1.107e-17 
    9591.19  1.545e-16   1.04e-17 
   9592.736   1.46e-16  9.745e-18 
   9594.282  1.449e-16  9.324e-18 
   9595.829  1.541e-16  9.132e-18 
   9597.374  1.479e-16  8.683e-18 
   9598.921  1.534e-16  8.629e-18 
   9600.468  1.505e-16  8.831e-18 
   9602.013  1.456e-16  9.576e-18 
    9603.56  1.427e-16  1.032e-17 
   9605.106  1.428e-16  1.046e-17 
   9606.652  1.547e-16   1.04e-17 
   9608.199  1.595e-16  9.948e-18 
   9609.745  1.447e-16  9.066e-18 
   9611.291  1.417e-16  8.422e-18 
   9612.837  1.506e-16  8.567e-18 
   9614.383  1.583e-16  9.343e-18 
   9615.929  1.272e-16   9.89e-18 
   9617.476  1.543e-16  1.097e-17 
   9619.022  1.551e-16  1.147e-17 
   9620.568  1.422e-16  1.143e-17 
   9622.115  1.429e-16  1.141e-17 
    9623.66  1.609e-16   1.07e-17 
   9625.207  1.559e-16  9.651e-18 
   9626.752  1.435e-16  8.943e-18 
   9628.299  1.453e-16  8.206e-18 
   9629.845  1.434e-16  7.915e-18 
   9631.391  1.455e-16  8.077e-18 
   9632.938  1.435e-16  8.532e-18 
   9634.483  1.567e-16  9.267e-18 
    9636.03   1.49e-16  9.487e-18 
   9637.576  1.455e-16  9.075e-18 
   9639.122  1.533e-16  8.787e-18 
   9640.668  1.295e-16  8.447e-18 
   9642.214  1.422e-16  8.814e-18 
    9643.76  1.464e-16  8.947e-18 
   9645.306  1.412e-16  8.836e-18 
   9646.852  1.484e-16  8.678e-18 
   9648.399  1.407e-16  8.514e-18 
   9649.944  1.378e-16  8.432e-18 
   9651.491  1.368e-16  8.415e-18 
   9653.036  1.457e-16  8.552e-18 
   9654.583  1.286e-16  8.394e-18 
   9656.129  1.243e-16  8.447e-18 
   9657.675  1.471e-16  8.985e-18 
   9659.221  1.434e-16  9.429e-18 
   9660.767  1.476e-16   9.87e-18 
   9662.313  1.464e-16  1.016e-17 
   9663.859  1.327e-16  1.045e-17 
   9665.405  1.356e-16  1.057e-17 
   9666.952  1.318e-16  1.016e-17 
   9668.497  1.371e-16   1.03e-17 
   9670.044  1.433e-16  9.578e-18 
   9671.589  1.352e-16  8.598e-18 
   9673.135   1.41e-16  8.262e-18 
   9674.682  1.268e-16   8.49e-18 
   9676.227  1.454e-16  9.962e-18 
   9677.774  1.307e-16   1.07e-17 
   9679.319  1.234e-16  1.082e-17 
   9680.866  1.216e-16  1.057e-17 
   9682.411  1.497e-16  1.037e-17 
   9683.957  1.275e-16  9.493e-18 
   9685.504  1.311e-16  8.851e-18 
   9687.049  1.316e-16  8.553e-18 
   9688.595  1.306e-16  8.588e-18 
   9690.141   1.42e-16  8.733e-18 
   9691.687  1.356e-16   9.04e-18 
   9693.233  1.234e-16  9.847e-18 
   9694.779  1.295e-16  1.092e-17 
   9696.325   1.38e-16   1.12e-17 
   9697.871  1.293e-16   1.16e-17 
   9699.417   1.19e-16  1.155e-17 
   9700.962  1.252e-16  1.059e-17 
   9702.509  1.218e-16  8.973e-18 
   9704.055  1.265e-16  8.081e-18 
     9705.6  1.394e-16  8.618e-18 
   9707.147  1.538e-16  9.224e-18 
   9708.692  1.277e-16    9.1e-18 
   9710.238  1.429e-16   9.39e-18 
   9711.784  1.355e-16  9.989e-18 
    9713.33  1.464e-16  1.116e-17 
   9714.876  1.413e-16   1.23e-17 
   9716.421  1.373e-16  1.235e-17 
   9717.968  1.229e-16   1.22e-17 
   9719.513  1.178e-16  1.234e-17 
   9721.059  1.321e-16  1.237e-17 
   9722.605  1.183e-16  1.075e-17 
   9724.151  1.247e-16  8.937e-18 
   9725.697  1.412e-16  8.783e-18 
   9727.242  1.207e-16   8.23e-18 
   9728.788  1.391e-16  8.555e-18 
   9730.334  1.302e-16  8.901e-18 
    9731.88  1.271e-16  9.925e-18 
   9733.426  1.519e-16  1.112e-17 
   9734.971   1.32e-16  1.137e-17 
   9736.518  1.147e-16  1.091e-17 
   9738.063  1.325e-16  1.053e-17 
   9739.609  1.406e-16  1.044e-17 
   9741.154   1.31e-16  9.764e-18 
     9742.7  1.283e-16  9.035e-18 
   9744.247  1.346e-16  9.267e-18 
   9745.792  1.239e-16  9.143e-18 
   9747.338   1.34e-16  8.968e-18 
   9748.883  1.347e-16  8.776e-18 
   9750.429  1.301e-16  8.463e-18 
   9751.975  1.223e-16  8.185e-18 
   9753.521  1.358e-16   8.65e-18 
   9755.067  1.424e-16  8.956e-18 
   9756.612  1.346e-16  8.593e-18 
   9758.158  1.324e-16  8.481e-18 
   9759.703  1.307e-16  8.661e-18 
   9761.249  1.224e-16  8.427e-18 
   9762.795  1.325e-16  8.361e-18 
    9764.34  1.293e-16    8.4e-18 
   9765.887  1.338e-16  8.028e-18 
   9767.432  1.317e-16  7.786e-18 
   9768.978  1.303e-16  7.845e-18 
   9770.524  1.263e-16  7.734e-18 
   9772.069  1.391e-16  8.105e-18 
   9773.615  1.462e-16   8.39e-18 
    9775.16  1.196e-16  8.086e-18 
   9776.706   1.29e-16  8.226e-18 
   9778.251   1.37e-16  8.511e-18 
   9779.797  1.377e-16  8.686e-18 
   9781.343  1.347e-16  8.552e-18 
   9782.888  1.332e-16  9.322e-18 
   9784.434  1.251e-16  1.122e-17 
   9785.979  1.517e-16  1.374e-17 
   9787.525  1.356e-16  1.461e-17 
   9789.071  1.463e-16  1.535e-17 
   9790.616  1.327e-16  1.534e-17 
   9792.162   1.14e-16  1.439e-17 
   9793.707   1.12e-16  1.274e-17 
   9795.253  1.237e-16  1.144e-17 
   9796.798  1.373e-16  1.151e-17 
   9798.344   1.15e-16  1.122e-17 
    9799.89  1.284e-16  1.122e-17 
   9801.435   1.43e-16  1.096e-17 
   9802.981   1.26e-16  9.907e-18 
   9804.526  1.288e-16  9.158e-18 
   9806.072  1.379e-16    9.5e-18 
   9807.617  1.189e-16  9.573e-18 
   9809.163  1.272e-16  9.535e-18 
   9810.709   1.35e-16  9.776e-18 
   9812.254  1.416e-16  1.005e-17 
     9813.8  1.386e-16   9.82e-18 
   9815.345  1.317e-16   9.18e-18 
   9816.891  1.197e-16  8.621e-18 
   9818.436  1.276e-16  8.651e-18 
   9819.981  1.306e-16  8.528e-18 
   9821.527  1.284e-16  8.715e-18 
   9823.072  1.235e-16  8.741e-18 
   9824.618  1.418e-16  8.932e-18 
   9826.163  1.198e-16  8.727e-18 
   9827.709  1.385e-16   8.89e-18 
   9829.255  1.362e-16  8.747e-18 
   9830.799  1.299e-16  8.586e-18 
   9832.345  1.386e-16  8.617e-18 
    9833.89  1.265e-16  8.058e-18 
   9835.436  1.261e-16  8.115e-18 
   9836.982  1.251e-16  8.161e-18 
   9838.526  1.388e-16  8.246e-18 
   9840.072  1.309e-16  8.428e-18 
   9841.617  1.284e-16  9.065e-18 
   9843.163  1.276e-16  1.037e-17 
   9844.708   1.37e-16  1.124e-17 
   9846.253  1.318e-16  1.145e-17 
   9847.799   1.44e-16  1.147e-17 
   9849.344  1.297e-16  1.119e-17 
    9850.89  1.291e-16  1.027e-17 
   9852.435   1.38e-16  8.882e-18 
    9853.98  1.392e-16  8.494e-18 
   9855.526   1.23e-16   8.14e-18 
   9857.071  1.399e-16  8.316e-18 
   9858.616  1.236e-16  8.101e-18 
   9860.161  1.343e-16  8.401e-18 
   9861.707  1.219e-16  8.189e-18 
   9863.252  1.329e-16  8.489e-18 
   9864.797  1.189e-16  9.907e-18 
   9866.343  1.404e-16  1.384e-17 
   9867.888  1.192e-16  1.594e-17 
   9869.433    1.2e-16  1.643e-17 
   9870.978  1.462e-16  1.687e-17 
   9872.524  1.469e-16  1.674e-17 
   9874.068  1.087e-16  1.515e-17 
   9875.614  1.027e-16  1.114e-17 
    9877.16  1.171e-16  8.998e-18 
   9878.704  1.328e-16  8.837e-18 
    9880.25   1.42e-16  8.923e-18 
   9881.795  1.347e-16  8.816e-18 
    9883.34  1.388e-16  9.072e-18 
   9884.886  1.296e-16  8.931e-18 
    9886.43  1.417e-16  9.085e-18 
   9887.976  1.382e-16  9.771e-18 
   9889.521   1.32e-16  1.126e-17 
   9891.066  1.166e-16  1.177e-17 
   9892.611  1.322e-16  1.208e-17 
   9894.156   1.21e-16  1.214e-17 
   9895.702  1.396e-16  1.226e-17 
   9897.247  1.369e-16  1.141e-17 
   9898.792  1.232e-16  9.386e-18 
   9900.337  1.329e-16  8.866e-18 
   9901.882  1.362e-16  8.844e-18 
   9903.428  1.327e-16  8.764e-18 
   9904.972  1.284e-16  8.742e-18 
   9906.518  1.334e-16  9.278e-18 
   9908.062  1.257e-16  1.167e-17 
   9909.608  1.496e-16  1.571e-17 
   9911.152  1.252e-16  1.653e-17 
   9912.698  1.181e-16  1.687e-17 
   9914.243  1.178e-16  1.692e-17 
   9915.788  1.324e-16  1.643e-17 
   9917.333  1.194e-16  1.401e-17 
   9918.878  1.098e-16  1.009e-17 
   9920.423  1.385e-16  9.214e-18 
   9921.968   1.48e-16   9.22e-18 
   9923.513  1.358e-16  8.917e-18 
   9925.058  1.288e-16   8.86e-18 
   9926.603    1.3e-16  8.965e-18 
   9928.148  1.335e-16  9.077e-18 
   9929.693  1.317e-16  8.993e-18 
   9931.238  1.353e-16  9.122e-18 
   9932.783  1.232e-16  9.078e-18 
   9934.328  1.473e-16  9.687e-18 
   9935.873  1.438e-16  1.141e-17 
   9937.418  1.308e-16  1.325e-17 
   9938.963  1.362e-16  1.448e-17 
   9940.507  1.588e-16   1.72e-17 
   9942.053  1.592e-16  1.934e-17 
   9943.598  1.218e-16  1.931e-17 
   9945.142  1.518e-16  1.868e-17 
   9946.688  1.634e-16  1.799e-17 
   9948.232  1.184e-16  1.615e-17 
   9949.777  1.217e-16  1.452e-17 
   9951.323  1.593e-16  1.541e-17 
   9952.867  1.386e-16  1.592e-17 
   9954.412  1.141e-16  1.603e-17 
   9955.957  1.429e-16  1.783e-17 
   9957.502   1.36e-16  1.922e-17 
   9959.046   1.21e-16  1.824e-17 
   9960.591  1.367e-16   1.61e-17 
   9962.137  1.177e-16  1.501e-17 
   9963.681  1.332e-16  1.437e-17 
   9965.226  1.183e-16  1.206e-17 
    9966.77  1.051e-16  1.087e-17 
   9968.316  1.243e-16  1.159e-17 
   9969.861  1.101e-16  1.158e-17 
   9971.405  1.321e-16  1.192e-17 
    9972.95  1.276e-16  1.189e-17 
   9974.495   1.58e-16  1.222e-17 
    9976.04  1.305e-16  1.105e-17 
   9977.584  1.245e-16  1.035e-17 
   9979.129  1.294e-16   1.02e-17 
   9980.674   1.32e-16  1.003e-17 
   9982.218  1.275e-16  9.695e-18 
   9983.764  1.342e-16  9.494e-18 
   9985.308  1.261e-16  9.471e-18 
   9986.853  1.491e-16  9.615e-18 
   9988.397  1.388e-16   9.62e-18 
   9989.942  1.516e-16  9.828e-18 
   9991.487  1.447e-16  9.722e-18 
   9993.031  1.372e-16  9.877e-18 
   9994.576   1.34e-16  1.039e-17 
   9996.121  1.441e-16  1.126e-17 
   9997.666   1.17e-16  1.103e-17 
   9999.211   1.34e-16  1.138e-17 
  10000.755  1.431e-16  1.159e-17 
    10002.3  1.105e-16  1.094e-17 
  10003.844  1.297e-16  1.076e-17 
  10005.389  1.247e-16  1.159e-17 
  10006.933  1.227e-16   1.62e-17 
  10008.478  1.238e-16  2.082e-17 
  10010.023  1.047e-16  2.189e-17 
  10011.567  1.336e-16   2.24e-17 
  10013.112   1.29e-16  2.235e-17 
  10014.656  1.332e-16  2.123e-17 
  10016.201  1.209e-16  1.668e-17 
  10017.746  1.193e-16  1.262e-17 
   10019.29  1.326e-16  1.275e-17 
  10020.835   1.23e-16   1.47e-17 
  10022.379  1.258e-16  1.513e-17 
  10023.924  1.526e-16  1.558e-17 
  10025.468  1.359e-16  1.528e-17 
  10027.013  1.172e-16  1.451e-17 
  10028.558  1.148e-16  1.287e-17 
  10030.102  1.209e-16  1.104e-17 
  10031.647  1.217e-16  1.068e-17 
  10033.191  1.358e-16  1.071e-17 
  10034.735  1.322e-16  1.072e-17 
   10036.28  1.054e-16   1.04e-17 
  10037.824  1.123e-16  1.116e-17 
  10039.369  1.263e-16  1.221e-17 
  10040.913  1.139e-16  1.227e-17 
  10042.458  1.332e-16  1.248e-17 
  10044.002  1.234e-16  1.236e-17 
  10045.546  1.255e-16  1.227e-17 
  10047.091  1.236e-16  1.103e-17 
  10048.635   1.27e-16  1.066e-17 
   10050.18  1.269e-16  1.043e-17 
  10051.724  1.251e-16  1.057e-17 
  10053.269  1.232e-16    1.1e-17 
  10054.812  1.322e-16  1.223e-17 
  10056.357  1.301e-16  1.383e-17 
  10057.902  1.525e-16  1.457e-17 
  10059.446  1.258e-16  1.463e-17 
   10060.99  1.341e-16  1.489e-17 
  10062.534  1.231e-16  1.482e-17 
  10064.079  1.155e-16  1.352e-17 
  10065.624  1.226e-16  1.334e-17 
  10067.167   1.21e-16  1.314e-17 
  10068.712  1.177e-16  1.312e-17 
  10070.256   1.27e-16  1.299e-17 
  10071.801  1.329e-16  1.272e-17 
  10073.344    1.3e-16  1.272e-17 
  10074.889  1.125e-16  1.219e-17 
  10076.434  1.292e-16  1.516e-17 
  10077.977  1.255e-16  1.939e-17 
  10079.522  1.155e-16  2.051e-17 
  10081.066  1.421e-16  2.086e-17 
   10082.61  1.078e-16  2.085e-17 
  10084.155  1.282e-16  2.047e-17 
  10085.699   1.21e-16  1.735e-17 
  10087.243  1.362e-16  1.372e-17 
  10088.787   1.21e-16  1.234e-17 
  10090.331  1.151e-16  1.167e-17 
  10091.875  1.321e-16  1.215e-17 
   10093.42  1.062e-16  1.168e-17 
  10094.964  1.109e-16  1.189e-17 
  10096.508  1.209e-16  1.235e-17 
  10098.052  1.363e-16  1.448e-17 
  10099.596  1.374e-16  1.567e-17 
   10101.14   1.33e-16  1.607e-17 
  10102.685  1.332e-16  1.632e-17 
  10104.229  1.283e-16  1.593e-17 
  10105.773  1.313e-16  1.603e-17 
  10107.317  9.571e-17   1.36e-17 
  10108.861  1.077e-16  1.235e-17 
  10110.405  1.391e-16  1.283e-17 
  10111.949  1.308e-16  1.259e-17 
  10113.494  1.092e-16  1.219e-17 
  10115.037  1.137e-16  1.246e-17 
  10116.581  1.201e-16  1.399e-17 
  10118.125  1.312e-16  1.791e-17 
  10119.669  1.357e-16  2.308e-17 
  10121.213  1.237e-16  2.463e-17 
  10122.757  7.653e-17   2.45e-17 
  10124.302  1.641e-16  2.543e-17 
  10125.845  1.204e-16  2.459e-17 
  10127.389  1.263e-16  2.086e-17 
  10128.933  1.248e-16   1.63e-17 
  10130.477  1.321e-16  1.495e-17 
  10132.022  1.134e-16  1.445e-17 
  10133.565  1.287e-16  1.469e-17 
  10135.109  1.495e-16  1.542e-17 
  10136.653  1.232e-16  1.475e-17 
  10138.197  1.188e-16  1.491e-17 
   10139.74  1.107e-16  1.528e-17 
  10141.285  1.074e-16  1.548e-17 
  10142.829  1.239e-16  1.596e-17 
  10144.372  1.327e-16  1.666e-17 
  10145.917  1.101e-16  1.644e-17 
   10147.46  1.448e-16  1.801e-17 
  10149.004  1.453e-16  1.978e-17 
  10150.548  1.441e-16  2.026e-17 
  10152.092  1.043e-16  1.971e-17 
  10153.636  1.106e-16  2.024e-17 
  10155.179  1.292e-16  2.068e-17 
  10156.723   1.12e-16  1.873e-17 
  10158.267  1.521e-16  1.837e-17 
  10159.811  1.058e-16  1.777e-17 
  10161.355  1.484e-16  1.797e-17 
  10162.898  1.321e-16  1.764e-17 
  10164.442  1.037e-16  1.773e-17 
  10165.986  1.414e-16  2.132e-17 
   10167.53  1.725e-16  2.663e-17 
  10169.074  1.833e-16  2.879e-17 
  10170.617  9.498e-17  2.831e-17 
  10172.161  1.343e-16  2.844e-17 
  10173.704  1.236e-16  2.811e-17 
  10175.249  1.116e-16  2.403e-17 
  10176.792  1.158e-16  2.054e-17 
  10178.336  1.137e-16  1.917e-17 
   10179.88  1.212e-16  1.919e-17 
  10181.423  1.308e-16  1.932e-17 
  10182.967  1.387e-16   2.02e-17 
   10184.51  8.781e-17  2.185e-17 
  10186.054  1.387e-16  2.503e-17 
  10187.597  1.476e-16  2.592e-17 
  10189.141  1.189e-16   2.56e-17 
  10190.685  1.248e-16  2.563e-17 
  10192.228   1.07e-16  2.459e-17 
  10193.772  1.141e-16  2.163e-17 
  10195.315  1.271e-16  1.934e-17 
  10196.859  1.154e-16  1.931e-17 
  10198.403  1.076e-16  2.044e-17 
  10199.946  1.233e-16  2.116e-17 
   10201.49  9.927e-17  2.176e-17 
  10203.033  1.057e-16   2.29e-17 
  10204.577  9.212e-17  2.414e-17 
   10206.12  1.365e-16  2.883e-17 
  10207.664  1.342e-16  3.141e-17 
  10209.208  8.298e-17  3.048e-17 
  10210.751  1.375e-16  3.165e-17 
  10212.295  8.333e-17  3.055e-17 
  10213.838  9.536e-17  2.817e-17 
  10215.382  1.284e-16  2.395e-17 
  10216.926  1.192e-16  2.094e-17 
  10218.468  1.184e-16  2.009e-17 
  10220.012  1.335e-16  2.124e-17 
  10221.555  1.116e-16  2.392e-17 
  10223.099  6.322e-17  2.447e-17 
  10224.642   1.52e-16  2.656e-17 
  10226.186  1.583e-16  2.878e-17 
  10227.729  1.169e-16  2.859e-17 
  10229.272  8.499e-17  2.703e-17 
  10230.816  8.132e-17  2.519e-17 
  10232.359  7.569e-17  2.418e-17 
  10233.903  1.566e-16  2.423e-17 
  10235.446  9.749e-17  2.182e-17 
  10236.989  1.391e-16   2.15e-17 
