# STATUS =
# OBJECT = 2019kcy
# TELESCOPE = P200
# INSTRUMENT = SEDM
# DATE-OBS = 2019-07-03 00:00:00.000
# MJD = 58667.0
# EXPTIME =
# AIRMASS =
# SLIT =
# DISPERSER =
# SOURCE = DOI 10.3847/1538-4357/aca161
# FILTER =
# RESOLUTION =
# FLUX_STANDARD =
# EXTINCTION_CORRECTED =
# PHOTOMETRY_CALIBRATED =
# TELLURIC_CORRECTED =
# FLUX_UNITS =
# WAVE_UNITS =
# QUALITY =
# MIN_WAVE = 3100.527
# MAX_WAVE = 10236.323
# COMMENT =
 Wavelength        Flux 
   3101.572   1.487e-16 
   3102.617   5.879e-16 
   3103.661   9.371e-16 
   3104.707  -2.987e-16 
   3105.752  -4.273e-18 
   3106.798   2.881e-16 
   3107.842   6.459e-16 
   3108.888   3.744e-16 
   3109.934  -3.936e-16 
   3110.979   4.687e-16 
   3112.024  -4.147e-16 
    3113.07   -6.88e-16 
   3114.116  -3.464e-16 
   3115.162  -1.275e-16 
   3116.207  -4.464e-16 
   3117.253    1.11e-16 
   3118.299   7.816e-16 
   3119.345   2.227e-16 
   3120.391   5.211e-16 
   3121.437   6.153e-16 
   3122.484   2.417e-16 
   3123.529   6.313e-16 
   3124.576   6.563e-17 
   3125.622   2.158e-16 
   3126.669  -4.579e-16 
   3127.715   6.113e-16 
   3128.762   6.812e-16 
   3129.809   4.477e-17 
   3130.855   9.322e-17 
   3131.901  -2.764e-16 
   3132.948   4.079e-16 
   3133.996    1.47e-16 
   3135.043  -1.379e-16 
   3136.089  -1.881e-16 
   3137.136   1.344e-16 
   3138.184   3.973e-16 
    3139.23   1.167e-16 
   3140.278   1.892e-16 
   3141.325  -4.606e-16 
   3142.373  -2.641e-16 
   3143.419   3.176e-16 
   3144.467   5.765e-16 
   3145.515   2.217e-16 
   3146.563    1.17e-15 
    3147.61   -8.56e-17 
   3148.658   5.652e-16 
   3149.706   6.658e-16 
   3150.754   4.732e-16 
   3151.801  -6.777e-17 
   3152.849   -7.18e-17 
   3153.897   1.554e-16 
   3154.945   4.252e-16 
   3155.993   1.262e-16 
   3157.042   4.089e-16 
    3158.09  -1.621e-16 
   3159.138  -2.781e-16 
   3160.186  -2.264e-17 
   3161.235   1.154e-16 
   3162.284   1.933e-16 
   3163.332   1.712e-16 
   3164.381   1.246e-16 
    3165.43  -3.404e-16 
   3166.479   6.658e-16 
   3167.527   8.956e-17 
   3168.576  -6.058e-17 
   3169.625   2.428e-16 
   3170.674   3.689e-16 
   3171.723   4.728e-16 
   3172.772   4.821e-16 
   3173.821   4.697e-16 
    3174.87   1.174e-16 
   3175.919   5.105e-16 
   3176.969   4.054e-16 
   3178.019   3.787e-16 
   3179.067   5.775e-16 
   3180.117  -5.141e-17 
   3181.167  -4.421e-16 
   3182.217   8.291e-18 
   3183.266  -2.687e-16 
   3184.316   2.046e-16 
   3185.366   2.879e-16 
   3186.416   2.953e-16 
   3187.465   5.969e-16 
   3188.516   7.776e-16 
   3189.566   3.836e-16 
   3190.615   5.924e-16 
   3191.666   2.606e-16 
   3192.716   8.854e-17 
   3193.767   2.113e-16 
   3194.816   1.256e-16 
   3195.867    1.41e-16 
   3196.918   3.883e-16 
   3197.969   -4.82e-17 
   3199.019  -3.828e-17 
   3200.069  -2.311e-17 
    3201.12  -4.979e-18 
   3202.171   5.641e-16 
   3203.222    4.72e-16 
   3204.273   2.433e-17 
   3205.324   2.466e-16 
   3206.375   2.359e-16 
   3207.426   7.448e-17 
   3208.477    2.27e-16 
   3209.528    4.98e-16 
   3210.579   1.401e-16 
    3211.63   2.465e-16 
   3212.682   5.774e-17 
   3213.734  -1.448e-16 
   3214.784   2.797e-16 
   3215.836   2.475e-16 
   3216.888   2.518e-16 
    3217.94   6.013e-16 
   3218.991     3.1e-16 
   3220.043   1.771e-16 
   3221.095   4.567e-16 
   3222.147   5.155e-16 
   3223.198   2.392e-16 
   3224.251   2.238e-16 
   3225.303   1.212e-16 
   3226.354   2.584e-16 
   3227.407   5.739e-16 
   3228.459   4.456e-16 
   3229.512    1.73e-16 
   3230.563   1.184e-16 
   3231.616   2.837e-16 
   3232.669   1.382e-16 
   3233.722   1.239e-16 
   3234.773   1.793e-16 
   3235.826   3.516e-16 
   3236.879  -6.381e-17 
   3237.932   4.224e-16 
   3238.984   3.977e-16 
   3240.038   2.595e-16 
   3241.091   2.122e-16 
   3242.143   5.944e-16 
   3243.196  -3.498e-16 
    3244.25   1.913e-16 
   3245.303    2.34e-16 
   3246.355    2.42e-16 
   3247.409   1.655e-16 
   3248.463   4.231e-16 
   3249.516  -1.063e-17 
   3250.569   1.571e-16 
   3251.623   5.067e-16 
   3252.676   2.823e-16 
    3253.73   1.086e-16 
   3254.783   3.489e-16 
   3255.837   2.292e-16 
   3256.891   5.465e-16 
   3257.944   3.692e-16 
   3258.998   1.388e-16 
   3260.053   4.321e-16 
   3261.107   3.235e-16 
    3262.16   3.745e-16 
   3263.215    5.12e-16 
   3264.269   5.345e-16 
   3265.324   3.327e-16 
   3266.377   1.527e-16 
   3267.432   2.086e-16 
   3268.486   3.424e-16 
    3269.54   2.401e-16 
   3270.595   3.135e-16 
    3271.65   2.479e-16 
   3272.704   2.459e-16 
   3273.758   3.674e-16 
   3274.813   2.265e-16 
   3275.868   2.701e-16 
   3276.924   1.928e-16 
   3277.978   3.219e-16 
   3279.033   2.312e-16 
   3280.088   2.645e-16 
   3281.143   3.946e-16 
   3282.198   1.831e-16 
   3283.253   1.173e-16 
   3284.309   2.453e-16 
   3285.363   1.878e-16 
   3286.419   2.646e-16 
   3287.475   1.187e-16 
    3288.53   2.219e-16 
   3289.585   4.195e-16 
   3290.641   1.823e-16 
   3291.697   2.134e-16 
   3292.753   3.685e-16 
   3293.808  -5.926e-17 
   3294.864   2.017e-16 
    3295.92   3.375e-16 
   3296.976   1.954e-16 
   3298.031   2.633e-16 
   3299.087   3.417e-16 
   3300.144   3.095e-16 
   3301.199   4.153e-16 
   3302.255   2.339e-16 
   3303.312  -2.564e-17 
   3304.368   3.885e-16 
   3305.424   3.324e-16 
   3306.481   1.634e-16 
   3307.537   2.229e-16 
   3308.594   5.256e-16 
    3309.65   3.156e-16 
   3310.707   5.264e-16 
   3311.764    1.91e-16 
    3312.82    3.43e-16 
   3313.877   3.042e-16 
   3314.934   2.405e-16 
   3315.991   5.171e-16 
   3317.047   3.058e-16 
   3318.104   8.617e-17 
   3319.162   3.216e-16 
   3320.219   1.443e-17 
   3321.275   3.042e-16 
   3322.333   7.463e-17 
    3323.39   2.737e-16 
   3324.448   1.648e-16 
   3325.504   3.093e-16 
   3326.562   2.227e-17 
    3327.62   2.962e-16 
   3328.677   2.477e-16 
   3329.734   2.475e-16 
   3330.792   4.132e-16 
    3331.85   2.267e-16 
   3332.907   1.957e-16 
   3333.965   1.902e-16 
   3335.023   3.991e-16 
   3336.081    2.62e-16 
   3337.139   2.813e-16 
   3338.197   2.039e-16 
   3339.255   1.501e-16 
   3340.313   1.223e-16 
   3341.371   3.392e-16 
   3342.429   1.899e-16 
   3343.488   2.864e-16 
   3344.546   2.281e-16 
   3345.604   1.562e-16 
   3346.663   1.887e-16 
   3347.722   2.453e-16 
   3348.779   9.511e-17 
   3349.838   2.964e-16 
   3350.897   1.502e-16 
   3351.956   2.163e-16 
   3353.014   2.228e-16 
   3354.073   2.492e-16 
   3355.132       2e-16 
    3356.19   2.158e-16 
   3357.249    4.01e-16 
   3358.309   2.665e-16 
   3359.368   3.225e-16 
   3360.426    1.78e-16 
   3361.486   1.774e-16 
   3362.545   3.599e-16 
   3363.605   1.643e-16 
   3364.663   1.836e-16 
   3365.723   2.012e-16 
   3366.783   2.167e-16 
   3367.841   9.378e-17 
   3368.901    1.64e-16 
   3369.961   1.931e-16 
   3371.021   2.789e-16 
    3372.08   2.094e-16 
    3373.14   2.815e-16 
     3374.2   2.248e-16 
    3375.26    2.53e-16 
   3376.319   1.884e-16 
   3377.379   1.775e-16 
   3378.439   2.734e-16 
   3379.499   1.865e-16 
   3380.559    3.44e-16 
   3381.619   2.425e-16 
    3382.68   2.056e-16 
   3383.739   3.454e-16 
     3384.8   1.985e-16 
    3385.86   1.743e-16 
   3386.921   2.605e-16 
   3387.981   2.449e-16 
   3389.041   2.068e-16 
   3390.102   2.201e-16 
   3391.163   1.658e-16 
   3392.223   3.067e-16 
   3393.284   2.623e-16 
   3394.345   2.365e-16 
   3395.405   1.754e-16 
   3396.466   1.641e-16 
   3397.527   1.422e-16 
   3398.588   1.811e-16 
   3399.649   2.727e-16 
    3400.71   1.259e-16 
   3401.771   1.649e-16 
   3402.833   2.029e-16 
   3403.893   1.146e-16 
   3404.955    1.29e-16 
   3406.016   1.169e-16 
   3407.077   1.514e-16 
   3408.139   1.749e-16 
     3409.2   2.296e-16 
   3410.262   2.174e-16 
   3411.323   3.108e-16 
   3412.385   1.935e-16 
   3413.447   1.921e-16 
   3414.508   2.257e-16 
    3415.57   3.937e-16 
   3416.632   2.644e-16 
   3417.694   2.581e-16 
   3418.755   1.456e-16 
   3419.817   1.622e-16 
   3420.879    2.18e-16 
   3421.942   1.892e-16 
   3423.003   1.102e-16 
   3424.065   1.897e-16 
   3425.128   1.423e-16 
    3426.19   2.486e-16 
   3427.252   4.199e-17 
   3428.314   1.123e-16 
   3429.377   2.244e-16 
   3430.439   4.272e-17 
   3431.501   7.173e-17 
   3432.564   1.386e-16 
   3433.627   1.829e-16 
   3434.689    2.24e-16 
   3435.752   2.624e-16 
   3436.815   1.926e-16 
   3437.878   1.628e-16 
    3438.94   1.427e-16 
   3440.003   2.258e-16 
   3441.066   8.007e-17 
   3442.129    3.86e-16 
   3443.192   1.846e-16 
   3444.255    1.55e-16 
   3445.319   2.492e-16 
   3446.381   8.738e-17 
   3447.445   2.027e-16 
   3448.508   1.566e-16 
   3449.572   1.472e-16 
   3450.634   2.199e-16 
   3451.698   8.857e-17 
   3452.762   2.405e-16 
   3453.824   7.578e-17 
   3454.888   1.954e-16 
   3455.952    2.55e-16 
   3457.016   2.353e-16 
   3458.079   2.669e-16 
   3459.143   2.511e-16 
   3460.207   1.201e-16 
   3461.271   2.265e-16 
   3462.334   1.909e-16 
   3463.398   3.132e-16 
   3464.463   1.383e-16 
   3465.526   2.067e-16 
    3466.59   1.417e-16 
   3467.655   1.901e-16 
   3468.719   1.912e-16 
   3469.783    3.22e-16 
   3470.847   2.274e-16 
   3471.912   2.104e-16 
   3472.976   2.279e-16 
    3474.04   1.844e-16 
   3475.105   7.068e-17 
    3476.17   2.158e-16 
   3477.233   2.088e-16 
   3478.298   2.352e-16 
   3479.363   2.372e-16 
   3480.428   8.809e-17 
   3481.492   1.279e-16 
   3482.557   1.947e-16 
   3483.622   1.593e-16 
   3484.687    1.87e-16 
   3485.752   1.993e-16 
   3486.817   2.426e-16 
   3487.882   2.304e-16 
   3488.946    2.37e-16 
   3490.012   1.201e-16 
   3491.077   1.752e-16 
   3492.143   2.814e-16 
   3493.207   2.389e-16 
   3494.273   2.271e-16 
   3495.338   2.513e-16 
   3496.404   2.308e-16 
   3497.469   1.775e-16 
   3498.535   1.984e-16 
     3499.6   2.374e-16 
   3500.665   1.259e-16 
   3501.731    2.62e-16 
   3502.797   2.077e-16 
   3503.863    1.87e-16 
   3504.928   2.803e-16 
   3505.994   2.415e-16 
    3507.06   2.015e-16 
   3508.126    2.39e-16 
   3509.192    1.68e-16 
   3510.258   1.262e-16 
   3511.324   2.104e-16 
   3512.389   2.487e-16 
   3513.456   2.075e-16 
   3514.522   1.619e-16 
   3515.589   2.492e-16 
   3516.654   1.275e-16 
   3517.721   2.814e-16 
   3518.788   2.209e-16 
   3519.854       3e-16 
    3520.92   1.973e-16 
   3521.987   2.541e-16 
   3523.053   2.008e-16 
   3524.119   1.778e-16 
   3525.186   1.606e-16 
   3526.253   2.086e-16 
    3527.32   2.395e-16 
   3528.386    1.82e-16 
   3529.453   1.733e-16 
    3530.52   2.031e-16 
   3531.587    2.52e-16 
   3532.654   1.969e-16 
   3533.721   2.079e-16 
   3534.788   1.946e-16 
   3535.855   2.302e-16 
   3536.922   1.968e-16 
   3537.989   1.983e-16 
   3539.057   2.792e-16 
   3540.123   1.188e-16 
   3541.191   2.005e-16 
   3542.259   2.933e-16 
   3543.325   2.355e-16 
   3544.393   2.057e-16 
   3545.461     1.7e-16 
   3546.529   1.592e-16 
   3547.595   2.369e-16 
   3548.663   2.477e-16 
   3549.731   3.082e-16 
   3550.799   2.582e-16 
   3551.866   3.492e-16 
   3552.934   2.483e-16 
   3554.002   1.375e-16 
   3555.069   3.019e-16 
   3556.138   2.241e-16 
   3557.206   2.781e-16 
   3558.274   2.969e-16 
   3559.341   1.532e-16 
    3560.41   2.708e-16 
   3561.478     2.2e-16 
   3562.547   2.537e-16 
   3563.614   2.918e-16 
   3564.683   2.233e-16 
   3565.751   2.757e-16 
   3566.819   2.541e-16 
   3567.888   2.131e-16 
   3568.956   1.908e-16 
   3570.025   2.516e-16 
   3571.093   2.269e-16 
   3572.162   3.142e-16 
    3573.23   3.076e-16 
   3574.298   2.489e-16 
   3575.367    2.61e-16 
   3576.436   2.247e-16 
   3577.505   3.064e-16 
   3578.574   2.906e-16 
   3579.643    2.39e-16 
   3580.712   1.596e-16 
   3581.781   2.543e-16 
   3582.849   3.007e-16 
   3583.919   2.292e-16 
   3584.988   2.765e-16 
   3586.056   2.564e-16 
   3587.126   2.454e-16 
   3588.195   2.451e-16 
   3589.265   2.836e-16 
   3590.333   2.168e-16 
   3591.403   2.258e-16 
   3592.473   1.957e-16 
   3593.542   2.156e-16 
   3594.611   2.529e-16 
   3595.681   2.579e-16 
   3596.751   2.059e-16 
    3597.82   2.011e-16 
   3598.889   2.041e-16 
   3599.959   2.204e-16 
   3601.029   2.337e-16 
   3602.098   2.048e-16 
   3603.169   2.396e-16 
   3604.239   2.204e-16 
   3605.308   3.021e-16 
   3606.378   2.341e-16 
   3607.448   2.085e-16 
   3608.518   1.499e-16 
   3609.588   2.527e-16 
   3610.658   2.483e-16 
   3611.729   1.749e-16 
   3612.799   1.646e-16 
   3613.869   1.879e-16 
   3614.939   2.103e-16 
    3616.01   1.993e-16 
   3617.079   2.015e-16 
    3618.15   1.941e-16 
   3619.221   2.238e-16 
   3620.291    3.07e-16 
   3621.361   1.409e-16 
   3622.432    2.29e-16 
   3623.503   1.867e-16 
   3624.574   2.344e-16 
   3625.644    1.76e-16 
   3626.715   1.651e-16 
   3627.786   2.153e-16 
   3628.856    1.58e-16 
   3629.927   1.798e-16 
   3630.998   2.152e-16 
   3632.069   9.381e-17 
   3633.139   2.215e-16 
   3634.211    1.68e-16 
   3635.282   1.493e-16 
   3636.352   1.676e-16 
   3637.424   1.542e-16 
   3638.495   1.982e-16 
   3639.567    1.77e-16 
   3640.637   2.155e-16 
   3641.709   1.806e-16 
    3642.78   1.999e-16 
   3643.852   2.147e-16 
   3644.923   2.171e-16 
   3645.994   1.668e-16 
   3647.066   1.496e-16 
   3648.137    1.42e-16 
   3649.209   2.745e-16 
   3650.281   3.106e-16 
   3651.352   2.459e-16 
   3652.423   2.352e-16 
   3653.495    2.03e-16 
   3654.567     2.6e-16 
   3655.638   2.119e-16 
   3656.711   2.312e-16 
   3657.783   1.672e-16 
   3658.855   1.232e-16 
   3659.926   2.678e-16 
   3660.998   1.567e-16 
   3662.071   1.461e-16 
   3663.143   2.392e-16 
   3664.214   2.097e-16 
   3665.287    1.43e-16 
   3666.359   2.197e-16 
   3667.431   1.727e-16 
   3668.503   2.317e-16 
   3669.576   1.448e-16 
   3670.649   1.374e-16 
    3671.72   1.949e-16 
   3672.793   1.514e-16 
   3673.866   1.815e-16 
   3674.939   2.265e-16 
    3676.01   1.338e-16 
   3677.083   2.072e-16 
   3678.156   1.806e-16 
   3679.228   1.551e-16 
   3680.301   1.396e-16 
   3681.374   2.204e-16 
   3682.447    1.35e-16 
   3683.519   2.142e-16 
   3684.592   1.858e-16 
   3685.665   1.639e-16 
   3686.738   1.703e-16 
   3687.811   1.033e-16 
   3688.884   1.463e-16 
   3689.958   1.526e-16 
    3691.03   1.543e-16 
   3692.103   1.651e-16 
   3693.177   1.318e-16 
    3694.25   1.557e-16 
   3695.323   1.898e-16 
   3696.396   1.607e-16 
    3697.47   1.706e-16 
   3698.542   1.741e-16 
   3699.616   1.262e-16 
    3700.69   1.967e-16 
   3701.764   1.071e-16 
   3702.836     7.8e-17 
    3703.91   1.856e-16 
   3704.984   1.039e-16 
   3706.057   8.398e-17 
   3707.131   1.929e-16 
   3708.205   1.215e-16 
   3709.279   1.163e-16 
   3710.352   2.269e-16 
   3711.426    1.34e-16 
     3712.5   1.895e-16 
   3713.574   8.912e-17 
   3714.647   1.722e-16 
   3715.722   1.679e-16 
   3716.796   1.591e-16 
   3717.869   2.003e-16 
   3718.943   8.093e-17 
   3720.018    9.81e-17 
   3721.092   1.483e-16 
   3722.166   1.604e-16 
    3723.24   1.175e-16 
   3724.315   1.111e-16 
   3725.388   1.392e-16 
   3726.463   1.586e-16 
   3727.537   1.234e-16 
   3728.612   1.222e-16 
   3729.686   5.417e-17 
   3730.761   1.427e-16 
   3731.835   1.414e-16 
   3732.909   1.479e-16 
   3733.984   1.985e-16 
   3735.059   9.285e-17 
   3736.134   1.815e-16 
   3737.208   1.097e-16 
   3738.283    1.04e-16 
   3739.358   1.341e-16 
   3740.433   1.317e-16 
   3741.507   1.689e-16 
   3742.582   1.591e-16 
   3743.657   1.579e-16 
   3744.732   1.628e-16 
   3745.807   9.512e-17 
   3746.882   1.201e-16 
   3747.957   1.731e-16 
   3749.032   1.108e-16 
   3750.107   9.365e-17 
   3751.183   1.374e-16 
   3752.257   8.434e-17 
   3753.333   1.177e-16 
   3754.408   1.582e-16 
   3755.484   1.056e-16 
   3756.558   1.439e-16 
   3757.634   1.174e-16 
    3758.71   1.038e-16 
   3759.785   1.292e-16 
    3760.86   9.835e-17 
   3761.936   7.983e-17 
   3763.012   9.101e-17 
   3764.087   1.088e-16 
   3765.162   1.262e-16 
   3766.238   1.236e-16 
   3767.314   1.023e-16 
   3768.389   9.858e-17 
   3769.465   6.155e-17 
   3770.541   9.291e-17 
   3771.617   1.205e-16 
   3772.693   9.568e-17 
   3773.769   1.134e-16 
   3774.845   8.865e-17 
    3775.92   1.227e-16 
   3776.997    1.16e-16 
   3778.073   8.651e-17 
   3779.149   1.216e-16 
   3780.225   1.287e-16 
   3781.301   1.502e-16 
   3782.377   1.401e-16 
   3783.453     1.2e-16 
   3784.529   1.737e-16 
   3785.606   1.221e-16 
   3786.683   1.143e-16 
   3787.758   1.292e-16 
   3788.835    9.78e-17 
   3789.912   1.061e-16 
   3790.987   1.166e-16 
   3792.064   1.211e-16 
   3793.141   1.735e-16 
   3794.218   1.183e-16 
   3795.293   1.311e-16 
    3796.37   1.427e-16 
   3797.447   1.522e-16 
   3798.523   1.282e-16 
     3799.6   1.863e-16 
   3800.677   1.301e-16 
   3801.754    1.37e-16 
    3802.83   1.921e-16 
   3803.908   1.479e-16 
   3804.985   1.629e-16 
   3806.062   1.715e-16 
   3807.138   1.324e-16 
   3808.215   1.221e-16 
   3809.293   1.855e-16 
   3810.369   1.553e-16 
   3811.446   1.403e-16 
   3812.524    1.42e-16 
   3813.601    1.94e-16 
   3814.678   1.864e-16 
   3815.755    1.44e-16 
   3816.833   1.488e-16 
   3817.909   1.404e-16 
   3818.987    1.91e-16 
   3820.064       2e-16 
   3821.142    1.52e-16 
   3822.219   1.543e-16 
   3823.297   1.775e-16 
   3824.374   1.472e-16 
   3825.451   1.508e-16 
   3826.529   1.824e-16 
   3827.607   2.154e-16 
   3828.685   1.534e-16 
   3829.762   1.987e-16 
   3830.839   1.997e-16 
   3831.917    2.38e-16 
   3832.995   1.849e-16 
   3834.073   1.796e-16 
   3835.151   2.014e-16 
   3836.229   2.373e-16 
   3837.306    2.42e-16 
   3838.384   1.922e-16 
   3839.462   1.969e-16 
   3840.541   2.052e-16 
   3841.618   2.316e-16 
   3842.696   1.808e-16 
   3843.774   1.992e-16 
   3844.852   2.469e-16 
    3845.93   2.112e-16 
   3847.009   2.093e-16 
   3848.087   2.315e-16 
   3849.165   2.259e-16 
   3850.243   2.172e-16 
   3851.322   1.876e-16 
   3852.399   2.363e-16 
   3853.478   1.902e-16 
   3854.557   2.527e-16 
   3855.635   2.583e-16 
   3856.713   2.186e-16 
   3857.792   2.165e-16 
    3858.87   2.084e-16 
   3859.948   2.379e-16 
   3861.027   2.517e-16 
   3862.106   2.245e-16 
   3863.185   2.409e-16 
   3864.263   1.826e-16 
   3865.342   2.129e-16 
   3866.421    2.22e-16 
     3867.5   2.046e-16 
   3868.578   2.225e-16 
   3869.657   2.403e-16 
   3870.736   2.183e-16 
   3871.814   2.033e-16 
   3872.893   2.089e-16 
   3873.973   2.209e-16 
   3875.052    2.07e-16 
    3876.13   2.691e-16 
   3877.209   2.073e-16 
   3878.289   2.019e-16 
   3879.367   2.394e-16 
   3880.447     2.4e-16 
   3881.526   2.366e-16 
   3882.605    2.21e-16 
   3883.684   2.428e-16 
   3884.763   2.144e-16 
   3885.843    2.37e-16 
   3886.922   2.054e-16 
   3888.001   2.339e-16 
   3889.081   2.245e-16 
    3890.16   1.727e-16 
   3891.239   2.507e-16 
   3892.319   2.344e-16 
   3893.399   2.193e-16 
   3894.478   2.027e-16 
   3895.557   2.542e-16 
   3896.637   2.237e-16 
   3897.717   2.348e-16 
   3898.796   2.589e-16 
   3899.876   2.116e-16 
   3900.956   2.014e-16 
   3902.036   2.047e-16 
   3903.115    1.94e-16 
   3904.195   1.921e-16 
   3905.275   2.226e-16 
   3906.354   2.325e-16 
   3907.434   2.061e-16 
   3908.514   1.912e-16 
   3909.595   1.781e-16 
   3910.674   1.487e-16 
   3911.754   1.691e-16 
   3912.834    1.41e-16 
   3913.914   1.914e-16 
   3914.994   2.034e-16 
   3916.074   1.744e-16 
   3917.155   2.175e-16 
   3918.234   2.175e-16 
   3919.315   2.144e-16 
   3920.395   1.205e-16 
   3921.475   1.738e-16 
   3922.555   1.495e-16 
   3923.636   2.331e-16 
   3924.716   2.364e-16 
   3925.796   2.277e-16 
   3926.877   1.892e-16 
   3927.957   1.635e-16 
   3929.037   2.021e-16 
   3930.118   2.117e-16 
   3931.199   2.023e-16 
   3932.279    1.87e-16 
   3933.359    2.06e-16 
    3934.44   1.968e-16 
   3935.521   2.283e-16 
   3936.602   2.203e-16 
   3937.682   1.876e-16 
   3938.763   2.062e-16 
   3939.844   2.459e-16 
   3940.924   1.913e-16 
   3942.005   1.816e-16 
   3943.086   2.033e-16 
   3944.167   1.737e-16 
   3945.247   1.663e-16 
   3946.328   1.659e-16 
    3947.41   2.317e-16 
    3948.49   1.827e-16 
   3949.571   2.154e-16 
   3950.652   2.255e-16 
   3951.734   1.907e-16 
   3952.814    2.09e-16 
   3953.895   1.896e-16 
   3954.977   1.556e-16 
   3956.057   1.847e-16 
   3957.139   1.926e-16 
    3958.22   1.859e-16 
   3959.302   1.601e-16 
   3960.382   2.031e-16 
   3961.464   1.551e-16 
   3962.545       2e-16 
   3963.626   2.101e-16 
   3964.707   1.919e-16 
   3965.789   1.745e-16 
   3966.871   1.966e-16 
   3967.951   2.167e-16 
   3969.033   1.584e-16 
   3970.115   2.083e-16 
   3971.196   1.904e-16 
   3972.278    1.86e-16 
   3973.359   1.919e-16 
   3974.441   1.683e-16 
   3975.522   1.628e-16 
   3976.604   1.947e-16 
   3977.686   2.177e-16 
   3978.768   2.073e-16 
   3979.849    1.95e-16 
   3980.931   1.138e-16 
   3982.013   1.697e-16 
   3983.094   1.792e-16 
   3984.176   1.961e-16 
   3985.258    1.86e-16 
   3986.341   1.979e-16 
   3987.422   1.727e-16 
   3988.504    1.68e-16 
   3989.586   1.839e-16 
   3990.667    1.78e-16 
    3991.75   1.697e-16 
   3992.832   1.486e-16 
   3993.914   1.931e-16 
   3994.996   1.545e-16 
   3996.078   2.135e-16 
   3997.161   2.071e-16 
   3998.242   1.603e-16 
   3999.324    1.76e-16 
   4000.407   1.557e-16 
   4001.489     1.8e-16 
   4002.571   1.774e-16 
   4003.654   2.024e-16 
   4004.736   1.905e-16 
   4005.818   1.888e-16 
     4006.9   2.056e-16 
   4007.983   1.608e-16 
   4009.066   1.786e-16 
   4010.147   2.043e-16 
    4011.23   1.773e-16 
   4012.313   1.739e-16 
   4013.395   1.906e-16 
   4014.478   1.797e-16 
    4015.56   1.636e-16 
   4016.643   1.864e-16 
   4017.725    1.81e-16 
   4018.808   1.634e-16 
   4019.891   1.766e-16 
   4020.973   1.631e-16 
   4022.056   2.153e-16 
   4023.139   1.841e-16 
   4024.222   1.789e-16 
   4025.304   2.172e-16 
   4026.387   1.967e-16 
    4027.47   2.151e-16 
   4028.553   1.716e-16 
   4029.636   1.924e-16 
   4030.719   1.728e-16 
   4031.802   2.239e-16 
   4032.884   1.827e-16 
   4033.967   1.714e-16 
   4035.051   1.588e-16 
   4036.134    2.06e-16 
   4037.216   1.536e-16 
     4038.3   1.556e-16 
   4039.383   1.713e-16 
   4040.466   2.228e-16 
   4041.549   2.227e-16 
   4042.632   1.813e-16 
   4043.716   1.611e-16 
   4044.798   1.127e-16 
   4045.882   2.086e-16 
   4046.965   1.892e-16 
   4048.048   1.695e-16 
   4049.132   1.426e-16 
   4050.215   1.364e-16 
   4051.299   1.488e-16 
   4052.381   1.788e-16 
   4053.465   1.636e-16 
   4054.549   1.266e-16 
   4055.632   2.027e-16 
   4056.715   1.862e-16 
   4057.799   1.483e-16 
   4058.883   1.324e-16 
   4059.966   1.792e-16 
    4061.05   1.511e-16 
   4062.133   1.664e-16 
   4063.216   1.742e-16 
     4064.3   1.505e-16 
   4065.384   1.683e-16 
   4066.468   1.931e-16 
   4067.551   1.599e-16 
   4068.635   1.788e-16 
   4069.719    1.88e-16 
   4070.802   1.782e-16 
   4071.886   1.992e-16 
    4072.97   1.514e-16 
   4074.054   1.251e-16 
   4075.138   1.486e-16 
   4076.222   1.645e-16 
   4077.306   1.863e-16 
   4078.389   1.616e-16 
   4079.473   1.642e-16 
   4080.558   1.837e-16 
   4081.642    2.03e-16 
   4082.725   1.621e-16 
    4083.81   1.364e-16 
   4084.894   1.601e-16 
   4085.977   1.946e-16 
   4087.062   1.409e-16 
   4088.146   1.581e-16 
    4089.23   1.457e-16 
   4090.314    1.94e-16 
   4091.398   1.448e-16 
   4092.483   1.682e-16 
   4093.567   1.592e-16 
   4094.651   1.737e-16 
   4095.735    1.89e-16 
    4096.82   1.613e-16 
   4097.904   1.814e-16 
   4098.988   1.386e-16 
   4100.073   1.457e-16 
   4101.157   1.966e-16 
   4102.241   1.786e-16 
   4103.326   1.766e-16 
   4104.411   1.479e-16 
   4105.494    1.81e-16 
   4106.579     1.5e-16 
   4107.664   1.493e-16 
   4108.749   1.252e-16 
   4109.833   1.839e-16 
   4110.917     1.5e-16 
   4112.002   1.731e-16 
   4113.086   1.708e-16 
   4114.171   1.982e-16 
   4115.256    1.93e-16 
   4116.341   1.191e-16 
   4117.425   1.961e-16 
    4118.51   1.916e-16 
   4119.595   1.566e-16 
   4120.679   1.297e-16 
   4121.764   1.595e-16 
   4122.849   1.873e-16 
   4123.934   1.764e-16 
   4125.018   1.737e-16 
   4126.103   1.784e-16 
   4127.189   1.653e-16 
   4128.273   1.747e-16 
   4129.358   1.452e-16 
   4130.443   1.546e-16 
   4131.528   1.578e-16 
   4132.613   1.353e-16 
   4133.698   1.659e-16 
   4134.783   1.656e-16 
   4135.868   1.627e-16 
   4136.953   1.891e-16 
   4138.038     1.5e-16 
   4139.124    1.96e-16 
   4140.208   1.563e-16 
   4141.293   1.655e-16 
   4142.379   2.185e-16 
   4143.463   1.745e-16 
   4144.549   1.959e-16 
   4145.634   1.587e-16 
    4146.72   1.494e-16 
   4147.804   1.789e-16 
    4148.89   1.842e-16 
   4149.975   1.394e-16 
    4151.06   1.487e-16 
   4152.146   1.614e-16 
   4153.231   1.763e-16 
   4154.317    2.14e-16 
   4155.402   1.889e-16 
   4156.487    1.57e-16 
   4157.573   1.894e-16 
   4158.658   1.919e-16 
   4159.743   1.403e-16 
   4160.829    1.81e-16 
   4161.915   2.052e-16 
     4163.0   2.092e-16 
   4164.086   2.074e-16 
   4165.171   1.687e-16 
   4166.256   1.815e-16 
   4167.342   1.804e-16 
   4168.428   2.036e-16 
   4169.514   1.864e-16 
   4170.599   1.825e-16 
   4171.685   1.842e-16 
   4172.771   1.708e-16 
   4173.856   1.889e-16 
   4174.942   1.749e-16 
   4176.028   1.884e-16 
   4177.114   2.229e-16 
   4178.199    1.75e-16 
   4179.285   1.683e-16 
   4180.371   1.923e-16 
   4181.456   1.765e-16 
   4182.542    1.78e-16 
   4183.628   1.444e-16 
   4184.715   1.107e-16 
     4185.8   1.444e-16 
   4186.886   1.979e-16 
   4187.972   1.654e-16 
   4189.057    1.83e-16 
   4190.144   1.777e-16 
    4191.23   1.706e-16 
   4192.316    1.55e-16 
   4193.401   1.551e-16 
   4194.488   1.808e-16 
   4195.574   1.556e-16 
    4196.66   1.845e-16 
   4197.746   1.972e-16 
   4198.832    1.81e-16 
   4199.919   2.083e-16 
   4201.004   1.699e-16 
   4202.091   1.442e-16 
   4203.177   2.032e-16 
   4204.262   1.834e-16 
   4205.349   1.772e-16 
   4206.435   1.603e-16 
   4207.522   1.419e-16 
   4208.608   1.409e-16 
   4209.694   1.966e-16 
   4210.781   1.904e-16 
   4211.866   2.148e-16 
   4212.953    1.74e-16 
    4214.04   1.819e-16 
   4215.126   1.443e-16 
   4216.212   1.828e-16 
   4217.298   1.468e-16 
   4218.385   1.721e-16 
   4219.471   1.407e-16 
   4220.558   1.896e-16 
   4221.644     1.9e-16 
   4222.731   1.518e-16 
   4223.817   1.603e-16 
   4224.904   2.332e-16 
    4225.99   1.928e-16 
   4227.076   1.557e-16 
   4228.163   1.765e-16 
    4229.25   1.518e-16 
   4230.337   1.441e-16 
   4231.423   1.301e-16 
    4232.51   1.835e-16 
   4233.597   1.885e-16 
   4234.683   1.577e-16 
   4235.769    1.65e-16 
   4236.856   1.404e-16 
   4237.943   1.438e-16 
   4239.029   1.503e-16 
   4240.116   1.874e-16 
   4241.203   1.694e-16 
   4242.289   1.717e-16 
   4243.377   1.655e-16 
   4244.464   1.776e-16 
   4245.551   1.607e-16 
   4246.637   1.875e-16 
   4247.724   1.934e-16 
   4248.811   1.849e-16 
   4249.897   1.434e-16 
   4250.984   1.413e-16 
   4252.072   1.577e-16 
   4253.159    1.12e-16 
   4254.245   1.961e-16 
   4255.332   1.651e-16 
   4256.419   1.843e-16 
   4257.506   1.931e-16 
   4258.593   2.123e-16 
    4259.68    1.42e-16 
   4260.768   1.453e-16 
   4261.854   1.742e-16 
   4262.941   1.496e-16 
   4264.028   1.608e-16 
   4265.115    1.54e-16 
   4266.202   1.784e-16 
    4267.29   1.332e-16 
   4268.377   1.668e-16 
   4269.463   1.528e-16 
   4270.551   1.643e-16 
   4271.638   2.011e-16 
   4272.725   2.062e-16 
   4273.812   1.776e-16 
     4274.9   1.696e-16 
   4275.987    1.59e-16 
   4277.074   1.936e-16 
   4278.161   1.784e-16 
   4279.249   1.889e-16 
   4280.335   1.565e-16 
   4281.423    1.26e-16 
    4282.51   1.207e-16 
   4283.598   1.775e-16 
   4284.685   1.601e-16 
   4285.772   1.467e-16 
    4286.86   1.232e-16 
   4287.947   1.383e-16 
   4289.034   1.902e-16 
   4290.122   1.422e-16 
    4291.21   1.434e-16 
   4292.296   1.647e-16 
   4293.384   1.437e-16 
   4294.472   1.718e-16 
   4295.559   1.732e-16 
   4296.646   1.848e-16 
   4297.734   1.397e-16 
   4298.822   1.803e-16 
   4299.909   1.616e-16 
   4300.996   1.991e-16 
   4302.084   1.304e-16 
   4303.171   1.523e-16 
   4304.259   1.694e-16 
   4305.347   1.785e-16 
   4306.435   1.776e-16 
   4307.522   1.678e-16 
   4308.609   1.403e-16 
   4309.697   1.332e-16 
   4310.784   1.397e-16 
   4311.872   1.559e-16 
    4312.96   1.695e-16 
   4314.048   1.204e-16 
   4315.135   1.683e-16 
   4316.223   1.635e-16 
   4317.311    1.57e-16 
   4318.398   1.194e-16 
   4319.486   1.753e-16 
   4320.574   1.614e-16 
   4321.662   1.399e-16 
   4322.749   1.551e-16 
   4323.837   1.529e-16 
   4324.925   1.645e-16 
   4326.013   1.466e-16 
   4327.101   1.667e-16 
   4328.189   1.645e-16 
   4329.277   1.513e-16 
   4330.364   1.578e-16 
   4331.452   1.824e-16 
    4332.54   1.635e-16 
   4333.628   1.467e-16 
   4334.716   1.841e-16 
   4335.804   1.779e-16 
   4336.892     1.4e-16 
   4337.979   1.622e-16 
   4339.068    1.63e-16 
   4340.156    1.79e-16 
   4341.243   1.411e-16 
   4342.331   1.696e-16 
    4343.42   1.556e-16 
   4344.508   1.178e-16 
   4345.595    1.78e-16 
   4346.684    1.76e-16 
   4347.772   1.766e-16 
   4348.859    1.43e-16 
   4349.948   2.027e-16 
   4351.036   1.987e-16 
   4352.124   1.405e-16 
   4353.212   1.316e-16 
     4354.3   1.843e-16 
   4355.389   1.606e-16 
   4356.476   1.549e-16 
   4357.564   1.644e-16 
   4358.653   1.506e-16 
   4359.741   2.855e-16 
   4360.829   1.993e-16 
   4361.917   1.103e-16 
   4363.006   1.075e-16 
   4364.093   1.175e-16 
   4365.182     1.5e-16 
    4366.27   1.194e-16 
   4367.359   1.384e-16 
   4368.446   1.793e-16 
   4369.535   1.708e-16 
   4370.623   1.354e-16 
   4371.711   1.819e-16 
   4372.799   1.999e-16 
   4373.888   1.365e-16 
   4374.977   1.667e-16 
   4376.064     1.8e-16 
   4377.153    1.71e-16 
   4378.241   1.781e-16 
   4379.329   1.695e-16 
   4380.418   1.272e-16 
   4381.506   1.524e-16 
   4382.595   1.419e-16 
   4383.683   1.127e-16 
   4384.771   1.419e-16 
    4385.86   1.229e-16 
   4386.948   2.025e-16 
   4388.037   2.075e-16 
   4389.125   1.711e-16 
   4390.214   1.979e-16 
   4391.302   2.007e-16 
    4392.39   1.634e-16 
   4393.479   1.307e-16 
   4394.567   1.697e-16 
   4395.656   1.469e-16 
   4396.745   1.495e-16 
   4397.833   1.307e-16 
   4398.921   1.464e-16 
    4400.01   1.261e-16 
   4401.099   1.591e-16 
   4402.187   1.503e-16 
   4403.275   1.666e-16 
   4404.364   1.743e-16 
   4405.453   1.503e-16 
   4406.541   1.489e-16 
    4407.63   1.596e-16 
   4408.719   1.641e-16 
   4409.807   1.277e-16 
   4410.895   2.035e-16 
   4411.984    1.14e-16 
   4413.073   1.623e-16 
   4414.161   1.356e-16 
    4415.25   1.822e-16 
   4416.339   1.163e-16 
   4417.427   1.487e-16 
   4418.516   1.528e-16 
   4419.605   1.536e-16 
   4420.694    1.52e-16 
   4421.782   1.697e-16 
   4422.871   1.674e-16 
    4423.96   1.896e-16 
   4425.048   1.544e-16 
   4426.137   1.282e-16 
   4427.226    1.39e-16 
   4428.315   1.494e-16 
   4429.403   1.594e-16 
   4430.492   1.794e-16 
   4431.581   1.924e-16 
   4432.669   1.934e-16 
   4433.758   1.782e-16 
   4434.847   1.554e-16 
   4435.936   1.347e-16 
   4437.024   2.161e-16 
   4438.113   1.903e-16 
   4439.203   1.824e-16 
   4440.291   1.482e-16 
    4441.38   1.648e-16 
   4442.469    1.69e-16 
   4443.558   1.638e-16 
   4444.646   1.673e-16 
   4445.735   1.778e-16 
   4446.825   1.683e-16 
   4447.913   1.678e-16 
   4449.002   8.283e-17 
   4450.091   9.036e-17 
    4451.18   1.526e-16 
   4452.268   1.682e-16 
   4453.358   1.082e-16 
   4454.447   1.407e-16 
   4455.535   1.405e-16 
   4456.624    1.58e-16 
   4457.713   1.432e-16 
   4458.802   1.795e-16 
   4459.891   1.164e-16 
    4460.98   1.536e-16 
   4462.069   1.703e-16 
   4463.158    1.57e-16 
   4464.247   1.483e-16 
   4465.336   1.276e-16 
   4466.424    1.41e-16 
   4467.514   1.739e-16 
   4468.603   1.317e-16 
   4469.692   1.748e-16 
   4470.781   1.522e-16 
    4471.87   1.385e-16 
   4472.959   1.343e-16 
   4474.047   1.329e-16 
   4475.137   1.487e-16 
   4476.226   1.385e-16 
   4477.315   1.374e-16 
   4478.404   1.255e-16 
   4479.493   1.377e-16 
   4480.582   1.072e-16 
   4481.671   1.494e-16 
    4482.76   1.257e-16 
    4483.85   1.591e-16 
   4484.939   1.461e-16 
   4486.027   1.398e-16 
   4487.117   1.437e-16 
   4488.206   1.904e-16 
   4489.294    1.58e-16 
   4490.384   1.473e-16 
   4491.473   1.217e-16 
   4492.563   1.643e-16 
   4493.651   1.151e-16 
    4494.74   1.434e-16 
    4495.83   1.572e-16 
   4496.918   1.529e-16 
   4498.008   1.032e-16 
   4499.097   1.234e-16 
   4500.187   1.323e-16 
   4501.275   1.696e-16 
   4502.364    1.25e-16 
   4503.454   1.444e-16 
   4504.542   1.154e-16 
   4505.632   1.395e-16 
   4506.721   1.483e-16 
   4507.811    1.71e-16 
   4508.899   1.158e-16 
   4509.989   1.128e-16 
   4511.078   1.103e-16 
   4512.167   1.542e-16 
   4513.256   1.547e-16 
   4514.346   1.095e-16 
   4515.435   1.321e-16 
   4516.524   1.485e-16 
   4517.613   1.857e-16 
   4518.703   1.416e-16 
   4519.791   1.376e-16 
   4520.881   1.496e-16 
    4521.97   1.422e-16 
    4523.06   1.316e-16 
   4524.148   1.717e-16 
   4525.238   1.566e-16 
   4526.328   1.574e-16 
   4527.416   1.648e-16 
   4528.506   1.092e-16 
   4529.595   1.266e-16 
   4530.685   1.422e-16 
   4531.773   1.168e-16 
   4532.863   1.134e-16 
   4533.952   1.281e-16 
   4535.041   8.624e-17 
   4536.131   2.334e-16 
    4537.22   9.456e-17 
    4538.31   9.938e-17 
   4539.398   1.272e-16 
   4540.488   1.241e-16 
   4541.578   1.255e-16 
   4542.666   1.179e-16 
   4543.756   1.246e-16 
   4544.845   1.372e-16 
   4545.934   1.082e-16 
   4547.024   1.562e-16 
   4548.113   1.264e-16 
   4549.203   8.687e-17 
   4550.291   1.024e-16 
   4551.381   1.196e-16 
   4552.471   1.315e-16 
   4553.559    9.88e-17 
   4554.649     1.4e-16 
   4555.738    1.59e-16 
   4556.828   1.355e-16 
   4557.917   1.534e-16 
   4559.006   1.829e-16 
   4560.096   9.466e-17 
   4561.185   1.564e-16 
   4562.274   1.144e-16 
   4563.364   1.596e-16 
   4564.454   1.228e-16 
   4565.542   1.179e-16 
   4566.632   1.449e-16 
   4567.722   1.353e-16 
    4568.81     1.2e-16 
     4569.9   1.564e-16 
    4570.99   1.105e-16 
   4572.079   1.046e-16 
   4573.168   1.276e-16 
   4574.257    1.27e-16 
   4575.347   1.508e-16 
   4576.436   1.615e-16 
   4577.526   1.376e-16 
   4578.615   1.496e-16 
   4579.705   1.504e-16 
   4580.794   1.858e-16 
   4581.883   1.307e-16 
   4582.973   1.446e-16 
   4584.062   1.472e-16 
   4585.151   1.173e-16 
   4586.241   1.505e-16 
   4587.331   9.669e-17 
   4588.419    1.26e-16 
   4589.509   1.616e-16 
   4590.599   9.644e-17 
   4591.687   1.382e-16 
   4592.777   9.531e-17 
   4593.867   1.493e-16 
   4594.956    1.42e-16 
   4596.045   1.384e-16 
   4597.135   1.611e-16 
   4598.224   1.521e-16 
   4599.313   1.308e-16 
   4600.403   1.247e-16 
   4601.493   8.804e-17 
   4602.582   1.687e-16 
   4603.671   1.486e-16 
   4604.761   1.234e-16 
    4605.85   1.063e-16 
   4606.939   1.626e-16 
   4608.029   1.257e-16 
   4609.118   1.242e-16 
   4610.208   1.367e-16 
   4611.297   1.211e-16 
   4612.387   1.354e-16 
   4613.476   1.144e-16 
   4614.565    1.42e-16 
   4615.655   1.506e-16 
   4616.744   1.665e-16 
   4617.833   1.227e-16 
   4618.923   1.304e-16 
   4620.012   1.143e-16 
   4621.102   1.619e-16 
   4622.191   1.627e-16 
   4623.281   1.042e-16 
    4624.37   1.431e-16 
   4625.459   1.747e-16 
   4626.549   1.626e-16 
   4627.638   1.201e-16 
   4628.728   1.668e-16 
   4629.817   1.891e-16 
   4630.906   1.779e-16 
   4631.996   1.266e-16 
   4633.085   1.493e-16 
   4634.175   1.291e-16 
   4635.264   1.458e-16 
   4636.354   1.525e-16 
   4637.443   1.069e-16 
   4638.532   1.233e-16 
   4639.622   1.709e-16 
   4640.711   1.474e-16 
     4641.8   1.102e-16 
    4642.89   1.113e-16 
    4643.98   1.367e-16 
   4645.068   1.593e-16 
   4646.158   1.581e-16 
   4647.248   1.291e-16 
   4648.337    1.32e-16 
   4649.426   1.429e-16 
   4650.516   1.046e-16 
   4651.606   1.465e-16 
   4652.694   1.624e-16 
   4653.784   1.409e-16 
   4654.874   1.436e-16 
   4655.962   1.449e-16 
   4657.052   1.268e-16 
   4658.142   1.349e-16 
   4659.231   1.686e-16 
    4660.32   1.427e-16 
    4661.41   1.645e-16 
   4662.499   9.174e-17 
   4663.588   1.114e-16 
   4664.678   1.661e-16 
   4665.767   1.412e-16 
   4666.857   1.267e-16 
   4667.946   1.642e-16 
   4669.035   1.794e-16 
   4670.125   1.408e-16 
   4671.213   1.136e-16 
   4672.303   1.427e-16 
   4673.393   1.673e-16 
   4674.481   1.389e-16 
   4675.571   1.726e-16 
   4676.661   1.117e-16 
    4677.75   1.428e-16 
   4678.839   1.217e-16 
   4679.929   1.021e-16 
   4681.018   1.367e-16 
   4682.107   1.523e-16 
   4683.196   1.468e-16 
   4684.286   1.253e-16 
   4685.376   1.022e-16 
   4686.464    1.62e-16 
   4687.554   1.393e-16 
   4688.643   1.323e-16 
   4689.732    1.48e-16 
   4690.822   1.373e-16 
   4691.911   1.697e-16 
   4693.001   1.269e-16 
   4694.089   1.336e-16 
   4695.179   1.442e-16 
   4696.269   1.501e-16 
   4697.357   1.603e-16 
   4698.447   1.395e-16 
   4699.536   1.474e-16 
   4700.626     1.6e-16 
   4701.715   1.246e-16 
   4702.804   1.376e-16 
   4703.894    1.25e-16 
   4704.982   1.436e-16 
   4706.072   1.546e-16 
   4707.161   1.655e-16 
   4708.251    1.69e-16 
   4709.339   1.528e-16 
   4710.429   1.514e-16 
   4711.518   1.432e-16 
   4712.607   1.204e-16 
   4713.697   1.555e-16 
   4714.786   1.347e-16 
   4715.876   1.259e-16 
   4716.964   1.434e-16 
   4718.054   1.034e-16 
   4719.143   1.538e-16 
   4720.232   1.515e-16 
   4721.321    1.52e-16 
   4722.411   1.345e-16 
     4723.5   1.845e-16 
   4724.589   1.478e-16 
   4725.678    1.31e-16 
   4726.767   1.564e-16 
   4727.856   1.343e-16 
   4728.945   1.299e-16 
   4730.035   1.036e-16 
   4731.123   1.359e-16 
   4732.213   1.031e-16 
   4733.302   1.462e-16 
   4734.392   1.502e-16 
    4735.48   1.385e-16 
    4736.57     1.3e-16 
   4737.659   1.604e-16 
   4738.747   1.663e-16 
   4739.837   1.133e-16 
   4740.926   1.479e-16 
   4742.016   1.366e-16 
   4743.104   1.455e-16 
   4744.193   1.231e-16 
   4745.283   1.799e-16 
   4746.371   1.236e-16 
   4747.461   1.251e-16 
    4748.55   1.382e-16 
   4749.639   1.359e-16 
   4750.728   1.324e-16 
   4751.817   1.712e-16 
   4752.906   1.581e-16 
   4753.995   1.436e-16 
   4755.084   1.071e-16 
   4756.173     1.4e-16 
   4757.263   1.182e-16 
   4758.351   1.616e-16 
    4759.44   1.377e-16 
    4760.53   1.521e-16 
   4761.618   1.527e-16 
   4762.707   1.422e-16 
   4763.797   1.471e-16 
   4764.886   1.269e-16 
   4765.974   1.479e-16 
   4767.064   1.234e-16 
   4768.153   1.443e-16 
   4769.241   1.336e-16 
    4770.33   1.361e-16 
    4771.42   1.188e-16 
   4772.509     1.6e-16 
   4773.597    1.57e-16 
   4774.686   2.025e-16 
   4775.776   1.442e-16 
   4776.864   1.177e-16 
   4777.953   9.837e-17 
   4779.042   1.316e-16 
   4780.131   1.069e-16 
    4781.22   1.506e-16 
   4782.309   1.265e-16 
   4783.398   1.332e-16 
   4784.486   1.201e-16 
   4785.575   1.535e-16 
   4786.664   1.361e-16 
   4787.753   1.605e-16 
   4788.842   1.279e-16 
   4789.931   1.246e-16 
    4791.02   1.215e-16 
   4792.108   1.233e-16 
   4793.197   1.626e-16 
   4794.286   1.171e-16 
   4795.374   1.517e-16 
   4796.464   1.429e-16 
   4797.553   1.134e-16 
   4798.642   1.412e-16 
    4799.73   1.216e-16 
   4800.819   1.458e-16 
   4801.908   1.236e-16 
   4802.996   1.407e-16 
   4804.085   1.348e-16 
   4805.174   1.189e-16 
   4806.263   1.319e-16 
   4807.351   1.296e-16 
    4808.44   1.308e-16 
   4809.529   1.171e-16 
   4810.617   1.452e-16 
   4811.706   1.344e-16 
   4812.795   1.086e-16 
   4813.884   1.219e-16 
   4814.972   1.595e-16 
   4816.061   1.364e-16 
    4817.15   9.464e-17 
   4818.238   6.531e-17 
   4819.327   1.458e-16 
   4820.416   1.341e-16 
   4821.505   1.649e-16 
   4822.593   1.599e-16 
   4823.682   8.388e-17 
    4824.77   1.164e-16 
   4825.858   1.281e-16 
   4826.947   1.397e-16 
   4828.036   7.698e-17 
   4829.125   1.268e-16 
   4830.213   9.961e-17 
   4831.302   1.539e-16 
    4832.39   1.303e-16 
   4833.478    1.28e-16 
   4834.567   1.506e-16 
   4835.656   1.531e-16 
   4836.745   1.351e-16 
   4837.832   1.159e-16 
   4838.921   1.049e-16 
    4840.01   1.702e-16 
   4841.098   1.333e-16 
   4842.186   1.067e-16 
   4843.275   1.227e-16 
   4844.363    9.64e-17 
   4845.452   1.283e-16 
    4846.54   1.306e-16 
   4847.629   1.375e-16 
   4848.717   1.286e-16 
   4849.805   1.297e-16 
   4850.894   1.497e-16 
   4851.982   1.091e-16 
    4853.07    1.11e-16 
   4854.159   1.317e-16 
   4855.248   8.295e-17 
   4856.335     1.4e-16 
   4857.424   1.457e-16 
   4858.513   1.413e-16 
     4859.6   1.559e-16 
   4860.689   1.214e-16 
   4861.777   1.371e-16 
   4862.866   1.293e-16 
   4863.953    1.06e-16 
   4865.042   9.893e-17 
   4866.131   1.008e-16 
   4867.218   1.367e-16 
   4868.307   1.172e-16 
   4869.395   1.651e-16 
   4870.484   1.395e-16 
   4871.571    1.39e-16 
   4872.659   1.031e-16 
   4873.748    1.04e-16 
   4874.835   1.164e-16 
   4875.924   1.473e-16 
   4877.012   1.175e-16 
   4878.101   1.013e-16 
   4879.188   1.361e-16 
   4880.277   1.384e-16 
   4881.365   1.563e-16 
   4882.452   1.246e-16 
   4883.541   1.035e-16 
   4884.629    1.29e-16 
   4885.717   1.134e-16 
   4886.805   1.229e-16 
   4887.893   1.074e-16 
   4888.981     7.8e-17 
   4890.069   1.161e-16 
   4891.157   1.637e-16 
   4892.245   1.116e-16 
   4893.332   1.001e-16 
   4894.421   1.293e-16 
   4895.509   1.275e-16 
   4896.597   1.374e-16 
   4897.684   1.082e-16 
   4898.773   1.257e-16 
   4899.861   1.035e-16 
   4900.948   1.609e-16 
   4902.036   1.441e-16 
   4903.124   8.959e-17 
   4904.212   9.493e-17 
     4905.3   1.122e-16 
   4906.388    1.32e-16 
   4907.476    1.17e-16 
   4908.563   9.919e-17 
   4909.651   1.022e-16 
   4910.739   1.245e-16 
   4911.827   1.098e-16 
   4912.914   1.254e-16 
   4914.002   1.093e-16 
    4915.09   1.398e-16 
   4916.177   1.338e-16 
   4917.265   1.374e-16 
   4918.353   1.181e-16 
   4919.441   1.238e-16 
   4920.528   1.315e-16 
   4921.616   1.173e-16 
   4922.704   9.063e-17 
   4923.791   1.405e-16 
   4924.879   1.177e-16 
   4925.967   1.693e-16 
   4927.055   1.242e-16 
   4928.142   1.358e-16 
    4929.23   6.868e-17 
   4930.317   1.224e-16 
   4931.404   8.859e-17 
   4932.492   9.117e-17 
    4933.58   1.137e-16 
   4934.668   1.319e-16 
   4935.754   1.284e-16 
   4936.842    1.39e-16 
    4937.93   1.318e-16 
   4939.017   1.107e-16 
   4940.105    1.26e-16 
   4941.192   1.443e-16 
   4942.279   9.216e-17 
   4943.367   8.788e-17 
   4944.454   1.426e-16 
   4945.542   9.219e-17 
   4946.629   1.183e-16 
   4947.716    1.03e-16 
   4948.804    1.13e-16 
   4949.891   8.886e-17 
   4950.978   1.104e-16 
   4952.066   1.105e-16 
   4953.153   1.444e-16 
    4954.24   1.216e-16 
   4955.327   5.069e-17 
   4956.415   1.366e-16 
   4957.501   1.153e-16 
   4958.589   1.646e-16 
   4959.676   1.411e-16 
   4960.764   1.086e-16 
    4961.85   1.341e-16 
   4962.938   1.037e-16 
   4964.025   7.437e-17 
   4965.112   9.641e-17 
   4966.199   1.244e-16 
   4967.286   1.201e-16 
   4968.374   1.056e-16 
    4969.46    1.44e-16 
   4970.548   9.739e-17 
   4971.635   1.164e-16 
   4972.721    1.19e-16 
   4973.809   1.284e-16 
   4974.896   8.999e-17 
   4975.983   9.644e-17 
   4977.069   1.587e-16 
   4978.157   1.221e-16 
   4979.244   9.537e-17 
    4980.33   1.131e-16 
   4981.417   1.402e-16 
   4982.504   8.505e-17 
   4983.592   1.051e-16 
   4984.678   1.329e-16 
   4985.765   1.209e-16 
   4986.852   8.871e-17 
   4987.938    1.32e-16 
   4989.025   1.288e-16 
   4990.112    1.32e-16 
   4991.198   8.851e-17 
   4992.285   1.225e-16 
   4993.372   9.267e-17 
   4994.459   1.001e-16 
   4995.545   1.113e-16 
   4996.632    9.23e-17 
   4997.719   9.892e-17 
   4998.805   9.499e-17 
   4999.892   9.379e-17 
   5000.979   1.173e-16 
   5002.066   1.246e-16 
   5003.152   8.475e-17 
   5004.239   1.239e-16 
   5005.326   1.027e-16 
   5006.412    1.01e-16 
   5007.498   1.043e-16 
   5008.585   9.278e-17 
   5009.672   1.156e-16 
   5010.758   5.466e-17 
   5011.845   1.143e-16 
   5012.931   1.192e-16 
   5014.017   1.404e-16 
   5015.104   1.105e-16 
   5016.191   1.103e-16 
   5017.277   1.102e-16 
   5018.363   1.075e-16 
    5019.45   1.259e-16 
   5020.536    9.06e-17 
   5021.622   7.739e-17 
   5022.708   1.001e-16 
   5023.795   1.114e-16 
   5024.882   8.085e-17 
   5025.967   8.408e-17 
   5027.054   6.443e-17 
    5028.14   4.141e-17 
   5029.226   1.011e-16 
   5030.312   1.064e-16 
   5031.399   1.233e-16 
   5032.485   6.635e-17 
    5033.57   9.766e-17 
   5034.657   8.399e-17 
   5035.743   9.759e-17 
   5036.829   1.188e-16 
   5037.915   4.824e-17 
   5039.001   7.838e-17 
   5040.087   6.953e-17 
   5041.173   7.689e-17 
   5042.259   1.171e-16 
   5043.346   1.271e-16 
   5044.431   8.332e-17 
   5045.517   7.039e-17 
   5046.603    6.43e-17 
   5047.688   9.753e-17 
   5048.775   1.137e-16 
   5049.861   9.471e-17 
   5050.947   1.245e-16 
   5052.032   1.055e-16 
   5053.118   6.391e-17 
   5054.204   8.081e-17 
   5055.289   1.217e-16 
   5056.375   9.487e-17 
   5057.462   1.023e-16 
   5058.548   7.521e-17 
   5059.633   9.198e-17 
   5060.719   9.181e-17 
   5061.805   1.125e-16 
   5062.889   1.056e-16 
   5063.975    8.68e-17 
   5065.061   9.621e-17 
   5066.147   8.765e-17 
   5067.232   8.458e-17 
   5068.318   1.111e-16 
   5069.404   1.529e-16 
   5070.489   1.415e-16 
   5071.574   8.846e-17 
    5072.66   6.448e-17 
   5073.746   1.081e-16 
   5074.831   1.143e-16 
   5075.916   4.794e-17 
   5077.002   7.165e-17 
   5078.087   1.195e-16 
   5079.173   1.087e-16 
   5080.258   9.393e-17 
   5081.344   1.162e-16 
   5082.428   1.296e-16 
   5083.514   7.183e-17 
     5084.6   9.033e-17 
   5085.684   9.932e-17 
    5086.77    9.46e-17 
   5087.855   1.419e-16 
    5088.94   1.097e-16 
   5090.025    8.79e-17 
   5091.111   1.077e-16 
   5092.196    1.24e-16 
   5093.281   9.587e-17 
   5094.366   1.029e-16 
   5095.451   8.548e-17 
   5096.536   1.102e-16 
   5097.621   1.022e-16 
   5098.706   1.136e-16 
   5099.792   1.009e-16 
   5100.876   6.844e-17 
   5101.961   9.473e-17 
   5103.046   8.325e-17 
   5104.131   7.037e-17 
   5105.216   1.056e-16 
   5106.301   1.239e-16 
   5107.386   9.145e-17 
    5108.47   1.029e-16 
   5109.556   1.048e-16 
   5110.641   1.057e-16 
   5111.725   1.346e-16 
    5112.81    7.86e-17 
   5113.895    9.26e-17 
    5114.98   1.084e-16 
   5116.064   1.354e-16 
   5117.149   1.006e-16 
   5118.234   4.758e-17 
   5119.318   1.126e-16 
   5120.403   8.519e-17 
   5121.488   6.027e-17 
   5122.572   1.381e-16 
   5123.656   9.468e-17 
   5124.741   1.393e-16 
   5125.826   1.151e-16 
    5126.91   1.124e-16 
   5127.995   9.895e-17 
   5129.079   8.333e-17 
   5130.164   1.117e-16 
   5131.248   9.348e-17 
   5132.332   1.043e-16 
   5133.417    8.59e-17 
   5134.501   5.204e-17 
   5135.585   9.104e-17 
    5136.67   1.085e-16 
   5137.755   1.237e-16 
   5138.838   1.124e-16 
   5139.923   1.091e-16 
   5141.007   1.155e-16 
   5142.091   1.265e-16 
   5143.175    1.05e-16 
    5144.26   8.724e-17 
   5145.343   1.061e-16 
   5146.427   7.167e-17 
   5147.512    1.13e-16 
   5148.596   9.749e-17 
    5149.68   6.277e-17 
   5150.764   1.094e-16 
   5151.848    1.23e-16 
   5152.931   1.018e-16 
   5154.016   1.244e-16 
     5155.1   1.365e-16 
   5156.184   8.444e-17 
   5157.267   1.064e-16 
   5158.351   1.099e-16 
   5159.436    1.17e-16 
   5160.519   1.027e-16 
   5161.603   8.784e-17 
   5162.687   9.747e-17 
   5163.771   1.402e-16 
   5164.854   9.423e-17 
   5165.938   8.558e-17 
   5167.022   1.069e-16 
   5168.105   1.326e-16 
   5169.189   1.213e-16 
   5170.273   8.468e-17 
   5171.357    1.02e-16 
    5172.44   1.174e-16 
   5173.523   1.264e-16 
   5174.607   9.336e-17 
    5175.69   6.534e-17 
   5176.774   1.079e-16 
   5177.858   1.617e-16 
   5178.941    1.29e-16 
   5180.024   1.108e-16 
   5181.108   5.965e-17 
   5182.191   9.164e-17 
   5183.274   8.349e-17 
   5184.358   8.533e-17 
   5185.441   8.953e-17 
   5186.525   9.586e-17 
   5187.607   9.592e-17 
   5188.691   1.143e-16 
   5189.774   1.403e-16 
   5190.857   8.835e-17 
    5191.94   1.342e-16 
   5193.024   1.138e-16 
   5194.107   8.483e-17 
    5195.19    8.13e-17 
   5196.273   1.257e-16 
   5197.356   9.896e-17 
   5198.439   1.354e-16 
   5199.522     1.1e-16 
   5200.605   7.896e-17 
   5201.687   1.021e-16 
   5202.771   1.077e-16 
   5203.854   1.045e-16 
   5204.937   9.773e-17 
   5206.019   1.053e-16 
   5207.102   1.244e-16 
   5208.185   7.113e-17 
   5209.268   8.944e-17 
   5210.351   1.146e-16 
   5211.434   1.089e-16 
   5212.517   1.402e-16 
   5213.599   7.936e-17 
   5214.682    8.48e-17 
   5215.764   1.139e-16 
   5216.846   1.097e-16 
   5217.929   1.097e-16 
   5219.012   1.302e-16 
   5220.095   9.145e-17 
   5221.177   8.886e-17 
   5222.259   1.218e-16 
   5223.342   6.233e-17 
   5224.424   7.061e-17 
   5225.507    1.07e-16 
   5226.589   1.004e-16 
   5227.672   8.243e-17 
   5228.754   1.215e-16 
   5229.836    1.47e-16 
   5230.919   1.409e-16 
     5232.0   1.105e-16 
   5233.083     1.1e-16 
   5234.165   8.447e-17 
   5235.248   8.161e-17 
   5236.329   7.652e-17 
   5237.412   1.269e-16 
   5238.494   8.387e-17 
   5239.576   1.006e-16 
   5240.658   6.483e-17 
    5241.74   1.315e-16 
   5242.822    1.53e-16 
   5243.904   1.367e-16 
   5244.986   1.425e-16 
   5246.068   6.629e-17 
   5247.149   1.301e-16 
   5248.232   1.002e-16 
   5249.314   1.119e-16 
   5250.396   9.325e-17 
   5251.477   8.431e-17 
   5252.559   8.807e-17 
   5253.641   1.142e-16 
   5254.722   1.798e-16 
   5255.804   1.214e-16 
   5256.886   1.042e-16 
   5257.967   1.532e-16 
   5259.049   9.782e-17 
   5260.131   1.373e-16 
   5261.213   8.179e-17 
   5262.293   1.315e-16 
   5263.375   8.237e-17 
   5264.457   8.885e-17 
   5265.538   9.936e-17 
   5266.619   1.174e-16 
   5267.701   1.189e-16 
   5268.783    1.18e-16 
   5269.863   7.895e-17 
   5270.945   9.737e-17 
   5272.027   1.163e-16 
   5273.107     9.8e-17 
   5274.189   1.063e-16 
    5275.27   9.768e-17 
   5276.352   1.149e-16 
   5277.432   6.824e-17 
   5278.514   7.142e-17 
   5279.595   9.999e-17 
   5280.675       9e-17 
   5281.757   1.262e-16 
   5282.838   1.124e-16 
   5283.919   1.319e-16 
     5285.0   1.071e-16 
   5286.081   1.013e-16 
   5287.162   1.107e-16 
   5288.242   7.211e-17 
   5289.323   9.017e-17 
   5290.404   4.077e-17 
   5291.485   1.551e-16 
   5292.566    1.22e-16 
   5293.647     1.3e-16 
   5294.728   7.872e-17 
   5295.808   5.557e-17 
   5296.889   6.941e-17 
   5297.969   9.982e-17 
    5299.05   1.212e-16 
    5300.13   1.306e-16 
   5301.211   1.367e-16 
   5302.292   1.512e-16 
   5303.372   2.982e-17 
   5304.452   7.958e-17 
   5305.533   1.323e-16 
   5306.614   9.026e-17 
   5307.694   1.254e-16 
   5308.774   1.314e-16 
   5309.855   9.153e-17 
   5310.934   1.184e-16 
   5312.015   1.055e-16 
   5313.095   9.157e-17 
   5314.176   9.697e-17 
   5315.255   6.435e-17 
   5316.336   1.051e-16 
   5317.416   1.033e-16 
   5318.496   8.618e-17 
   5319.576   8.706e-17 
   5320.656   8.743e-17 
   5321.736   7.981e-17 
   5322.816   5.879e-17 
   5323.896   1.096e-16 
   5324.976   1.127e-16 
   5326.056   1.264e-16 
   5327.136   1.389e-16 
   5328.216   5.895e-17 
   5329.295   8.202e-17 
   5330.375    6.46e-17 
   5331.455    7.15e-17 
   5332.535   1.074e-16 
   5333.614   7.865e-17 
   5334.694   8.715e-17 
   5335.774   7.659e-17 
   5336.853   6.595e-17 
   5337.933   4.745e-17 
   5339.012   7.996e-17 
   5340.092   9.109e-17 
   5341.171   8.207e-17 
   5342.251   7.719e-17 
    5343.33   9.546e-17 
   5344.409   6.145e-17 
   5345.489   1.287e-16 
   5346.568   6.926e-17 
   5347.648   1.271e-16 
   5348.727   1.388e-16 
   5349.806   1.178e-16 
   5350.886   1.107e-16 
   5351.964   8.835e-17 
   5353.044   6.083e-17 
   5354.123   1.055e-16 
   5355.202   1.044e-16 
   5356.281   1.013e-16 
    5357.36   8.268e-17 
   5358.439   8.153e-17 
   5359.518   1.356e-16 
   5360.597   3.253e-17 
   5361.676   6.935e-17 
   5362.755   1.143e-16 
   5363.833   7.851e-17 
   5364.912   6.321e-17 
   5365.991   7.406e-17 
   5367.069   9.198e-17 
   5368.148   9.792e-17 
   5369.227   1.011e-16 
   5370.306   1.155e-16 
   5371.384   1.081e-16 
   5372.463   6.642e-17 
   5373.542   3.605e-17 
    5374.62   1.197e-16 
   5375.699    7.62e-17 
   5376.777   1.125e-16 
   5377.856   5.921e-17 
   5378.934   1.361e-16 
   5380.013   1.044e-16 
   5381.091   8.618e-17 
   5382.169   1.162e-16 
   5383.247   1.125e-16 
   5384.326   6.169e-17 
   5385.404   8.591e-17 
   5386.482   3.941e-17 
    5387.56   1.156e-16 
   5388.639   1.061e-16 
   5389.716   1.178e-16 
   5390.794   8.457e-17 
   5391.873   7.256e-17 
    5392.95   1.476e-16 
   5394.028   9.487e-17 
   5395.107   8.575e-17 
   5396.185    6.11e-17 
   5397.262   8.259e-17 
    5398.34   1.041e-16 
   5399.418    9.86e-17 
   5400.495   1.026e-16 
   5401.573   1.097e-16 
   5402.651   1.299e-16 
   5403.729    1.33e-16 
   5404.806   1.123e-16 
   5405.884   1.104e-16 
   5406.962    1.09e-16 
   5408.039   1.299e-16 
   5409.117       1e-16 
   5410.194   7.977e-17 
   5411.272   9.864e-17 
   5412.349   9.507e-17 
   5413.426   6.913e-17 
   5414.504   6.685e-17 
   5415.581   9.169e-17 
   5416.658   9.601e-17 
   5417.736   1.191e-16 
   5418.813    1.14e-16 
    5419.89   7.235e-17 
   5420.967   7.381e-17 
   5422.045    9.92e-17 
   5423.121   9.443e-17 
   5424.198   7.305e-17 
   5425.276   8.086e-17 
   5426.353   1.036e-16 
   5427.429   1.128e-16 
   5428.506   7.758e-17 
   5429.584   6.538e-17 
    5430.66   6.565e-17 
   5431.737    1.05e-16 
   5432.814    8.28e-17 
   5433.891   7.304e-17 
   5434.967   1.023e-16 
   5436.044   1.321e-16 
   5437.121   8.487e-17 
   5438.197   7.298e-17 
   5439.274   1.042e-16 
    5440.35   1.173e-16 
   5441.427   1.179e-16 
   5442.503   7.958e-17 
    5443.58   1.041e-16 
   5444.656   1.152e-16 
   5445.732   9.558e-17 
   5446.809   6.491e-17 
   5447.885   1.078e-16 
   5448.962   1.225e-16 
   5450.037   1.508e-16 
   5451.114   1.065e-16 
    5452.19   7.359e-17 
   5453.266   9.687e-17 
   5454.342    1.21e-16 
   5455.419   1.148e-16 
   5456.495   6.201e-17 
    5457.57   1.192e-16 
   5458.646   1.099e-16 
   5459.723   1.206e-16 
   5460.798   6.887e-17 
   5461.874   7.018e-17 
    5462.95   1.047e-16 
   5464.026   9.778e-17 
   5465.101   7.739e-17 
   5466.177   9.301e-17 
   5467.253   1.416e-16 
   5468.328   1.175e-16 
   5469.404   1.039e-16 
    5470.48   1.021e-16 
   5471.556   1.116e-16 
   5472.631   9.309e-17 
   5473.706   7.319e-17 
   5474.782   4.671e-17 
   5475.857   6.909e-17 
   5476.932   1.299e-16 
   5478.008   1.026e-16 
   5479.083   5.651e-17 
   5480.158   5.583e-17 
   5481.234    6.65e-17 
   5482.309   9.224e-17 
   5483.384     7.8e-17 
   5484.459   5.654e-17 
   5485.534   7.446e-17 
   5486.609   8.729e-17 
   5487.684   6.061e-17 
   5488.759    9.28e-17 
   5489.835   1.196e-16 
   5490.909   1.478e-16 
   5491.984   1.074e-16 
   5493.059   4.822e-17 
   5494.133   5.872e-17 
   5495.208   8.682e-17 
   5496.283   8.338e-17 
   5497.358   8.252e-17 
   5498.432   1.014e-16 
   5499.507   1.061e-16 
   5500.582   1.132e-16 
   5501.656   6.509e-17 
    5502.73   4.092e-17 
   5503.805   5.974e-17 
    5504.88   1.142e-16 
   5505.954   1.151e-16 
   5507.028   7.277e-17 
   5508.103   8.458e-17 
   5509.176   1.034e-16 
   5510.251   9.656e-17 
   5511.325   9.409e-17 
     5512.4   8.775e-17 
   5513.473   1.028e-16 
   5514.548   1.058e-16 
   5515.622   7.507e-17 
    5517.74   1.011e-16 
   5519.257   6.399e-17 
   5520.774   8.218e-17 
   5522.291   5.411e-17 
   5523.809   1.103e-16 
   5525.325   8.391e-17 
   5526.843   9.041e-17 
   5528.359   1.076e-16 
   5529.877   6.526e-17 
   5531.394   5.946e-17 
   5532.911   1.179e-16 
   5534.428   7.256e-17 
   5535.945   7.917e-17 
   5537.463   1.125e-16 
    5538.98   5.977e-17 
   5540.497   6.569e-17 
   5542.015   8.769e-17 
   5543.532   8.049e-17 
    5545.05    8.15e-17 
   5546.566   9.101e-17 
   5548.084   9.804e-17 
   5549.602   9.004e-17 
   5551.119   8.311e-17 
   5552.637   7.346e-17 
   5554.154   6.334e-17 
   5555.672   6.542e-17 
    5557.19   8.612e-17 
   5558.707   4.578e-17 
   5560.225   1.304e-16 
   5561.742   8.316e-17 
    5563.26   5.163e-17 
   5564.779    1.07e-16 
   5566.296   7.318e-17 
   5567.814   5.971e-17 
   5569.331   1.126e-16 
   5570.849   7.433e-17 
   5572.368   1.074e-16 
   5573.885   3.188e-17 
   5575.403   9.623e-17 
   5576.921   1.159e-16 
   5578.439   1.365e-16 
   5579.957   3.813e-17 
   5581.475   3.695e-17 
   5582.993   9.705e-17 
   5584.511   4.599e-17 
   5586.029   6.081e-17 
   5587.548    8.71e-17 
   5589.065   8.824e-17 
   5590.584   4.675e-17 
   5592.102   7.727e-17 
    5593.62   9.522e-17 
   5595.138   5.737e-17 
   5596.657   9.035e-17 
   5598.175   1.196e-16 
   5599.693   6.241e-17 
   5601.212   1.159e-16 
    5602.73   8.197e-17 
   5604.248   9.715e-17 
   5605.767   1.126e-16 
   5607.285   1.073e-16 
   5608.804   9.426e-17 
   5610.322   8.516e-17 
   5611.841   9.876e-17 
    5613.36   8.231e-17 
   5614.878   8.334e-17 
   5616.397   9.564e-17 
   5617.915   6.828e-17 
   5619.434    9.72e-17 
   5620.953   9.498e-17 
   5622.471   9.479e-17 
    5623.99   8.341e-17 
   5625.508    1.02e-16 
   5627.028   9.031e-17 
   5628.547   1.204e-16 
   5630.065   8.063e-17 
   5631.584   8.862e-17 
   5633.103   1.056e-16 
   5634.622   7.928e-17 
   5636.141   1.028e-16 
    5637.66   1.055e-16 
   5639.179   9.966e-17 
   5640.698   7.628e-17 
   5642.217   9.366e-17 
   5643.735   1.028e-16 
   5645.255    9.94e-17 
   5646.774   1.065e-16 
   5648.293    1.11e-16 
   5649.813   8.232e-17 
   5651.331   8.361e-17 
   5652.851   1.064e-16 
    5654.37   1.134e-16 
   5655.889   8.195e-17 
   5657.409   9.385e-17 
   5658.928    7.77e-17 
   5660.447   7.051e-17 
   5661.967   9.566e-17 
   5663.486    8.37e-17 
   5665.006   7.536e-17 
   5666.524   8.881e-17 
   5668.044   1.067e-16 
   5669.564   9.886e-17 
   5671.083   1.185e-16 
   5672.603    1.07e-16 
   5674.122   7.203e-17 
   5675.642   1.023e-16 
   5677.162   1.054e-16 
   5678.681   8.593e-17 
   5680.201    7.26e-17 
    5681.72   9.694e-17 
    5683.24   8.331e-17 
   5684.761   9.078e-17 
    5686.28   1.016e-16 
     5687.8   1.064e-16 
   5689.319   7.818e-17 
   5690.839   1.114e-16 
   5692.359   9.191e-17 
   5693.879   5.988e-17 
   5695.399    8.01e-17 
   5696.919   8.271e-17 
   5698.439   8.361e-17 
   5699.958   1.091e-16 
   5701.479   1.091e-16 
   5702.999   7.389e-17 
   5704.519   1.427e-16 
   5706.039   8.521e-17 
   5707.559   7.879e-17 
   5709.079   9.746e-17 
     5710.6   8.547e-17 
   5712.119   6.501e-17 
    5713.64   7.715e-17 
    5715.16   8.722e-17 
    5716.68   7.336e-17 
   5718.201   9.808e-17 
   5719.721   8.235e-17 
   5721.241   5.303e-17 
   5722.761   8.622e-17 
   5724.282   1.036e-16 
   5725.803   7.848e-17 
   5727.323   1.148e-16 
   5728.843   8.831e-17 
   5730.363   8.036e-17 
   5731.884   8.632e-17 
   5733.405   9.563e-17 
   5734.925   6.838e-17 
   5736.446   9.014e-17 
   5737.966   8.524e-17 
   5739.487   8.675e-17 
   5741.007    9.21e-17 
   5742.528   9.551e-17 
   5744.049   5.235e-17 
   5745.569   8.829e-17 
   5747.091   8.604e-17 
   5748.611   5.404e-17 
   5750.132   1.019e-16 
   5751.653   1.069e-16 
   5753.173   7.721e-17 
   5754.695   7.006e-17 
   5756.215   7.604e-17 
   5757.736   6.537e-17 
   5759.258   6.791e-17 
   5760.778   7.393e-17 
   5762.299   6.504e-17 
    5763.82   8.358e-17 
   5765.341   7.567e-17 
   5766.863   6.246e-17 
   5768.383   7.941e-17 
   5769.905   8.636e-17 
   5771.425   8.083e-17 
   5772.947   6.767e-17 
   5774.468   1.076e-16 
   5775.989   7.975e-17 
   5777.511   9.364e-17 
   5779.031   7.516e-17 
   5780.553   4.456e-17 
   5782.074    7.31e-17 
   5783.595   9.091e-17 
   5785.117    6.35e-17 
   5786.638   5.977e-17 
    5788.16   1.048e-16 
   5789.681   4.678e-17 
   5791.202   5.628e-17 
   5792.724    8.11e-17 
   5794.245   5.041e-17 
   5795.767   6.282e-17 
   5797.288   8.688e-17 
    5798.81    7.68e-17 
   5800.332   5.215e-17 
   5801.853   9.245e-17 
   5803.375   5.732e-17 
   5804.896   4.855e-17 
   5806.418   8.793e-17 
    5807.94   1.073e-16 
   5809.461   2.328e-17 
   5810.984   6.653e-17 
   5812.505   4.634e-17 
   5814.027   7.544e-17 
   5815.549    8.39e-17 
    5817.07   5.712e-17 
   5818.593   5.255e-17 
   5820.114   8.538e-17 
   5821.636   8.543e-17 
   5823.158   7.319e-17 
    5824.68   9.341e-17 
   5826.202   6.864e-17 
   5827.724   4.054e-17 
   5829.246   7.921e-17 
   5830.768   6.503e-17 
    5832.29   5.751e-17 
   5833.813   6.561e-17 
   5835.334   6.071e-17 
   5836.857   3.062e-17 
   5838.378    6.15e-17 
   5839.901   7.563e-17 
   5841.424   3.184e-17 
   5842.945   6.826e-17 
   5844.468   8.796e-17 
    5845.99   4.077e-17 
   5847.512   6.532e-17 
   5849.035   6.947e-17 
   5850.557   4.207e-17 
    5852.08    5.04e-17 
   5853.602   5.409e-17 
   5855.124   4.128e-17 
   5856.647   6.363e-17 
   5858.169   9.201e-17 
   5859.692   5.895e-17 
   5861.214   7.641e-17 
   5862.737   6.539e-17 
   5864.259   5.618e-17 
   5865.782   4.449e-17 
   5867.305   8.637e-17 
   5868.827   3.834e-17 
    5870.35   4.168e-17 
   5871.872   6.635e-17 
   5873.395   3.404e-17 
   5874.919   3.721e-17 
   5876.441   6.752e-17 
   5877.964    6.87e-17 
   5879.486   3.467e-17 
   5881.009   9.476e-17 
   5882.533   5.968e-17 
   5884.055   6.287e-17 
   5885.578   7.318e-17 
   5887.101   7.494e-18 
   5888.624   1.512e-17 
   5890.147   6.521e-17 
    5891.67   7.572e-17 
   5893.193    1.28e-17 
   5894.716   5.315e-17 
   5896.239   5.682e-17 
   5897.763   2.959e-17 
   5899.285    6.69e-17 
   5900.809   6.699e-17 
   5902.331   6.842e-17 
   5903.855   7.287e-17 
   5905.377   8.026e-17 
   5906.901    5.07e-17 
   5908.425   6.302e-17 
   5909.947   6.993e-17 
   5911.471   3.972e-17 
   5912.994   4.315e-17 
   5914.518   5.763e-17 
   5916.041   5.355e-17 
   5917.564   8.429e-17 
   5919.088   4.731e-17 
   5920.611    2.94e-17 
   5922.135   7.367e-17 
   5923.659   4.654e-17 
   5925.181   5.031e-17 
   5926.705   7.448e-17 
   5928.228   6.291e-17 
   5929.752   4.775e-17 
   5931.276   4.754e-17 
   5932.799   6.438e-17 
   5934.323   2.846e-17 
   5935.846   7.498e-17 
   5937.371   7.054e-17 
   5938.894    4.72e-17 
   5940.418   4.685e-17 
   5941.942    6.21e-17 
   5943.465   4.949e-17 
   5944.989    5.01e-17 
   5946.513   8.034e-17 
   5948.037   4.674e-17 
   5949.561   5.183e-17 
   5951.084   5.349e-17 
   5952.609   6.892e-17 
   5954.132   6.745e-17 
   5955.656   5.152e-17 
   5957.181   4.871e-17 
   5958.704   5.026e-17 
   5960.229   8.047e-17 
   5961.752   5.925e-17 
   5963.277    8.54e-17 
   5964.801   7.001e-17 
   5966.325    4.78e-17 
   5967.849   7.896e-17 
   5969.373   8.927e-17 
   5970.897   7.333e-17 
   5972.422   7.486e-17 
   5973.946   8.788e-17 
    5975.47   8.356e-17 
   5976.994   6.204e-17 
   5978.519   8.282e-17 
   5980.042   5.975e-17 
   5981.567   5.211e-17 
   5983.092   8.194e-17 
   5984.616   5.985e-17 
   5986.141   5.832e-17 
   5987.664   8.187e-17 
   5989.189   6.549e-17 
   5990.714   4.526e-17 
   5992.238   1.056e-16 
   5993.763    7.56e-17 
   5995.287   7.143e-17 
   5996.812   7.961e-17 
   5998.337   6.059e-17 
   5999.861   7.607e-17 
   6001.386   6.232e-17 
    6002.91   9.877e-17 
   6004.435   7.437e-17 
    6005.96   8.621e-17 
   6007.484   6.847e-17 
    6009.01   5.353e-17 
   6010.534   9.249e-17 
   6012.059   7.732e-17 
   6013.583   5.386e-17 
   6015.108   8.144e-17 
   6016.634   1.058e-16 
   6018.158   7.135e-17 
   6019.683   7.209e-17 
   6021.208   6.322e-17 
   6022.733   7.617e-17 
   6024.258   9.502e-17 
   6025.783     7.4e-17 
   6027.308   5.033e-17 
   6028.833   7.193e-17 
   6030.358   9.449e-17 
   6031.884   4.427e-17 
   6033.408   5.526e-17 
   6034.934   8.875e-17 
   6036.458   8.553e-17 
   6037.984   6.028e-17 
   6039.509    5.11e-17 
   6041.034    6.92e-17 
    6042.56   7.047e-17 
   6044.084   8.277e-17 
    6045.61   8.423e-17 
   6047.135   5.488e-17 
   6048.661   6.378e-17 
   6050.186   6.979e-17 
   6051.711   7.895e-17 
   6053.237    9.57e-17 
   6054.762    8.54e-17 
   6056.288    5.26e-17 
   6057.813   8.248e-17 
   6059.338   6.085e-17 
   6060.864   1.039e-16 
   6062.389   9.225e-17 
   6063.915   7.163e-17 
   6065.441   6.599e-17 
   6066.966   7.709e-17 
   6068.492   8.086e-17 
   6070.017   7.817e-17 
   6071.543   6.997e-17 
   6073.069   8.818e-17 
   6074.594   7.955e-17 
   6076.121   8.994e-17 
   6077.646     6.4e-17 
   6079.172   6.927e-17 
   6080.697   8.137e-17 
   6082.223    7.57e-17 
   6083.749   7.872e-17 
   6085.275   1.076e-16 
   6086.801   8.989e-17 
   6088.326   6.111e-17 
   6089.853   7.922e-17 
   6091.379   7.542e-17 
   6092.904   6.327e-17 
   6094.431   7.001e-17 
   6095.956   7.672e-17 
   6097.483   8.636e-17 
   6099.009   8.196e-17 
   6100.535   9.164e-17 
   6102.061   7.555e-17 
   6103.587   8.866e-17 
   6105.113   9.999e-17 
    6106.64   8.391e-17 
   6108.165   8.338e-17 
   6109.692   9.505e-17 
   6111.217   6.414e-17 
   6112.744   7.655e-17 
    6114.27   1.011e-16 
   6115.796   5.642e-17 
   6117.323   4.601e-17 
   6118.849   9.453e-17 
   6120.376   9.292e-17 
   6121.901   5.561e-17 
   6123.428   9.056e-17 
   6124.955   8.249e-17 
   6126.481   6.891e-17 
   6128.008   8.601e-17 
   6129.534   9.267e-17 
   6131.061   4.235e-17 
   6132.588   9.917e-17 
   6134.113   8.167e-17 
    6135.64    5.02e-17 
   6137.166   8.416e-17 
   6138.693   7.368e-17 
   6140.221   5.501e-17 
   6141.747   8.614e-17 
   6143.274   7.806e-17 
     6144.8   4.657e-17 
   6146.327    6.65e-17 
   6147.853   8.352e-17 
    6149.38   5.713e-17 
   6150.907   9.159e-17 
   6152.434   6.744e-17 
   6153.961   5.778e-17 
   6155.487   9.584e-17 
   6157.014    7.98e-17 
   6158.542   5.224e-17 
   6160.068   7.591e-17 
   6161.595   7.151e-17 
   6163.122   5.767e-17 
   6164.649   9.858e-17 
   6166.176   6.447e-17 
   6167.703   6.271e-17 
    6169.23   7.294e-17 
   6170.757   7.785e-17 
   6172.284   4.845e-17 
   6173.812   5.606e-17 
   6175.338    8.32e-17 
   6176.866   7.802e-17 
   6178.392   7.459e-17 
    6179.92   6.036e-17 
   6181.447   5.031e-17 
   6182.974   4.676e-17 
   6184.502   7.952e-17 
   6186.028   5.425e-17 
   6187.556    3.91e-17 
   6189.083   8.057e-17 
   6190.611   4.259e-17 
   6192.138   3.551e-17 
   6193.665   6.716e-17 
   6195.193   6.182e-17 
    6196.72   6.606e-17 
   6198.248   6.351e-17 
   6199.775   5.797e-17 
   6201.302   6.023e-17 
    6202.83   6.263e-17 
   6204.357   5.601e-17 
   6205.885   5.171e-17 
   6207.412   6.417e-17 
    6208.94   6.166e-17 
   6210.468   6.273e-17 
   6211.995    7.34e-17 
   6213.523   4.109e-17 
    6215.05   4.538e-17 
   6216.578   8.332e-17 
   6218.106   2.918e-17 
   6219.634   4.487e-17 
   6221.162    6.04e-17 
   6222.689   5.877e-17 
   6224.217    2.91e-17 
   6225.745   6.061e-17 
   6227.273   4.492e-17 
   6228.801   4.824e-17 
   6230.328   6.574e-17 
   6231.856   3.073e-17 
   6233.385   3.731e-17 
   6234.912   6.433e-17 
    6236.44   7.962e-17 
   6237.968   3.596e-17 
   6239.496   6.116e-17 
   6241.024   6.764e-17 
   6242.552   3.781e-17 
   6244.081   5.325e-17 
   6245.608   5.454e-17 
   6247.137   3.655e-17 
   6248.664   6.303e-17 
   6250.193   3.742e-17 
   6251.721   2.638e-17 
   6253.249   5.172e-17 
   6254.777   3.121e-17 
   6256.305   4.645e-17 
   6257.834   3.633e-17 
   6259.362   5.982e-17 
    6260.89   3.664e-17 
   6262.419   5.401e-17 
   6263.946   6.286e-17 
   6265.475   4.313e-17 
   6267.003   4.563e-17 
   6268.532   6.338e-17 
   6270.061   2.034e-17 
   6271.588   3.567e-17 
   6273.117   5.849e-17 
   6274.645   4.957e-17 
   6276.174   2.196e-17 
   6277.703   5.145e-17 
   6279.231   3.945e-17 
    6280.76   5.123e-17 
   6282.288   4.966e-17 
   6283.817   2.623e-17 
   6285.346   5.037e-17 
   6286.874   5.073e-17 
   6288.403   3.075e-17 
   6289.931   4.323e-17 
    6291.46   5.694e-17 
   6292.989   3.068e-17 
   6294.517   4.172e-17 
   6296.046    6.95e-17 
   6297.575   4.549e-17 
   6299.104   4.295e-17 
   6300.632   7.052e-17 
   6302.161   2.849e-17 
   6303.691   5.325e-17 
   6305.219   4.077e-17 
   6306.748   5.218e-17 
   6308.276    2.59e-17 
   6309.806   5.812e-17 
   6311.335   4.516e-17 
   6312.863   3.894e-17 
   6314.393   6.605e-17 
   6315.921   4.199e-17 
   6317.451   4.299e-17 
    6318.98   4.553e-17 
   6320.509   7.619e-17 
   6322.038   4.097e-17 
   6323.567   4.742e-17 
   6325.096    6.78e-17 
   6326.625   4.251e-17 
   6328.154   5.019e-17 
   6329.684   6.394e-17 
   6331.213   5.627e-17 
   6332.742   5.801e-17 
   6334.271    6.45e-17 
   6335.801    4.62e-17 
    6337.33   7.426e-17 
   6338.859   5.666e-17 
   6340.389   4.771e-17 
   6341.917   6.325e-17 
   6343.447   6.093e-17 
   6344.977   2.058e-17 
   6346.506   5.343e-17 
   6348.036   6.084e-17 
   6349.565   4.312e-17 
   6351.094   4.888e-17 
   6352.624   5.725e-17 
   6354.153   4.043e-17 
   6355.683    5.14e-17 
   6357.212   7.391e-17 
   6358.742   6.684e-17 
   6360.271    4.97e-17 
   6361.801    6.67e-17 
   6363.331   5.109e-17 
    6364.86   5.418e-17 
    6366.39   5.506e-17 
   6367.919   5.139e-17 
   6369.449     6.3e-17 
    6370.98   5.921e-17 
   6372.509   5.832e-17 
   6374.039   6.758e-17 
   6375.568     6.9e-17 
   6377.098   6.142e-17 
   6378.629   4.221e-17 
   6380.158   7.722e-17 
   6381.688   6.441e-17 
   6383.217   5.551e-17 
   6384.748   5.169e-17 
   6386.277    5.79e-17 
   6387.807    5.27e-17 
   6389.338   9.435e-17 
   6390.867   5.464e-17 
   6392.398   6.202e-17 
   6393.927   6.328e-17 
   6395.457   7.189e-17 
   6396.988   4.548e-17 
   6398.517   7.149e-17 
   6400.048   6.681e-17 
   6401.577    6.74e-17 
   6403.108   8.865e-17 
   6404.638   6.097e-17 
   6406.168   4.346e-17 
   6407.699   7.603e-17 
   6409.228   4.846e-17 
   6410.759   8.848e-17 
   6412.289   6.133e-17 
   6413.819   7.186e-17 
    6415.35   7.358e-17 
    6416.88   8.371e-17 
    6418.41    6.67e-17 
    6419.94   6.664e-17 
   6421.471   7.621e-17 
   6423.002   6.981e-17 
   6424.532   5.722e-17 
   6426.062   6.879e-17 
   6427.592   5.673e-17 
   6429.123   7.085e-17 
   6430.654   7.839e-17 
   6432.184   7.959e-17 
   6433.715   5.528e-17 
   6435.245   6.747e-17 
   6436.776   6.477e-17 
   6438.306   7.147e-17 
   6439.837   7.195e-17 
   6441.368   6.852e-17 
   6442.898   6.951e-17 
   6444.429   6.609e-17 
   6445.959   7.096e-17 
    6447.49   8.011e-17 
   6449.021   7.666e-17 
   6450.551   7.509e-17 
   6452.082   6.643e-17 
   6453.613   8.499e-17 
   6455.144   6.572e-17 
   6456.675   5.393e-17 
   6458.205    7.31e-17 
   6459.737   7.408e-17 
   6461.267   5.473e-17 
   6462.798   6.638e-17 
   6464.328   9.095e-17 
    6465.86   4.662e-17 
   6467.391   7.404e-17 
   6468.921   6.948e-17 
   6470.453   8.228e-17 
   6471.983   7.931e-17 
   6473.515   7.842e-17 
   6475.046   6.908e-17 
   6476.577   6.913e-17 
   6478.108   7.601e-17 
   6479.639   6.112e-17 
    6481.17    6.27e-17 
   6482.702   6.717e-17 
   6484.232   7.755e-17 
   6485.764   6.265e-17 
   6487.294   7.747e-17 
   6488.826   7.395e-17 
   6490.357   6.886e-17 
   6491.888   6.885e-17 
    6493.42   6.603e-17 
   6494.951   8.197e-17 
   6496.482   7.923e-17 
   6498.013   4.962e-17 
   6499.545   5.845e-17 
   6501.076    7.63e-17 
   6502.607   6.872e-17 
   6504.139    6.43e-17 
    6505.67   7.499e-17 
   6507.202   6.704e-17 
   6508.734   6.451e-17 
   6510.264   8.254e-17 
   6511.796   8.426e-17 
   6513.327   6.377e-17 
   6514.859   7.306e-17 
   6516.391   7.045e-17 
   6517.922   5.956e-17 
   6519.454   5.985e-17 
   6520.985   5.961e-17 
   6522.517   5.774e-17 
   6524.048    6.87e-17 
    6525.58    6.72e-17 
   6527.112   6.515e-17 
   6528.643   5.314e-17 
   6530.175   8.747e-17 
   6531.707   5.937e-17 
   6533.239   5.648e-17 
   6534.771   7.339e-17 
   6536.302   5.104e-17 
   6537.834   6.108e-17 
   6539.366   6.159e-17 
   6540.898   4.927e-17 
    6542.43   6.415e-17 
   6543.961     7.2e-17 
   6545.494   7.644e-17 
   6547.025   5.952e-17 
   6548.557   4.062e-17 
   6550.089   5.567e-17 
   6551.621   5.036e-17 
   6553.153   5.607e-17 
   6554.685   5.444e-17 
   6556.217   4.564e-17 
   6557.749   8.441e-17 
   6559.281   5.802e-17 
   6560.814   6.482e-17 
   6562.345   6.842e-17 
   6563.878   5.115e-17 
   6565.409   5.535e-17 
   6566.942   8.132e-17 
   6568.474   7.478e-17 
   6570.006   5.987e-17 
   6571.539   7.349e-17 
    6573.07   7.328e-17 
   6574.603   4.453e-17 
   6576.134   7.826e-17 
   6577.667    7.31e-17 
     6579.2   4.445e-17 
   6580.732   5.207e-17 
   6582.264   5.414e-17 
   6583.796   4.292e-17 
   6585.329   5.837e-17 
   6586.862   5.294e-17 
   6588.393   5.234e-17 
   6589.926   6.701e-17 
   6591.458   8.784e-17 
   6592.991   2.632e-17 
   6594.523   6.424e-17 
   6596.056   5.017e-17 
   6597.589   5.872e-17 
   6599.121   7.116e-17 
   6600.654   6.816e-17 
   6602.185   4.999e-17 
   6603.718   7.223e-17 
   6605.251   6.176e-17 
   6606.784   6.162e-17 
   6608.317   4.752e-17 
   6609.849   7.047e-17 
   6611.382   4.839e-17 
   6612.915   4.716e-17 
   6614.447   5.579e-17 
    6615.98   5.293e-17 
   6617.512   6.201e-17 
   6619.045   6.198e-17 
   6620.578    5.35e-17 
   6622.111   5.876e-17 
   6623.644    7.25e-17 
   6625.176   5.639e-17 
   6626.709   5.479e-17 
   6628.242    5.98e-17 
   6629.775   6.392e-17 
   6631.308   5.743e-17 
   6632.841    5.85e-17 
   6634.374   5.145e-17 
   6635.906    4.78e-17 
    6637.44   6.521e-17 
   6638.973   4.812e-17 
   6640.506    6.18e-17 
   6642.039   5.484e-17 
   6643.571   5.424e-17 
   6645.105   5.626e-17 
   6646.637   5.376e-17 
   6648.171   5.137e-17 
   6649.704   5.952e-17 
   6651.237   5.984e-17 
    6652.77   5.287e-17 
   6654.303   4.724e-17 
   6655.837    7.83e-17 
    6657.37   6.615e-17 
   6658.903   5.005e-17 
   6660.436   5.864e-17 
   6661.969   5.877e-17 
   6663.503   4.141e-17 
   6665.037   5.266e-17 
   6666.569   4.972e-17 
   6668.103   6.505e-17 
   6669.636   6.422e-17 
   6671.169   5.413e-17 
   6672.702    5.94e-17 
   6674.236   6.715e-17 
    6675.77    5.42e-17 
   6677.303   4.608e-17 
   6678.837   5.496e-17 
   6680.369   5.865e-17 
   6681.903   5.743e-17 
   6683.437   5.707e-17 
    6684.97   6.168e-17 
   6686.504   4.782e-17 
   6688.037   5.991e-17 
   6689.571   6.302e-17 
   6691.105   4.186e-17 
   6692.638   7.014e-17 
   6694.172   6.079e-17 
   6695.705   4.331e-17 
   6697.239   4.419e-17 
   6698.772   6.807e-17 
   6700.306   3.803e-17 
    6701.84   5.999e-17 
   6703.374    6.99e-17 
   6704.908   4.757e-17 
   6706.441   5.411e-17 
   6707.975    6.28e-17 
   6709.509   5.157e-17 
   6711.042   5.647e-17 
   6712.577   5.176e-17 
    6714.11   5.802e-17 
   6715.644   4.689e-17 
   6717.178   4.889e-17 
   6718.712   5.111e-17 
   6720.246   5.096e-17 
   6721.779   6.233e-17 
   6723.314   5.508e-17 
   6724.847   4.349e-17 
   6726.382   7.391e-17 
   6727.916   3.902e-17 
   6729.449   5.727e-17 
   6730.984    6.13e-17 
   6732.517   5.142e-17 
   6734.052    4.63e-17 
   6735.586   6.456e-17 
    6737.12   4.834e-17 
   6738.654   5.146e-17 
   6740.188   5.493e-17 
   6741.722   5.626e-17 
   6743.256    1.68e-17 
    6744.79   6.663e-17 
   6746.325   5.514e-17 
   6747.859   4.788e-17 
   6749.393   5.768e-17 
   6750.927   4.851e-17 
   6752.462   4.298e-17 
   6753.996   7.211e-17 
    6755.53   5.761e-17 
   6757.065    4.03e-17 
   6758.598   6.286e-17 
   6760.133   6.618e-17 
   6761.668   4.798e-17 
   6763.202   7.157e-17 
   6764.737   4.887e-17 
    6766.27   4.574e-17 
   6767.805    5.55e-17 
   6769.339   5.642e-17 
   6770.874   5.024e-17 
   6772.409   6.372e-17 
   6773.943   6.367e-17 
   6775.478   5.689e-17 
   6777.012   5.664e-17 
   6778.547   5.693e-17 
   6780.082   5.189e-17 
   6781.616   5.721e-17 
   6783.151   6.519e-17 
   6784.685   5.935e-17 
    6786.22   6.076e-17 
   6787.755   5.134e-17 
   6789.289    5.74e-17 
   6790.824   4.676e-17 
   6792.358   6.619e-17 
   6793.893   3.248e-17 
   6795.427    6.72e-17 
   6796.962   5.431e-17 
   6798.498   5.848e-17 
   6800.032   5.115e-17 
   6801.567   6.529e-17 
   6803.101   3.943e-17 
   6804.636   4.873e-17 
   6806.172   5.453e-17 
   6807.706   4.799e-17 
   6809.241   5.586e-17 
   6810.776   5.727e-17 
   6812.311   5.143e-17 
   6813.845   3.732e-17 
   6815.381   6.077e-17 
   6816.916   4.832e-17 
    6818.45   4.405e-17 
   6819.986   5.775e-17 
    6821.52   5.288e-17 
   6823.056   4.096e-17 
   6824.591   5.715e-17 
   6826.125   5.198e-17 
   6827.661   3.717e-17 
   6829.195   4.654e-17 
   6830.731   4.138e-17 
   6832.266    2.68e-17 
   6833.801   7.461e-17 
   6835.337   3.631e-17 
   6836.871   4.824e-17 
   6838.407   4.869e-17 
   6839.941   4.883e-17 
   6841.477   4.932e-17 
   6843.013   6.645e-17 
   6844.547   5.541e-17 
   6846.083   3.738e-17 
   6847.618   6.014e-17 
   6849.153   4.081e-17 
   6850.689   4.207e-17 
   6852.224   5.593e-17 
    6853.76   6.364e-17 
   6855.294   3.555e-17 
    6856.83   6.194e-17 
   6858.366   3.799e-17 
   6859.901   3.783e-17 
   6861.437   5.283e-17 
   6862.971   3.972e-17 
   6864.507   3.103e-17 
   6866.042   6.238e-17 
   6867.578   6.432e-17 
   6869.114   2.881e-17 
   6870.649   4.959e-17 
   6872.185   6.662e-17 
    6873.72   4.119e-17 
   6875.256   5.639e-17 
   6876.792   5.653e-17 
   6878.327   4.437e-17 
   6879.863   6.165e-17 
   6881.398   6.167e-17 
   6882.934   6.394e-17 
   6884.469   6.323e-17 
   6886.005   4.681e-17 
   6887.541   3.457e-17 
   6889.076   7.144e-17 
   6890.613   7.727e-17 
   6892.148   4.824e-17 
   6893.684    5.86e-17 
    6895.22    7.49e-17 
   6896.755    4.72e-17 
   6898.291   3.406e-17 
   6899.827   6.987e-17 
   6901.363   5.583e-17 
   6902.899   4.733e-17 
   6904.434   3.929e-17 
   6905.971   5.056e-17 
   6907.506   4.675e-17 
   6909.042   6.469e-17 
   6910.578   5.609e-17 
   6912.114   4.174e-17 
   6913.651   5.846e-17 
   6915.186    7.07e-17 
   6916.722   3.171e-17 
   6918.258   5.681e-17 
   6919.794       6e-17 
   6921.331   5.926e-17 
   6922.866   5.583e-17 
   6924.403   6.517e-17 
   6925.938   4.575e-17 
   6927.475   6.598e-17 
    6929.01   4.455e-17 
   6930.547   2.952e-17 
   6932.083    4.29e-17 
   6933.619   4.856e-17 
   6935.155    4.29e-17 
   6936.691   6.637e-17 
   6938.228   3.999e-17 
   6939.764   2.716e-17 
     6941.3   4.797e-17 
   6942.837    6.49e-17 
   6944.372   3.693e-17 
   6945.909   5.029e-17 
   6947.446   5.866e-17 
   6948.981   2.823e-17 
   6950.518    3.99e-17 
   6952.054   6.304e-17 
   6953.591    4.85e-17 
   6955.126   5.398e-17 
   6956.663   5.204e-17 
     6958.2    5.43e-17 
   6959.736   4.957e-17 
   6961.273   5.989e-17 
   6962.809   3.634e-17 
   6964.346   4.722e-17 
   6965.882   7.084e-17 
   6967.418   5.636e-17 
   6968.955   4.524e-17 
   6970.491   6.021e-17 
   6972.028   4.637e-17 
   6973.565   3.434e-17 
   6975.101   5.156e-17 
   6976.638   3.421e-17 
   6978.174   4.733e-17 
   6979.711   4.431e-17 
   6981.247   4.879e-17 
   6982.784   3.829e-17 
   6984.321   6.347e-17 
   6985.858   5.617e-17 
   6987.395   3.568e-17 
   6988.931   4.145e-17 
   6990.468   5.112e-17 
   6992.005   3.348e-17 
   6993.541   5.136e-17 
   6995.078    6.66e-17 
   6996.615    3.86e-17 
   6998.152   6.093e-17 
   6999.688   4.425e-17 
   7001.225   5.956e-17 
   7002.763   6.211e-17 
   7004.299   6.538e-17 
   7005.836   5.723e-17 
   7007.372   5.145e-17 
    7008.91   4.294e-17 
   7010.447   5.497e-17 
   7011.983   6.112e-17 
   7013.521   5.371e-17 
   7015.057   4.598e-17 
   7016.595   6.109e-17 
   7018.131    4.92e-17 
   7019.668    5.23e-17 
   7021.206   5.435e-17 
   7022.742   6.376e-17 
    7024.28    4.22e-17 
   7025.816     3.6e-17 
   7027.354   4.192e-17 
   7028.891   4.833e-17 
   7030.428   5.296e-17 
   7031.965   6.529e-17 
   7033.502    4.47e-17 
    7035.04   4.601e-17 
   7036.577       7e-17 
   7038.114   4.088e-17 
   7039.651   4.581e-17 
   7041.188   5.771e-17 
   7042.726    6.38e-17 
   7044.262   6.636e-17 
     7045.8   8.683e-17 
   7047.338    7.48e-17 
   7048.874   4.601e-17 
   7050.412   5.878e-17 
   7051.949   4.561e-17 
   7053.487   4.268e-17 
   7055.024   5.147e-17 
   7056.561   4.785e-17 
   7058.099   4.893e-17 
   7059.636   5.615e-17 
   7061.173   4.394e-17 
    7062.71   4.503e-17 
   7064.248   6.136e-17 
   7065.786   4.859e-17 
   7067.323    4.55e-17 
   7068.861   5.573e-17 
   7070.398   3.866e-17 
   7071.936   4.936e-17 
   7073.474    4.72e-17 
   7075.011   4.209e-17 
   7076.548   3.937e-17 
   7078.085   5.605e-17 
   7079.623   4.514e-17 
   7081.161   4.856e-17 
   7082.699   5.693e-17 
   7084.237   5.611e-17 
   7085.774   5.313e-17 
   7087.312    6.13e-17 
   7088.849   6.322e-17 
   7090.387   4.572e-17 
   7091.925   5.208e-17 
   7093.462   5.613e-17 
     7095.0   4.099e-17 
   7096.537   6.143e-17 
   7098.076     4.4e-17 
   7099.614    3.52e-17 
   7101.151   5.518e-17 
   7102.689   5.367e-17 
   7104.226   4.325e-17 
   7105.765   4.824e-17 
   7107.302   5.523e-17 
    7108.84   4.309e-17 
   7110.378   5.178e-17 
   7111.916    4.18e-17 
   7113.454   4.325e-17 
   7114.991   4.352e-17 
    7116.53   4.639e-17 
   7118.068   4.523e-17 
   7119.605   4.761e-17 
   7121.144   5.283e-17 
   7122.681   3.016e-17 
    7124.22   3.833e-17 
   7125.758   4.408e-17 
   7127.295   4.225e-17 
   7128.834   4.298e-17 
   7130.371   5.215e-17 
    7131.91   4.941e-17 
   7133.447   4.973e-17 
   7134.986   5.812e-17 
   7136.524   3.246e-17 
   7138.062   3.901e-17 
     7139.6   4.652e-17 
   7141.138   4.256e-17 
   7142.677   4.363e-17 
   7144.215   5.968e-17 
   7145.753   4.042e-17 
   7147.291   3.563e-17 
   7148.829   6.635e-17 
   7150.368   4.334e-17 
   7151.905   4.206e-17 
   7153.444   5.045e-17 
   7154.983   4.665e-17 
    7156.52   3.444e-17 
   7158.059   5.709e-17 
   7159.597   4.904e-17 
   7161.136   4.331e-17 
   7162.674   6.694e-17 
   7164.212    5.69e-17 
   7165.751   4.109e-17 
   7167.289   5.009e-17 
   7168.827   3.832e-17 
   7170.365   4.227e-17 
   7171.904   4.919e-17 
   7173.443   4.951e-17 
   7174.981   4.015e-17 
    7176.52   4.759e-17 
   7178.058   3.364e-17 
   7179.597   3.818e-17 
   7181.135   4.647e-17 
   7182.673   4.931e-17 
   7184.212   3.837e-17 
    7185.75   7.464e-17 
   7187.289   4.956e-17 
   7188.828   4.086e-17 
   7190.366   4.588e-17 
   7191.905   4.603e-17 
   7193.443   4.262e-17 
   7194.982   5.032e-17 
    7196.52   6.399e-17 
   7198.059   3.466e-17 
   7199.599   4.625e-17 
   7201.137   5.087e-17 
   7202.676   4.163e-17 
   7204.214   5.028e-17 
   7205.753   4.794e-17 
   7207.292   2.781e-17 
    7208.83   4.343e-17 
   7210.369   5.781e-17 
   7211.908   3.899e-17 
   7213.447   5.003e-17 
   7214.985   5.857e-17 
   7216.524   3.257e-17 
   7218.064   4.051e-17 
   7219.602   5.981e-17 
   7221.141   3.818e-17 
   7222.679   5.577e-17 
   7224.219    6.24e-17 
   7225.758   3.932e-17 
   7227.296    5.53e-17 
   7228.836    5.15e-17 
   7230.374   5.562e-17 
   7231.913    4.16e-17 
   7233.452   5.959e-17 
   7234.991   6.359e-17 
   7236.531   5.912e-17 
   7238.069   6.288e-17 
   7239.608   3.234e-17 
   7241.147   3.876e-17 
   7242.686    2.62e-17 
   7244.226   5.383e-17 
   7245.764   4.494e-17 
   7247.304   3.993e-17 
   7248.842   3.749e-17 
   7250.382   4.344e-17 
   7251.921   4.673e-17 
    7253.46   4.522e-17 
   7254.999   3.033e-17 
   7256.538   4.807e-17 
   7258.078   3.536e-17 
   7259.616   3.679e-17 
   7261.156   4.771e-17 
   7262.695   4.783e-17 
   7264.234   5.042e-17 
   7265.774   6.089e-17 
   7267.312   4.059e-17 
   7268.852   5.839e-17 
   7270.392   4.834e-17 
    7271.93   4.937e-17 
    7273.47   5.905e-17 
   7275.009   6.568e-17 
   7276.549   2.944e-17 
   7278.087   3.961e-17 
   7279.627   5.654e-17 
   7281.167   2.995e-17 
   7282.706   6.588e-17 
   7284.246   5.406e-17 
   7285.784   3.859e-17 
   7287.324   3.585e-17 
   7288.864   5.074e-17 
   7290.403   5.753e-17 
   7291.943   5.029e-17 
   7293.482   4.899e-17 
   7295.022   5.403e-17 
   7296.561   4.282e-17 
     7298.1   5.961e-17 
    7299.64   6.245e-17 
   7301.179   4.485e-17 
   7302.719     3.9e-17 
   7304.258   5.795e-17 
   7305.798   4.031e-17 
   7307.338   4.867e-17 
   7308.877   4.138e-17 
   7310.417   3.693e-17 
   7311.956   3.885e-17 
   7313.496   2.889e-17 
   7315.035   4.771e-17 
   7316.576   3.167e-17 
   7318.116   3.845e-17 
   7319.655   3.285e-17 
   7321.195   4.741e-17 
   7322.734   4.398e-17 
   7324.274   3.345e-17 
   7325.814   2.885e-17 
   7327.353   6.649e-17 
   7328.894    1.93e-17 
   7330.433   5.514e-17 
   7331.973   4.902e-17 
   7333.513   4.889e-17 
   7335.052   2.641e-17 
   7336.593   4.786e-17 
   7338.132     3.6e-17 
   7339.672   5.286e-17 
   7341.211   8.678e-17 
   7342.752   3.715e-17 
   7344.292   4.559e-17 
   7345.831   4.948e-17 
   7347.372   3.591e-17 
   7348.911   2.371e-17 
   7350.451   6.161e-17 
   7351.992   3.716e-17 
   7353.531   2.749e-17 
   7355.072   4.718e-17 
   7356.611   2.755e-17 
   7358.151   3.897e-17 
   7359.691   4.105e-17 
   7361.231   3.367e-17 
   7362.772    2.86e-17 
   7364.311   5.472e-17 
   7365.852   4.206e-17 
   7367.391   3.349e-17 
   7368.932   3.746e-17 
   7370.472    3.14e-17 
   7372.012   2.803e-17 
   7373.552   4.035e-17 
   7375.092   5.167e-17 
   7376.632   3.552e-17 
   7378.172   5.187e-17 
   7379.712   4.538e-17 
   7381.253   3.393e-17 
   7382.793   4.287e-17 
   7384.333   4.195e-17 
   7385.873   3.828e-17 
   7387.414   3.908e-17 
   7388.954   4.912e-17 
   7390.494   3.082e-17 
   7392.035   3.946e-17 
   7393.574   4.438e-17 
   7395.115   3.488e-17 
   7396.655   3.891e-17 
   7398.195   5.409e-17 
   7399.736   3.596e-17 
   7401.276   4.876e-17 
   7402.817   5.647e-17 
   7404.356   5.388e-17 
   7405.897   3.331e-17 
   7407.438   3.868e-17 
   7408.978   3.164e-17 
   7410.519   4.201e-17 
   7412.059     4.8e-17 
   7413.599   3.358e-17 
   7415.139   3.487e-17 
    7416.68   4.891e-17 
   7418.221   3.457e-17 
   7419.761   3.273e-17 
   7421.302   4.965e-17 
   7422.842    3.21e-17 
   7424.383   3.852e-17 
   7425.924   4.203e-17 
   7427.464   4.719e-17 
   7429.005   4.671e-17 
   7430.545   3.973e-17 
   7432.086   4.253e-17 
   7433.627   1.715e-17 
   7435.167   3.591e-17 
   7436.708   3.942e-17 
   7438.248   4.674e-17 
   7439.789    4.78e-17 
   7441.329   3.546e-17 
    7442.87   3.465e-17 
   7444.411   3.205e-17 
   7445.951   3.185e-17 
   7447.492   2.892e-17 
   7449.032   4.066e-17 
   7450.573   3.532e-17 
   7452.115   3.687e-17 
   7453.655   4.231e-17 
   7455.196   4.131e-17 
   7456.736   4.091e-17 
   7458.277   4.258e-17 
   7459.817    3.49e-17 
   7461.359   3.613e-17 
     7462.9   4.621e-17 
    7464.44   4.675e-17 
   7465.981   2.389e-17 
   7467.522   3.407e-17 
   7469.063   3.877e-17 
   7470.604   2.657e-17 
   7472.144    3.46e-17 
   7473.686   3.475e-17 
   7475.226   4.109e-17 
   7476.767   4.449e-17 
   7478.308   4.803e-17 
   7479.849   1.902e-17 
    7481.39   3.822e-17 
   7482.931   2.704e-17 
   7484.472   5.115e-17 
   7486.013   3.314e-17 
   7487.554   4.582e-17 
   7489.095   4.528e-17 
   7490.636    2.92e-17 
   7492.177   4.564e-17 
   7493.718   3.003e-17 
   7495.259   2.579e-17 
     7496.8   3.589e-17 
   7498.341   3.153e-17 
   7499.883   3.133e-17 
   7501.423   4.048e-17 
   7502.965   3.092e-17 
   7504.505   1.905e-17 
   7506.047   3.876e-17 
   7507.588   4.228e-17 
   7509.129   2.198e-17 
   7510.671   3.406e-17 
   7512.211   2.393e-17 
   7513.753   3.318e-17 
   7515.293   5.458e-17 
   7516.835   2.794e-17 
   7518.377   3.229e-17 
   7519.917   5.952e-17 
   7521.459   1.531e-17 
     7523.0   1.302e-17 
   7524.541   4.981e-17 
   7526.083   5.701e-17 
   7527.624   3.674e-17 
   7529.165   5.262e-17 
   7530.706   3.576e-17 
   7532.248   3.509e-17 
   7533.789   3.698e-17 
    7535.33   3.113e-17 
   7536.872   2.575e-17 
   7538.413   4.258e-17 
   7539.955   4.746e-17 
   7541.495   1.882e-17 
   7543.037   3.423e-17 
   7544.579   4.429e-17 
    7546.12    2.32e-17 
   7547.662   3.633e-17 
   7549.203   4.199e-17 
   7550.745   2.659e-17 
   7552.285   3.135e-17 
   7553.827   3.828e-17 
   7555.369   2.845e-17 
    7556.91   3.626e-17 
   7558.452   5.474e-17 
   7559.993   2.536e-17 
   7561.535   3.059e-17 
   7563.077   5.106e-17 
   7564.618   3.212e-17 
    7566.16   5.666e-17 
   7567.701   5.406e-17 
   7569.243   3.157e-17 
   7570.785   3.526e-17 
   7572.326   6.195e-17 
   7573.868   3.786e-17 
   7575.409   2.285e-17 
   7576.951   3.651e-17 
   7578.492   3.077e-17 
   7580.034    2.87e-17 
   7581.576   3.779e-17 
   7583.117   1.495e-17 
   7584.659   4.234e-17 
     7586.2   3.042e-17 
   7587.743   4.994e-17 
   7589.285   2.972e-17 
   7590.826   5.611e-17 
   7592.368   4.998e-17 
   7593.909   3.196e-17 
   7595.451   3.651e-17 
   7596.993   2.997e-17 
   7598.535   1.241e-17 
   7600.077   7.104e-17 
   7601.618   4.501e-17 
    7603.16   4.091e-17 
   7604.702   4.443e-17 
   7606.244    9.67e-17 
   7607.786  -9.178e-18 
   7609.327   3.854e-18 
    7610.87   4.267e-17 
   7612.411   -1.62e-17 
   7613.953   5.632e-17 
   7615.495   2.948e-17 
   7617.037   2.117e-17 
   7618.579   3.417e-17 
   7620.121   2.434e-17 
   7621.663   2.035e-17 
   7623.204   2.833e-17 
   7624.747   2.136e-17 
   7626.289   4.275e-17 
   7627.831   2.596e-17 
   7629.373   6.204e-17 
   7630.914   2.469e-17 
   7632.457   3.005e-17 
   7633.998   4.123e-17 
   7635.541   2.268e-17 
   7637.083   2.091e-17 
   7638.625    4.56e-17 
   7640.167   3.057e-17 
   7641.709   2.599e-17 
   7643.251   3.802e-17 
   7644.794   2.569e-17 
   7646.335   2.765e-17 
   7647.878   5.559e-17 
   7649.419   2.268e-17 
   7650.962   3.854e-17 
   7652.503   2.558e-17 
   7654.046   2.957e-17 
   7655.588   1.651e-17 
    7657.13   3.059e-17 
   7658.673   3.029e-17 
   7660.214   2.733e-17 
   7661.757   5.425e-17 
     7663.3   3.617e-17 
   7664.841   1.971e-17 
   7666.384   2.827e-17 
   7667.926   3.474e-17 
   7669.468   3.248e-17 
    7671.01   3.067e-17 
   7672.553   4.156e-17 
   7674.095   2.281e-17 
   7675.637   4.598e-17 
    7677.18   2.096e-17 
   7678.721   2.808e-17 
   7680.264   3.634e-17 
   7681.807   3.519e-17 
   7683.349   1.275e-17 
   7684.891    4.38e-17 
   7686.433   2.591e-17 
   7687.976   3.605e-17 
   7689.518   3.471e-17 
   7691.061   3.325e-17 
   7692.604   2.835e-17 
   7694.145   2.753e-17 
   7695.688    4.36e-17 
    7697.23   1.649e-17 
   7698.773   4.107e-17 
   7700.316   3.371e-17 
   7701.858   2.246e-17 
   7703.401   3.807e-17 
   7704.942    3.01e-17 
   7706.485   3.154e-17 
   7708.027   2.956e-17 
    7709.57   3.909e-17 
   7711.113  -5.314e-19 
   7712.655   1.281e-17 
   7714.198   1.301e-17 
    7715.74   5.948e-18 
   7717.283     1.4e-17 
   7718.826   5.538e-17 
   7720.368   2.638e-17 
   7721.911   2.999e-17 
   7723.453   3.816e-17 
   7724.996    2.26e-17 
   7726.538   3.202e-17 
   7728.081   2.458e-17 
   7729.624   2.839e-17 
   7731.166   4.102e-17 
   7732.709   4.583e-17 
   7734.251   2.093e-17 
   7735.795   2.434e-17 
   7737.338   4.571e-17 
    7738.88    2.25e-17 
   7740.423    3.37e-17 
   7741.965   3.588e-17 
   7743.508    2.88e-17 
    7745.05   2.498e-17 
   7746.593   4.329e-17 
   7748.137   4.725e-17 
   7749.679   2.264e-17 
   7751.222   4.881e-17 
   7752.764   4.903e-17 
   7754.307   3.746e-17 
   7755.851   6.048e-17 
   7757.393   1.036e-17 
   7758.936   6.918e-18 
   7760.478   2.984e-17 
   7762.022   3.427e-17 
   7763.564   1.946e-17 
   7765.107   3.721e-17 
    7766.65   1.843e-17 
   7768.193   3.235e-17 
   7769.736   2.764e-17 
   7771.278   3.481e-17 
   7772.822   2.315e-17 
   7774.365   4.049e-17 
   7775.907   4.177e-17 
   7777.451   2.492e-17 
   7778.993   5.186e-17 
   7780.536   2.515e-17 
   7782.079   1.232e-17 
   7783.622   3.324e-17 
   7785.166    2.68e-17 
   7786.708   2.638e-17 
   7788.251   2.036e-17 
   7789.794   3.255e-17 
   7791.337   3.012e-17 
   7792.881   2.851e-17 
   7794.423   3.383e-17 
   7795.967   1.936e-17 
   7797.509   3.929e-17 
   7799.053   2.561e-17 
   7800.595   3.049e-17 
   7802.138    3.72e-17 
   7803.682    3.39e-17 
   7805.225   1.967e-17 
   7806.768   3.681e-17 
   7808.311   3.283e-17 
   7809.854   2.563e-17 
   7811.398   2.052e-17 
    7812.94   3.811e-17 
   7814.484   1.534e-17 
   7816.026   2.808e-17 
    7817.57   3.969e-17 
   7819.113   2.636e-17 
   7820.656   3.746e-17 
     7822.2   1.976e-18 
   7823.742   2.312e-17 
   7825.286   4.104e-17 
   7826.829   3.757e-17 
   7828.372   2.703e-17 
   7829.916   3.518e-17 
   7831.459   3.649e-17 
   7833.002   2.639e-17 
   7834.545   2.856e-17 
   7836.089   2.406e-17 
   7837.631   3.452e-17 
   7839.175   3.547e-17 
   7840.719   3.232e-17 
   7842.262   2.712e-17 
   7843.805    2.84e-17 
   7845.348   2.938e-17 
   7846.892   2.423e-17 
   7848.436   3.712e-17 
   7849.978    9.35e-18 
   7851.522   1.886e-18 
   7853.065   1.677e-17 
   7854.609   2.196e-17 
   7856.151   1.861e-17 
   7857.695   3.523e-17 
   7859.239    4.08e-17 
   7860.782   4.592e-17 
   7862.326   2.063e-18 
   7863.869   2.834e-17 
   7865.412   3.524e-17 
   7866.956   3.681e-17 
   7868.499   6.561e-17 
   7870.043    4.14e-17 
   7871.586    1.59e-17 
    7873.13   2.505e-17 
   7874.673   2.789e-17 
   7876.217   2.383e-17 
   7877.761    3.19e-17 
   7879.304   4.115e-17 
   7880.848   2.885e-17 
    7882.39   3.819e-17 
   7883.934   3.897e-17 
   7885.478   3.605e-17 
   7887.021   3.428e-17 
   7888.565   4.889e-17 
   7890.108    3.48e-17 
   7891.652   3.137e-17 
   7893.195   4.107e-17 
   7894.739   3.132e-17 
   7896.283   2.705e-17 
   7897.826   3.217e-17 
    7899.37   2.946e-17 
   7900.914   3.073e-17 
   7902.458   3.518e-17 
   7904.002   2.725e-17 
   7905.545   3.311e-17 
   7907.089   4.729e-17 
   7908.632   3.367e-17 
   7910.176   6.738e-18 
   7911.719   2.316e-17 
   7913.263   8.358e-18 
   7914.807   1.905e-17 
   7916.351   5.159e-17 
   7917.895   1.372e-17 
   7919.438   4.039e-17 
   7920.982   3.269e-17 
   7922.526    6.81e-18 
   7924.069   2.592e-17 
   7925.614   4.437e-17 
   7927.157   3.071e-17 
   7928.701   3.686e-17 
   7930.244   4.765e-17 
   7931.788    2.86e-17 
   7933.333   1.845e-17 
   7934.876   2.743e-17 
    7936.42   4.505e-17 
   7937.963   2.153e-17 
   7939.508   4.134e-17 
   7941.052   2.858e-17 
   7942.595   1.074e-17 
   7944.139   5.146e-17 
   7945.683   3.384e-17 
   7947.227   3.084e-17 
    7948.77   2.307e-17 
   7950.315   6.991e-18 
   7951.859   3.161e-17 
   7953.402   2.857e-17 
   7954.947   3.298e-17 
    7956.49   2.253e-17 
   7958.034   1.361e-17 
   7959.579    2.66e-17 
   7961.122   1.962e-17 
   7962.666   6.929e-17 
    7964.21   1.339e-17 
   7965.754   2.411e-17 
   7967.298   4.764e-17 
   7968.842    3.49e-17 
   7970.386   1.186e-17 
    7971.93    3.29e-17 
   7973.474   3.454e-17 
   7975.018   1.591e-17 
   7976.562   3.314e-17 
   7978.107   3.166e-17 
    7979.65   2.939e-17 
   7981.194   3.348e-17 
   7982.738   4.622e-17 
   7984.282   1.808e-17 
   7985.826   2.979e-17 
    7987.37   4.003e-17 
   7988.915   1.561e-17 
   7990.458   3.041e-17 
   7992.003   3.368e-17 
   7993.547   1.967e-17 
   7995.091    6.18e-17 
   7996.636   3.308e-17 
   7998.179   1.487e-17 
   7999.724   1.721e-17 
   8001.267   2.848e-17 
   8002.812   3.731e-17 
   8004.355   2.324e-17 
     8005.9   3.687e-17 
   8007.445   2.336e-17 
   8008.988    2.71e-17 
   8010.533   3.944e-17 
   8012.076   1.978e-17 
   8013.621   3.334e-17 
   8015.166   3.398e-17 
   8016.709   4.412e-17 
   8018.254   2.007e-17 
   8019.798   4.061e-17 
   8021.342   3.353e-17 
   8022.886   1.547e-17 
   8024.431    5.78e-17 
   8025.975    1.09e-17 
   8027.519   3.722e-17 
   8029.064   3.328e-17 
   8030.608    3.54e-17 
   8032.152   2.173e-17 
   8033.697   2.842e-17 
   8035.241   2.702e-17 
   8036.785   3.665e-17 
   8038.329   4.008e-17 
   8039.874    2.82e-17 
   8041.418    2.27e-17 
   8042.962   3.539e-17 
   8044.507    2.11e-17 
   8046.051   2.706e-17 
   8047.596   3.258e-17 
    8049.14    2.59e-17 
   8050.684   2.055e-17 
   8052.229   2.247e-17 
   8053.773    3.55e-17 
   8055.318   1.783e-17 
   8056.862   2.856e-17 
   8058.407   4.131e-17 
    8059.95   1.803e-17 
   8061.495   2.649e-17 
    8063.04    4.92e-17 
   8064.584   2.579e-17 
   8066.129   3.192e-17 
   8067.673   3.107e-17 
   8069.218   2.011e-17 
   8070.763   3.344e-17 
   8072.307   3.655e-17 
   8073.851   3.008e-17 
   8075.395   2.497e-17 
    8076.94   2.838e-17 
   8078.484   2.394e-17 
   8080.029   3.226e-17 
   8081.574   4.379e-17 
   8083.118   2.219e-17 
   8084.663   2.828e-17 
   8086.207   3.882e-17 
   8087.752   3.478e-17 
   8089.297   2.192e-17 
   8090.841   4.737e-17 
   8092.386    2.83e-17 
    8093.93   1.818e-17 
   8095.475   4.675e-17 
   8097.019   4.987e-17 
   8098.564   1.016e-17 
   8100.109   4.388e-17 
   8101.653   2.835e-17 
   8103.198   4.161e-17 
   8104.742   3.802e-17 
   8106.287   3.504e-17 
   8107.831   1.023e-17 
   8109.376   2.516e-17 
   8110.921   3.173e-17 
   8112.466   2.263e-17 
   8114.011   3.358e-17 
   8115.555   3.192e-17 
     8117.1   1.879e-17 
   8118.645   3.817e-17 
   8120.189   4.225e-17 
   8121.734   1.811e-17 
   8123.278   3.343e-17 
   8124.823   3.357e-17 
   8126.368   1.487e-17 
   8127.913   1.946e-17 
   8129.458   4.334e-17 
   8131.002   2.484e-17 
   8132.547   3.296e-17 
   8134.091   2.435e-17 
   8135.637   1.957e-17 
   8137.182   2.806e-17 
   8138.726   3.193e-17 
   8140.271   1.979e-17 
   8141.815   2.789e-17 
   8143.361   3.823e-17 
   8144.905    2.02e-17 
    8146.45   3.303e-17 
   8147.995   2.594e-17 
    8149.54   1.622e-17 
   8151.085   2.076e-17 
   8152.629   3.233e-17 
   8154.174    1.26e-17 
    8155.72   1.907e-17 
   8157.264   2.593e-17 
   8158.809   2.231e-17 
   8160.354   3.068e-17 
   8161.899   3.138e-17 
   8163.443   2.244e-17 
   8164.988    2.31e-17 
   8166.534   3.236e-17 
   8168.078    1.64e-17 
   8169.623   3.306e-17 
   8171.168   3.582e-17 
   8172.713   2.048e-17 
   8174.258   9.013e-18 
   8175.803   3.937e-17 
   8177.348   3.052e-17 
   8178.893   2.919e-17 
   8180.438   4.468e-17 
   8181.982   2.119e-17 
   8183.528   3.917e-17 
   8185.073   2.835e-17 
   8186.617   2.271e-17 
   8188.163   2.051e-17 
   8189.707   4.226e-17 
   8191.253   1.896e-17 
   8192.798   1.531e-17 
   8194.343   5.175e-17 
   8195.888     2.9e-17 
   8197.432   2.377e-17 
   8198.978   3.849e-17 
   8200.522    7.22e-18 
   8202.068   1.701e-17 
   8203.613   3.358e-17 
   8205.158   4.963e-17 
   8206.703   2.522e-17 
   8208.248   3.299e-17 
   8209.793   3.308e-17 
   8211.339   2.207e-17 
   8212.883    3.82e-17 
   8214.429   2.558e-17 
   8215.973   3.143e-17 
   8217.519   2.828e-17 
   8219.063   3.413e-17 
   8220.609   1.413e-17 
   8222.154   3.322e-17 
   8223.699   2.444e-17 
   8225.244   1.842e-17 
   8226.789   3.382e-17 
   8228.335     2.5e-17 
    8229.88   1.166e-17 
   8231.425   3.107e-17 
    8232.97   3.135e-17 
   8234.515   2.753e-17 
   8236.061    2.93e-17 
   8237.605   3.122e-17 
   8239.151   2.169e-17 
   8240.696   2.125e-17 
   8242.241   3.389e-17 
   8243.787   1.035e-17 
   8245.331   3.562e-17 
   8246.877   3.561e-17 
   8248.422   1.408e-17 
   8249.967   2.298e-17 
   8251.513   2.953e-17 
   8253.057   2.845e-17 
   8254.603   2.495e-17 
   8256.148   1.558e-17 
   8257.693   3.067e-17 
   8259.239   1.752e-17 
   8260.784   3.746e-17 
   8262.329   1.422e-17 
   8263.874   2.429e-17 
    8265.42   3.009e-17 
   8266.965   2.106e-17 
    8268.51   1.055e-17 
   8270.056   3.333e-17 
   8271.601   1.845e-17 
   8273.146   1.793e-17 
   8274.691   3.433e-17 
   8276.237   4.285e-17 
   8277.783   1.507e-17 
   8279.327   2.573e-17 
   8280.873   2.165e-17 
   8282.418   -2.45e-18 
   8283.964   2.238e-17 
   8285.509   3.412e-17 
   8287.054   2.842e-17 
     8288.6   3.108e-17 
   8290.145   4.239e-17 
   8291.691   4.951e-18 
   8293.235   1.885e-17 
   8294.781   9.494e-17 
   8296.327  -1.967e-17 
   8297.872   3.818e-17 
   8299.418   2.693e-17 
   8300.963  -6.458e-18 
   8302.508   3.756e-17 
   8304.053   4.317e-18 
   8305.599   9.245e-18 
   8307.145   3.224e-17 
    8308.69   2.754e-17 
   8310.236  -3.008e-18 
   8311.781   3.053e-17 
   8313.326   2.363e-17 
   8314.872   1.774e-17 
   8316.417   2.788e-17 
   8317.963   2.997e-17 
   8319.508   3.108e-17 
   8321.054   1.779e-17 
   8322.599   2.935e-17 
   8324.145   2.972e-17 
   8325.691   3.551e-17 
   8327.235    2.41e-17 
   8328.781   1.743e-17 
   8330.326   1.791e-17 
   8331.872   3.577e-17 
   8333.418   2.607e-17 
   8334.963    3.35e-17 
   8336.509   3.354e-17 
   8338.054   2.708e-17 
     8339.6   3.481e-18 
   8341.145    4.83e-17 
   8342.691   4.278e-17 
   8344.237   5.151e-17 
   8345.782   2.023e-17 
   8347.328   6.791e-18 
   8348.873   3.511e-17 
   8350.419   2.742e-17 
   8351.965   3.885e-17 
    8353.51    3.36e-17 
   8355.056   4.997e-17 
   8356.601   1.682e-17 
   8358.147    2.16e-17 
   8359.692   4.089e-17 
   8361.238   3.482e-17 
   8362.784    4.22e-17 
   8364.329   1.856e-17 
   8365.875   1.152e-17 
    8367.42   2.322e-17 
   8368.966   3.516e-17 
   8370.512    3.96e-17 
   8372.057   2.282e-17 
   8373.603   1.434e-17 
   8375.149   2.296e-17 
   8376.695     2.4e-17 
    8378.24   3.437e-17 
   8379.786   5.023e-17 
   8381.332   6.841e-18 
   8382.877   2.735e-17 
   8384.423    2.97e-17 
   8385.968   6.078e-18 
   8387.514   2.342e-17 
   8389.059   2.384e-17 
   8390.606    2.13e-17 
   8392.152   2.518e-17 
   8393.697   1.343e-17 
   8395.243  -9.179e-18 
   8396.788   2.253e-17 
   8398.334   4.646e-17 
    8399.88   8.088e-18 
   8401.426    4.24e-17 
   8402.972   2.075e-17 
   8404.517   2.627e-17 
   8406.063       2e-17 
   8407.608   4.512e-17 
   8409.154   1.053e-17 
   8410.701   2.077e-17 
   8412.246   2.976e-17 
   8413.792   2.916e-17 
   8415.337   1.777e-17 
   8416.883   3.671e-17 
    8418.43   2.235e-17 
   8419.975   1.514e-17 
   8421.521   3.411e-17 
   8423.066   2.507e-17 
   8424.612    1.15e-17 
   8426.158   5.782e-18 
   8427.704   6.168e-18 
    8429.25   1.505e-17 
   8430.795   2.853e-17 
   8432.342   6.851e-17 
   8433.887   3.284e-17 
   8435.433   3.507e-17 
   8436.979   1.282e-17 
   8438.525   2.294e-17 
   8440.071   2.578e-17 
   8441.616   1.571e-17 
   8443.162   9.907e-18 
   8444.708   2.753e-17 
   8446.254    2.17e-17 
     8447.8    2.84e-17 
   8449.346   1.882e-17 
   8450.892   1.549e-17 
   8452.437   3.882e-17 
   8453.984    2.24e-17 
    8455.53   1.525e-17 
   8457.075   1.582e-17 
   8458.621   1.249e-17 
   8460.167   3.371e-17 
   8461.713   7.234e-18 
   8463.258   4.351e-17 
   8464.805   5.111e-17 
   8466.351   1.189e-17 
   8467.896   1.557e-17 
   8469.443   2.849e-17 
   8470.988   2.117e-17 
   8472.535   2.075e-17 
    8474.08   3.321e-17 
   8475.626   1.396e-17 
   8477.173   2.189e-17 
   8478.718   2.346e-17 
   8480.264   1.994e-17 
    8481.81   1.462e-17 
   8483.356   2.826e-17 
   8484.903   9.255e-18 
   8486.448   2.491e-17 
   8487.994   2.478e-17 
    8489.54   1.361e-17 
   8491.086   2.579e-17 
   8492.632   3.566e-17 
   8494.178   6.527e-18 
   8495.724   2.354e-18 
    8497.27   2.319e-17 
   8498.816   3.125e-17 
   8500.362   4.828e-18 
   8501.908   2.941e-17 
   8503.455   1.476e-17 
     8505.0   1.248e-17 
   8506.546   -1.72e-18 
   8508.092   1.001e-17 
   8509.638   2.391e-17 
   8511.184   3.687e-17 
    8512.73   2.383e-17 
   8514.277   1.777e-17 
   8515.822   1.553e-17 
   8517.369   2.128e-17 
   8518.914   2.111e-17 
   8520.461   3.266e-17 
   8522.007   2.853e-17 
   8523.553   1.307e-17 
   8525.099   3.345e-17 
   8526.645   2.234e-17 
   8528.191   1.542e-17 
   8529.737   1.923e-17 
   8531.283   2.932e-17 
    8532.83   2.109e-17 
   8534.375   1.612e-17 
   8535.922   2.056e-17 
   8537.467    2.22e-17 
   8539.014   3.807e-17 
    8540.56   1.951e-17 
   8542.106   2.579e-17 
   8543.652   1.529e-17 
   8545.198   3.465e-17 
   8546.744   3.287e-17 
    8548.29   3.983e-17 
   8549.836   1.205e-17 
   8551.383    7.85e-18 
   8552.929   1.933e-17 
   8554.475   2.568e-17 
   8556.021   2.219e-17 
   8557.567   2.352e-17 
   8559.114   2.656e-17 
   8560.659   1.971e-17 
   8562.206   1.452e-17 
   8563.752   3.182e-17 
   8565.298   1.427e-17 
   8566.844   1.687e-17 
    8568.39   2.598e-17 
   8569.937   9.059e-18 
   8571.483   1.111e-17 
   8573.029   4.094e-17 
   8574.575   1.144e-17 
   8576.121    1.14e-17 
   8577.667   2.433e-17 
   8579.214   3.001e-17 
    8580.76   1.714e-17 
   8582.306   2.845e-17 
   8583.852   6.934e-18 
   8585.398   2.155e-17 
   8586.945   1.906e-17 
   8588.491    2.79e-17 
   8590.037   1.276e-17 
   8591.584   3.453e-17 
   8593.129   1.975e-17 
   8594.676   3.029e-17 
   8596.222   2.891e-17 
   8597.768   3.307e-18 
   8599.315   1.983e-17 
   8600.861   2.268e-17 
   8602.407    1.31e-17 
   8603.953   8.196e-18 
     8605.5   1.415e-17 
   8607.046   1.283e-17 
   8608.592    2.14e-17 
   8610.139   3.307e-17 
   8611.684   2.516e-17 
   8613.231   6.484e-18 
   8614.777   1.147e-17 
   8616.323  -6.415e-18 
    8617.87   2.312e-17 
   8619.416   2.533e-17 
   8620.962    4.15e-17 
   8622.508   6.672e-19 
   8624.055   4.471e-17 
   8625.602   1.446e-17 
   8627.147   2.004e-17 
   8628.694    3.04e-17 
    8630.24   2.595e-17 
   8631.786   1.817e-17 
   8633.332     2.8e-17 
   8634.879   3.567e-17 
   8636.426   1.515e-17 
   8637.971   2.828e-17 
   8639.518  -1.907e-18 
   8641.064   8.304e-18 
   8642.611   2.675e-17 
   8644.157   2.945e-17 
   8645.703   1.231e-17 
    8647.25   3.633e-17 
   8648.796   2.357e-17 
   8650.342   2.966e-17 
   8651.888  -3.676e-18 
   8653.435   4.856e-17 
   8654.982   1.106e-18 
   8656.527   3.469e-17 
   8658.074   2.932e-17 
    8659.62   3.365e-17 
   8661.167   2.107e-17 
   8662.712   2.547e-17 
   8664.259   2.123e-17 
   8665.806   1.449e-17 
   8667.352  -4.138e-18 
   8668.899   2.104e-18 
   8670.444   1.593e-17 
   8671.991   5.018e-17 
   8673.538   2.653e-18 
   8675.084   2.824e-17 
   8676.631   2.021e-17 
   8678.176   1.149e-17 
   8679.723   1.439e-17 
   8681.269   3.411e-17 
   8682.816   1.781e-17 
   8684.363   1.407e-17 
   8685.908   3.128e-17 
   8687.455   9.993e-18 
   8689.001   9.971e-18 
   8690.548   4.241e-17 
   8692.095   1.244e-17 
   8693.641   6.585e-18 
   8695.187   1.184e-17 
   8696.733  -7.962e-21 
    8698.28   1.496e-17 
   8699.826   2.631e-17 
   8701.373   2.311e-17 
    8702.92   2.192e-17 
   8704.466   1.752e-17 
   8706.012    1.08e-17 
   8707.558   1.688e-17 
   8709.105    4.05e-17 
   8710.652   1.644e-17 
   8712.198    1.15e-17 
   8713.745   3.198e-17 
   8715.291   2.515e-17 
   8716.837   2.865e-17 
   8718.383   2.182e-17 
    8719.93   1.402e-17 
   8721.477   2.575e-17 
   8723.023   4.136e-17 
    8724.57   2.733e-17 
   8726.116   5.403e-18 
   8727.663   3.175e-17 
   8729.208   2.365e-17 
   8730.755    1.25e-17 
   8732.302   3.742e-17 
   8733.848   2.695e-17 
   8735.395   1.129e-17 
   8736.941   1.492e-17 
   8738.488   2.951e-17 
   8740.035   1.846e-17 
   8741.581   2.022e-17 
   8743.128   1.215e-17 
   8744.673   2.644e-17 
    8746.22   1.435e-17 
   8747.766   2.841e-17 
   8749.313   1.941e-17 
    8750.86   2.174e-17 
   8752.406   1.871e-17 
   8753.953  -1.446e-18 
   8755.499   1.588e-18 
   8757.046   -1.39e-17 
   8758.593   -7.08e-18 
   8760.139   1.138e-17 
   8761.686   4.308e-17 
   8763.231  -6.242e-18 
   8764.778  -2.882e-17 
   8766.324   4.915e-17 
   8767.871   2.829e-17 
   8769.418   2.855e-17 
   8770.964   3.297e-17 
   8772.511   3.323e-17 
   8774.057   4.413e-17 
   8775.604   3.518e-17 
   8777.151   5.201e-17 
   8778.697   1.068e-17 
   8780.244    1.45e-17 
    8781.79   1.072e-17 
   8783.337   6.235e-18 
   8784.883   2.246e-17 
    8786.43   9.205e-18 
   8787.977   2.908e-17 
   8789.523   5.796e-18 
    8791.07   2.634e-17 
   8792.616   1.336e-17 
   8794.163   1.791e-17 
    8795.71   1.412e-17 
   8797.255     1.9e-17 
   8798.802    1.56e-17 
   8800.348   1.304e-17 
   8801.895   5.123e-18 
   8803.441   2.249e-17 
   8804.988   2.791e-17 
   8806.535   1.196e-17 
   8808.081   2.238e-17 
   8809.628   1.422e-17 
   8811.174   1.332e-17 
   8812.721   1.775e-17 
   8814.267   3.341e-17 
   8815.814    2.13e-17 
   8817.361   2.256e-17 
   8818.907   3.445e-17 
   8820.454    1.48e-17 
     8822.0  -3.293e-17 
   8823.547   6.697e-17 
   8825.094  -1.642e-17 
    8826.64    4.79e-18 
   8828.187   2.954e-17 
   8829.733   1.274e-17 
    8831.28   6.963e-18 
   8832.826    1.07e-17 
   8834.373   2.651e-17 
    8835.92   1.171e-17 
   8837.466   6.623e-17 
   8839.013   6.071e-18 
   8840.559   1.755e-17 
   8842.106   1.997e-17 
   8843.653   1.198e-17 
   8845.199   1.459e-17 
   8846.747   1.343e-17 
   8848.293   1.458e-17 
    8849.84   2.057e-17 
   8851.386   4.787e-17 
   8852.933    1.44e-17 
    8854.48   1.704e-17 
   8856.026   3.638e-17 
   8857.573   7.351e-18 
   8859.119   2.691e-17 
   8860.666   2.842e-17 
   8862.213   3.737e-17 
   8863.759  -2.315e-17 
   8865.306   2.749e-17 
   8866.852    2.82e-17 
   8868.399   -8.57e-18 
   8869.945   2.529e-17 
   8871.492   2.377e-17 
   8873.039   1.119e-17 
   8874.585   2.003e-17 
   8876.132    3.53e-17 
   8877.678  -2.925e-19 
   8879.225    5.75e-18 
   8880.771   1.999e-17 
   8882.318   5.928e-17 
   8883.865   1.628e-17 
   8885.412   2.501e-17 
   8886.959   2.151e-17 
   8888.505   3.507e-19 
   8890.052   3.479e-17 
   8891.599   1.434e-18 
   8893.145   2.708e-17 
   8894.692   2.994e-17 
   8896.238   2.767e-17 
   8897.785   2.799e-17 
   8899.331   2.358e-17 
   8900.878   2.036e-18 
   8902.425  -1.276e-17 
   8903.971   3.649e-17 
   8905.518  -1.816e-17 
   8907.064   7.437e-18 
   8908.611   2.306e-17 
   8910.159   1.419e-17 
   8911.705   2.471e-17 
   8913.252   3.663e-18 
   8914.798   2.508e-17 
   8916.345   4.511e-17 
   8917.891   4.462e-17 
   8919.438  -1.604e-17 
   8920.985  -2.496e-17 
   8922.531   2.883e-17 
   8924.078   9.532e-18 
   8925.624   2.163e-17 
   8927.171   3.709e-18 
   8928.718    9.87e-18 
   8930.265    1.85e-17 
   8931.812   1.896e-17 
   8933.358   2.844e-17 
   8934.905   1.671e-17 
   8936.451   2.511e-17 
   8937.998   1.311e-17 
   8939.545   4.401e-17 
   8941.091   1.353e-17 
   8942.638   3.236e-17 
   8944.184   5.329e-18 
   8945.731   3.608e-17 
   8947.278    3.28e-17 
   8948.825   8.372e-18 
   8950.372   7.394e-18 
   8951.918   5.845e-18 
   8953.465   1.717e-17 
   8955.011   7.949e-17 
   8956.558  -1.028e-17 
   8958.105   2.539e-17 
   8959.651    1.83e-17 
   8961.198   1.811e-17 
   8962.744   1.913e-17 
   8964.292   1.961e-17 
   8965.838    2.98e-17 
   8967.385   1.007e-17 
   8968.932   3.434e-17 
   8970.478   3.366e-17 
   8972.025   2.184e-17 
   8973.571   2.179e-17 
   8975.118   3.353e-17 
   8976.665   1.364e-17 
   8978.211   2.926e-17 
   8979.759   3.081e-17 
   8981.305   6.863e-18 
   8982.852   2.107e-17 
   8984.398   2.844e-17 
   8985.945  -6.268e-18 
   8987.492   3.132e-17 
   8989.038   2.948e-17 
   8990.585   1.788e-17 
   8992.131   2.142e-17 
   8993.678   2.409e-17 
   8995.226  -2.022e-18 
   8996.772  -1.605e-17 
   8998.319   4.013e-17 
   8999.865   1.861e-17 
   9001.412    -1.6e-17 
   9002.958   2.977e-17 
   9004.505   1.488e-17 
   9006.052   1.518e-17 
   9007.598    1.87e-17 
   9009.146   2.001e-18 
   9010.692    6.19e-18 
   9012.239   4.448e-17 
   9013.785    2.49e-17 
   9015.332   2.243e-17 
   9016.879   3.524e-17 
   9018.425   2.868e-17 
   9019.972   2.362e-18 
   9021.518   2.315e-17 
   9023.065   1.312e-17 
   9024.613   9.171e-18 
   9026.159   2.593e-17 
   9027.706   2.307e-17 
   9029.252   2.119e-17 
   9030.799   2.843e-17 
   9032.345   1.596e-17 
   9033.892   1.437e-17 
   9035.439   3.245e-17 
   9036.985   1.635e-17 
   9038.533   -1.91e-18 
   9040.079   1.028e-17 
   9041.626    2.81e-17 
   9043.173     2.8e-19 
   9044.719   1.937e-17 
   9046.266   1.489e-17 
   9047.812  -2.023e-17 
   9049.359   1.299e-17 
   9050.905   2.452e-17 
   9052.453   4.461e-18 
     9054.0   1.835e-17 
   9055.546   2.364e-17 
   9057.093   2.284e-17 
   9058.639   2.182e-17 
   9060.186   1.917e-17 
   9061.733   1.868e-17 
   9063.279   2.749e-17 
   9064.826   3.178e-17 
   9066.372   2.576e-18 
    9067.92   2.702e-17 
   9069.466    3.71e-17 
   9071.013   1.508e-17 
    9072.56   3.456e-17 
   9074.106   1.606e-17 
   9075.653   9.956e-18 
   9077.199   1.798e-17 
   9078.746   2.109e-17 
   9080.292   1.302e-17 
    9081.84   1.768e-17 
   9083.387    3.69e-17 
   9084.933   1.793e-17 
    9086.48   2.751e-17 
   9088.026   2.459e-17 
   9089.573   2.632e-17 
    9091.12   6.601e-18 
   9092.666   1.049e-17 
   9094.213    2.26e-17 
   9095.759   1.391e-17 
   9097.307   2.982e-17 
   9098.853   1.516e-17 
     9100.4   6.397e-18 
   9101.947   3.714e-17 
   9103.493    3.59e-18 
    9105.04   1.556e-17 
   9106.586   4.289e-17 
   9108.133   1.642e-17 
    9109.68   1.404e-17 
   9111.226   3.582e-17 
   9112.773   1.775e-17 
    9114.32   5.593e-18 
   9115.867   3.071e-17 
   9117.413   7.063e-18 
    9118.96   6.791e-18 
   9120.507   3.376e-17 
   9122.053   2.824e-17 
     9123.6   2.778e-18 
   9125.146   2.369e-17 
   9126.693   2.186e-17 
    9128.24   1.283e-17 
   9129.786   1.503e-17 
   9131.334   1.321e-17 
    9132.88   8.258e-18 
   9134.427   2.578e-17 
   9135.973   1.124e-17 
    9137.52   1.406e-17 
   9139.067   3.217e-17 
   9140.613   1.623e-17 
    9142.16   1.153e-17 
   9143.706    1.73e-17 
   9145.253   3.188e-17 
   9146.799   2.397e-17 
   9148.346   3.363e-17 
   9149.894   3.379e-17 
    9151.44   1.281e-17 
   9152.987   4.174e-17 
   9154.533    3.37e-17 
    9156.08   6.387e-18 
   9157.627   3.242e-17 
   9159.173   2.691e-17 
    9160.72   7.866e-18 
   9162.266   2.023e-17 
   9163.813   3.223e-17 
   9165.359   1.519e-17 
   9166.906   3.184e-17 
   9168.453   2.996e-17 
   9169.999    8.77e-18 
   9171.546   4.575e-18 
   9173.093   2.626e-17 
    9174.64   2.696e-17 
   9176.187    2.92e-17 
   9177.733   5.491e-17 
    9179.28   1.287e-17 
   9180.826   2.657e-17 
   9182.373   3.465e-17 
   9183.919   1.792e-17 
   9185.466   1.647e-17 
   9187.013   3.384e-17 
   9188.559   1.145e-17 
   9190.106   1.676e-17 
   9191.652   3.384e-17 
   9193.199   7.937e-18 
   9194.745   1.437e-17 
   9196.292   2.223e-17 
   9197.839   2.215e-17 
   9199.385   2.284e-17 
   9200.932   1.482e-17 
   9202.479   1.157e-17 
   9204.026   2.939e-17 
   9205.573   3.545e-17 
   9207.119   1.059e-17 
   9208.666   1.304e-17 
   9210.212   3.233e-17 
   9211.759   1.914e-17 
   9213.305   1.306e-17 
   9214.852   4.183e-17 
   9216.399   1.057e-17 
   9217.945   1.679e-17 
   9219.492   3.097e-17 
   9221.038   3.389e-17 
   9222.585   1.184e-17 
   9224.132   1.674e-17 
   9225.678    2.47e-17 
   9227.225   1.729e-17 
   9228.771   2.078e-17 
   9230.318   1.702e-17 
   9231.864   4.516e-18 
   9233.411    2.17e-17 
   9234.958   2.622e-17 
   9236.504    2.47e-17 
   9238.051   2.057e-17 
   9239.597   1.242e-17 
   9241.144   2.097e-17 
   9242.691   1.752e-17 
   9244.237   3.267e-17 
   9245.784   1.132e-17 
    9247.33   2.187e-17 
   9248.877   2.345e-17 
   9250.423   1.582e-17 
    9251.97   1.968e-17 
   9253.517   2.048e-17 
   9255.063   1.341e-17 
    9256.61   1.117e-17 
   9258.156   2.512e-17 
   9259.703   1.869e-17 
   9261.249   1.567e-17 
   9262.796   1.357e-17 
   9264.343   1.914e-17 
   9265.889   9.509e-18 
   9267.436   2.545e-17 
   9268.982   1.953e-17 
   9270.529   1.253e-17 
   9272.076   2.992e-17 
   9273.622   6.623e-18 
   9275.169   1.432e-17 
   9276.715   2.126e-17 
   9278.262   8.559e-18 
   9279.808   1.537e-17 
   9281.355    3.31e-17 
   9282.902   1.921e-17 
   9284.448   2.728e-17 
   9285.995   2.807e-17 
   9287.541   1.115e-17 
   9289.087   1.601e-17 
   9290.634   2.155e-17 
    9292.18   4.658e-17 
   9293.727   5.173e-18 
   9295.273   2.349e-17 
    9296.82   1.774e-17 
   9298.366   1.016e-17 
   9299.913   4.623e-18 
    9301.46   3.565e-17 
   9303.006   1.897e-18 
   9304.553   1.198e-17 
   9306.099   1.172e-17 
   9307.646  -5.665e-17 
   9309.193   5.211e-17 
   9310.739  -1.855e-17 
   9312.286   4.784e-17 
   9313.831   4.719e-17 
   9315.378   5.407e-17 
   9316.924   2.722e-17 
   9318.471  -2.585e-17 
   9320.018   4.038e-17 
   9321.564   2.877e-17 
   9323.111   -1.89e-18 
   9324.657   8.539e-17 
   9326.204    3.58e-17 
    9327.75   2.385e-17 
   9329.297   4.697e-17 
   9330.843  -2.777e-18 
   9332.389  -3.983e-20 
   9333.936  -1.225e-17 
   9335.482    7.06e-18 
   9337.029  -5.784e-18 
   9338.576   5.304e-17 
   9340.122   1.802e-17 
   9341.669   -8.15e-18 
   9343.215   4.795e-17 
   9344.761   2.866e-18 
   9346.307   3.835e-17 
   9347.854   3.801e-17 
   9349.401   2.339e-17 
   9350.947   2.571e-17 
   9352.494   1.065e-17 
    9354.04   3.197e-17 
   9355.587   2.885e-17 
   9357.133   5.105e-17 
   9358.679   9.018e-18 
   9360.226   9.118e-18 
   9361.772   3.777e-17 
   9363.319   3.724e-17 
   9364.865   2.761e-17 
   9366.412   2.169e-17 
   9367.958   9.487e-19 
   9369.504    7.28e-19 
   9371.051  -5.587e-17 
   9372.597   5.416e-17 
   9374.144   4.643e-17 
    9375.69  -5.669e-18 
   9377.236   4.745e-17 
   9378.783   2.516e-17 
   9380.329   2.177e-18 
   9381.876   2.535e-17 
   9383.422   3.673e-17 
   9384.968   3.148e-17 
   9386.515   2.325e-17 
   9388.061   7.865e-19 
   9389.608   1.567e-17 
   9391.154   1.657e-17 
   9392.701   1.503e-17 
   9394.246    2.57e-17 
   9395.793   1.343e-17 
    9397.34   8.309e-18 
   9398.886   6.287e-17 
   9400.432   2.728e-17 
   9401.978  -6.314e-18 
   9403.525   2.684e-17 
   9405.072   2.929e-17 
   9406.618   1.168e-17 
   9408.164   2.616e-17 
    9409.71   3.178e-17 
   9411.257   1.235e-17 
   9412.803   8.316e-18 
   9414.349   3.317e-17 
   9415.896   1.624e-17 
   9417.442   2.163e-17 
   9418.989   2.228e-17 
   9420.534  -2.635e-17 
   9422.081   -1.61e-18 
   9423.628    2.73e-17 
   9425.174   8.652e-18 
    9426.72   8.367e-18 
   9428.266    2.84e-17 
   9429.813   1.722e-17 
   9431.359   8.438e-18 
   9432.905   1.623e-17 
   9434.452   2.221e-17 
   9435.998   6.496e-17 
   9437.545   1.408e-17 
    9439.09  -3.144e-17 
   9440.637  -4.903e-17 
   9442.183   3.908e-17 
   9443.729   1.321e-17 
   9445.276   3.027e-17 
   9446.822   1.063e-17 
   9448.369   3.048e-17 
   9449.914  -5.055e-18 
   9451.461   1.132e-17 
   9453.008  -3.462e-18 
   9454.553  -1.791e-17 
     9456.1   6.547e-17 
   9457.646   3.299e-17 
   9459.192   3.196e-17 
   9460.738   3.288e-17 
   9462.285   1.349e-17 
   9463.831   1.374e-17 
   9465.377   4.013e-17 
   9466.924   1.523e-17 
   9468.469    1.18e-17 
   9470.016   7.828e-18 
   9471.563    6.09e-17 
   9473.108   2.279e-17 
   9474.655  -1.358e-17 
   9476.201  -1.668e-17 
   9477.747   1.347e-16 
   9479.293   2.782e-17 
    9480.84   1.412e-17 
   9482.386  -8.682e-18 
   9483.932       3e-17 
   9485.478   1.737e-17 
   9487.024       2e-17 
   9488.571   3.941e-17 
   9490.117   2.306e-17 
   9491.663    1.43e-17 
    9493.21   4.065e-17 
   9494.755    2.43e-17 
   9496.302    1.35e-17 
   9497.847   6.574e-17 
   9499.394   3.229e-17 
    9500.94  -1.091e-17 
   9502.486   -1.96e-17 
   9504.033   4.459e-17 
   9505.578   -2.38e-18 
   9507.125   2.317e-17 
    9508.67   2.241e-17 
   9510.217   5.064e-19 
   9511.764   1.741e-17 
   9513.309   2.467e-17 
   9514.856   2.146e-17 
   9516.401   5.101e-17 
   9517.948   2.949e-17 
   9519.494  -2.574e-17 
    9521.04   4.372e-17 
   9522.586   3.001e-17 
   9524.132  -1.109e-17 
   9525.678  -1.326e-19 
   9527.224   5.086e-17 
   9528.771   1.208e-17 
   9530.317    9.95e-18 
   9531.863   3.582e-17 
   9533.409   1.823e-17 
   9534.955   1.308e-17 
   9536.501   2.471e-17 
   9538.048    4.84e-18 
   9539.593   1.299e-17 
    9541.14   3.578e-17 
   9542.685   1.058e-17 
   9544.232     1.8e-17 
   9545.777   2.569e-17 
   9547.324  -3.205e-17 
    9548.87   1.257e-17 
   9550.416   1.043e-16 
   9551.962    5.38e-17 
   9553.507   1.975e-17 
   9555.054   3.356e-17 
   9556.599   7.211e-18 
   9558.146  -1.319e-17 
   9559.692   2.015e-17 
   9561.238   1.802e-17 
   9562.784   2.048e-17 
    9564.33   1.464e-17 
   9565.876  -2.023e-18 
   9567.422  -3.998e-17 
   9568.968  -2.091e-17 
   9570.514  -4.186e-19 
    9572.06   1.657e-17 
   9573.606   1.191e-17 
   9575.152    2.35e-17 
   9576.698   1.199e-17 
   9578.244   3.105e-17 
    9579.79   3.512e-17 
   9581.336  -9.952e-18 
   9582.882   9.031e-18 
   9584.428   3.142e-17 
   9585.974    9.79e-18 
    9587.52   2.347e-17 
   9589.066   3.469e-18 
   9590.611  -4.836e-18 
   9592.158   1.414e-17 
   9593.703   2.885e-17 
    9595.25   3.846e-18 
   9596.796   1.053e-17 
   9598.341   2.504e-17 
   9599.888   4.297e-18 
   9601.433   3.593e-17 
   9602.979    3.31e-17 
   9604.526   3.617e-17 
   9606.071   2.344e-17 
   9607.617   1.923e-17 
   9609.163   3.337e-18 
   9610.709   7.883e-18 
   9612.254   3.169e-17 
   9613.801   4.514e-18 
   9615.347   3.092e-17 
   9616.892   4.904e-17 
   9618.438   6.096e-18 
   9619.984   8.982e-18 
    9621.53   6.177e-17 
   9623.075  -4.664e-18 
   9624.622    3.52e-17 
   9626.168   2.319e-17 
   9627.713   3.643e-18 
   9629.259  -5.613e-18 
   9630.805   2.312e-17 
   9632.351   1.144e-17 
   9633.897   1.283e-17 
   9635.442   4.024e-17 
   9636.989   2.421e-17 
   9638.534   1.415e-17 
    9640.08   2.279e-17 
   9641.625   9.804e-18 
   9643.172   1.493e-17 
   9644.718   2.445e-17 
   9646.263   7.155e-18 
   9647.809   6.265e-18 
   9649.354   1.902e-17 
   9650.901   4.172e-17 
   9652.447    2.95e-17 
   9653.992   1.551e-17 
   9655.538   2.433e-17 
   9657.083    1.52e-17 
    9658.63   2.789e-17 
   9660.175    2.33e-17 
   9661.721  -4.167e-18 
   9663.267   2.847e-17 
   9664.812   3.871e-17 
   9666.358   1.057e-18 
   9667.904    1.92e-17 
    9669.45  -1.171e-17 
   9670.996   2.074e-17 
   9672.541   4.648e-18 
   9674.087   2.886e-17 
   9675.632  -3.691e-17 
   9677.178   3.073e-17 
   9678.724   1.846e-18 
    9680.27   2.369e-17 
   9681.816   1.801e-17 
   9683.361   5.204e-17 
   9684.907  -6.076e-18 
   9686.452   8.169e-18 
   9687.998   2.441e-17 
   9689.543   1.891e-17 
   9691.089   3.953e-17 
   9692.635   2.173e-17 
   9694.181  -2.793e-18 
   9695.727   4.706e-17 
   9697.272  -1.028e-17 
   9698.818  -4.535e-17 
   9700.364  -5.771e-17 
   9701.909  -1.904e-18 
   9703.455  -1.084e-17 
     9705.0     1.6e-17 
   9706.546   2.422e-17 
   9708.091   2.285e-17 
   9709.637   3.465e-17 
   9711.183  -1.211e-17 
   9712.728   2.648e-17 
   9714.274   3.342e-18 
   9715.819    4.72e-18 
   9717.365   3.982e-17 
   9718.911  -2.228e-17 
   9720.456   1.691e-17 
   9722.002  -2.066e-17 
   9723.547   1.304e-18 
   9725.093   6.789e-18 
   9726.638   8.527e-18 
   9728.184   2.099e-17 
    9729.73   9.566e-18 
   9731.275   2.222e-17 
   9732.821   1.756e-18 
   9734.366   4.591e-17 
   9735.912  -9.839e-18 
   9737.457   1.338e-17 
   9739.002   2.761e-17 
   9740.548   2.127e-17 
   9742.093       4e-18 
   9743.639    9.46e-18 
   9745.184   3.067e-18 
    9746.73  -9.654e-18 
   9748.276   1.212e-17 
   9749.821    2.17e-17 
   9751.367   9.657e-18 
   9752.912   1.514e-17 
   9754.457   4.105e-17 
   9756.002   1.178e-17 
   9757.548  -1.557e-17 
   9759.094   3.165e-17 
   9760.639   1.628e-17 
   9762.185    2.07e-17 
    9763.73   4.129e-17 
   9765.275   2.085e-17 
   9766.821   1.743e-17 
   9768.366   2.262e-17 
   9769.912  -1.224e-18 
   9771.457    1.15e-17 
   9773.003   3.968e-17 
   9774.547   8.239e-18 
   9776.093   2.022e-18 
   9777.639   2.017e-17 
   9779.184  -1.769e-17 
    9780.73   4.483e-18 
   9782.274   2.667e-18 
    9783.82   4.287e-17 
   9785.366  -3.477e-17 
   9786.911   4.887e-17 
   9788.456   4.732e-17 
   9790.001   9.653e-18 
   9791.547  -5.591e-18 
   9793.092   -4.74e-18 
   9794.637  -3.164e-17 
   9796.183  -2.173e-18 
   9797.728  -2.105e-17 
   9799.273   2.604e-17 
   9800.818   2.287e-17 
   9802.364   5.621e-18 
   9803.909   1.424e-17 
   9805.454   1.857e-18 
     9807.0   1.583e-17 
   9808.545   1.559e-18 
    9810.09   1.901e-17 
   9811.635   2.679e-17 
   9813.181   2.361e-18 
   9814.726   1.568e-17 
   9816.271   1.744e-17 
   9817.817   1.311e-17 
   9819.361   3.796e-17 
   9820.907   4.217e-17 
   9822.452   8.507e-18 
   9823.997  -2.595e-18 
   9825.543   3.016e-17 
   9827.087   1.001e-17 
   9828.633   1.901e-17 
   9830.178  -1.236e-18 
   9831.723   1.298e-17 
   9833.269       3e-17 
   9834.813   3.119e-17 
   9836.359  -1.404e-17 
   9837.904    2.75e-17 
   9839.449   1.177e-17 
   9840.994  -6.619e-18 
   9842.539   1.847e-17 
   9844.085    4.86e-18 
   9845.629  -2.707e-17 
   9847.175   2.396e-17 
   9848.719  -9.232e-18 
   9850.265   3.151e-17 
    9851.81   8.871e-18 
   9853.355   2.686e-17 
     9854.9   -1.29e-17 
   9856.445   2.443e-17 
    9857.99   1.714e-17 
   9859.535   9.797e-18 
    9861.08    2.01e-17 
   9862.626   3.397e-17 
    9864.17    5.49e-18 
   9865.716   1.521e-17 
    9867.26   3.123e-17 
   9868.806   2.503e-17 
    9870.35  -8.789e-18 
   9871.896    1.79e-17 
   9873.441  -1.528e-17 
   9874.985   2.149e-18 
   9876.531   3.145e-17 
   9878.075   1.173e-17 
   9879.621   1.047e-17 
   9881.166   1.865e-17 
   9882.711   2.704e-17 
   9884.256  -2.288e-18 
     9885.8    7.13e-18 
   9887.346   2.217e-17 
    9888.89  -1.314e-17 
   9890.435   5.927e-17 
   9891.981  -1.739e-17 
   9893.525  -2.171e-17 
    9895.07   4.967e-17 
   9896.615   3.214e-17 
    9898.16   1.863e-17 
   9899.705   2.498e-17 
    9901.25   3.484e-17 
   9902.795   2.233e-17 
   9904.339   4.841e-18 
   9905.885   1.575e-17 
   9907.429   1.403e-17 
   9908.974   1.034e-17 
    9910.52   7.861e-17 
   9912.064   1.227e-17 
   9913.609  -8.055e-18 
   9915.153   6.318e-17 
   9916.699  -3.958e-17 
   9918.244   6.709e-18 
   9919.788   2.113e-17 
   9921.333  -1.001e-17 
   9922.878   2.481e-17 
   9924.423   2.632e-17 
   9925.967   1.776e-17 
   9927.512  -3.309e-18 
   9929.057   2.658e-17 
   9930.602   5.275e-18 
   9932.147   1.574e-17 
   9933.691   1.717e-17 
   9935.236  -2.865e-17 
    9936.78  -3.422e-18 
   9938.326   6.523e-17 
   9939.871   -4.44e-17 
   9941.415   7.228e-17 
    9942.96   6.514e-17 
   9944.504  -3.994e-17 
   9946.049  -4.979e-17 
   9947.594   3.084e-17 
   9949.139   8.955e-18 
   9950.684  -3.795e-17 
   9952.228   4.562e-17 
   9953.773  -5.502e-18 
   9955.317  -1.025e-17 
   9956.862  -2.409e-19 
   9958.407   7.187e-17 
   9959.951    5.12e-17 
   9961.496   1.104e-18 
    9963.04   2.855e-17 
   9964.585   4.656e-17 
    9966.13  -6.656e-18 
   9967.674   1.761e-17 
   9969.219   3.592e-18 
   9970.763   3.301e-17 
   9972.308    5.11e-17 
   9973.852   6.082e-18 
   9975.397   4.249e-18 
   9976.942  -6.917e-18 
   9978.486   3.449e-17 
   9980.031   2.387e-17 
   9981.575     3.2e-17 
    9983.12  -1.666e-17 
   9984.665   1.611e-17 
   9986.209   2.961e-17 
   9987.754  -1.488e-17 
   9989.298   2.733e-17 
   9990.843  -5.946e-18 
   9992.387  -1.516e-17 
   9993.932   3.005e-17 
   9995.477   5.169e-17 
   9997.021   2.829e-17 
   9998.566    4.37e-17 
   10000.11   2.195e-17 
  10001.654   2.629e-17 
  10003.198   3.592e-17 
  10004.743   9.192e-18 
  10006.288   4.922e-18 
  10007.832  -2.134e-17 
  10009.377  -1.035e-17 
  10010.921   9.506e-17 
  10012.465   5.182e-18 
   10014.01   -7.92e-18 
  10015.554  -8.426e-18 
  10017.099   1.573e-17 
  10018.643   1.805e-17 
  10020.187   2.424e-18 
  10021.731  -1.179e-17 
  10023.276   2.555e-17 
  10024.821  -3.956e-17 
  10026.365   1.093e-17 
  10027.909   -1.02e-17 
  10029.453   2.019e-17 
  10030.998   2.087e-17 
  10032.543   9.312e-18 
  10034.086   1.943e-17 
  10035.631   5.108e-17 
  10037.175   3.323e-17 
  10038.719   6.224e-17 
  10040.263  -4.124e-17 
  10041.808   5.331e-17 
  10043.353   3.729e-17 
  10044.896   2.611e-17 
  10046.441   5.009e-17 
  10047.985   1.752e-17 
  10049.529   1.319e-17 
  10051.074   1.511e-17 
  10052.618    4.69e-18 
  10054.162   2.043e-17 
  10055.706   4.396e-17 
   10057.25   3.578e-17 
  10058.794   6.436e-17 
  10060.339   2.044e-17 
  10061.883   -1.52e-17 
  10063.427  -4.415e-17 
  10064.971   2.349e-17 
  10066.515   1.096e-17 
   10068.06  -4.565e-18 
  10069.603   1.296e-17 
  10071.148  -3.132e-18 
  10072.692   1.659e-18 
  10074.236   7.721e-17 
   10075.78  -3.655e-19 
  10077.324   4.178e-18 
  10078.868  -1.083e-17 
  10080.413   6.717e-18 
  10081.956  -9.387e-17 
  10083.501  -5.168e-17 
  10085.044  -6.952e-17 
  10086.589   3.573e-18 
  10088.132    2.08e-17 
  10089.677  -8.349e-19 
  10091.221   3.852e-17 
  10092.765   7.307e-18 
  10094.309   5.972e-17 
  10095.852    9.95e-18 
  10097.397  -5.482e-18 
  10098.941    4.09e-17 
  10100.485   5.302e-17 
  10102.029   2.207e-17 
  10103.572   1.924e-17 
  10105.117   3.818e-17 
   10106.66  -3.509e-18 
  10108.205    6.52e-18 
  10109.749   -3.53e-17 
  10111.292   1.284e-17 
  10112.837   4.051e-17 
   10114.38   6.703e-19 
  10115.924   1.681e-17 
  10117.469   8.252e-17 
  10119.012  -1.151e-17 
  10120.556   7.565e-18 
  10122.099   4.611e-17 
  10123.644  -6.069e-17 
  10125.187   9.687e-18 
  10126.731  -5.312e-17 
  10128.276  -7.818e-18 
  10129.819  -4.183e-17 
  10131.363    5.59e-17 
  10132.906  -4.568e-17 
  10134.451  -5.738e-18 
  10135.994   2.971e-18 
  10137.538   2.743e-17 
  10139.082  -4.441e-17 
  10140.625   2.734e-17 
   10142.17   1.305e-17 
  10143.713   6.987e-17 
  10145.257   3.591e-18 
  10146.801   1.527e-17 
  10148.344  -6.392e-17 
  10149.888   3.385e-17 
  10151.431   1.529e-17 
  10152.976   5.097e-17 
  10154.519   1.335e-16 
  10156.063  -1.006e-17 
  10157.607  -6.416e-19 
   10159.15  -2.188e-17 
  10160.694  -6.823e-18 
  10162.237   7.197e-18 
  10163.781   4.547e-18 
  10165.325   3.234e-17 
  10166.868  -2.002e-17 
  10168.412   4.318e-17 
  10169.956  -9.252e-17 
    10171.5  -1.239e-16 
  10173.043   1.567e-16 
  10174.587  -9.752e-18 
  10176.131   6.541e-17 
  10177.674   3.357e-17 
  10179.218   2.214e-17 
  10180.761  -1.265e-17 
  10182.305  -7.691e-18 
  10183.848   5.988e-18 
  10185.391  -2.876e-17 
  10186.935  -5.085e-17 
  10188.478  -3.957e-17 
  10190.022  -8.003e-17 
  10191.565  -9.053e-17 
  10193.109   -1.37e-17 
  10194.653  -3.556e-17 
  10196.196   1.402e-17 
   10197.74  -2.191e-17 
  10199.283  -4.857e-17 
  10200.827  -1.976e-17 
  10202.369   4.428e-17 
  10203.913  -2.532e-17 
  10205.457  -7.407e-17 
    10207.0   2.265e-17 
  10208.544  -3.718e-17 
  10210.087  -6.208e-17 
   10211.63   5.021e-17 
  10213.174  -6.472e-17 
  10214.717  -1.869e-17 
  10216.261  -5.102e-18 
  10217.804   2.905e-18 
  10219.347   -5.47e-18 
   10220.89    5.66e-17 
  10222.434   8.198e-17 
  10223.978  -1.104e-16 
   10225.52   4.563e-17 
  10227.064  -2.628e-16 
  10228.607   4.695e-17 
   10230.15   6.291e-17 
  10231.694  -1.447e-16 
  10233.237  -1.818e-18 
   10234.78   9.173e-17 
  10236.323  -7.971e-17 
