# STATUS =
# OBJECT = 2018bym
# TELESCOPE = NOT
# INSTRUMENT = ALFOSC
# DATE-OBS = 2018-05-31 00:00:00.00
# MJD = 58269.0
# EXPTIME = --
# AIRMASS = --
# SLIT = --
# DISPERSER = --
# SOURCE = 2020ApJ...901...61L
# FILTER =
# RESOLUTION =
# FLUX_STANDARD =
# EXTINCTION_CORRECTED = --
# PHOTOMETRY_CALIBRATED =
# TELLURIC_CORRECTED =
# FLUX_UNITS = erg cm(-2) sec(-1) Ang(-1)
# WAVE_UNITS = Angstrom
# QUALITY = Medium
# MIN_WAVE = 3467.148
# MAX_WAVE = 9149.017
# COMMENT = --
 Wavelength           Flux 
   3469.899  -1.142974e-17 
   3472.652    1.53241e-16 
   3475.407   5.066533e-17 
   3478.164   1.085353e-16 
   3480.923   6.502467e-17 
   3483.684   8.768527e-17 
   3486.446   1.053793e-16 
   3489.211   9.976819e-17 
   3491.977   1.220296e-16 
   3494.745   9.699899e-17 
   3497.515   2.319484e-18 
   3500.287   1.392772e-16 
    3503.06   6.303087e-17 
   3505.835   9.186338e-17 
   3508.613   1.665943e-16 
   3511.392   1.689487e-16 
   3514.173   9.521616e-18 
   3516.955   4.539436e-17 
    3519.74   1.161828e-16 
   3522.526   1.082873e-16 
   3525.314   1.174508e-16 
   3528.104   9.720078e-17 
   3530.896   2.786014e-17 
    3533.69   1.417952e-16 
   3536.485   1.015409e-16 
   3539.282   6.126195e-17 
   3542.081   1.457953e-16 
   3544.882   7.892417e-17 
   3547.684   3.331068e-17 
   3550.489   2.034239e-16 
   3553.295   6.358047e-17 
   3556.103   4.683726e-17 
   3558.912    5.69183e-17 
   3561.724     2.3157e-17 
   3564.537   5.174365e-17 
   3567.352   6.398778e-17 
   3570.169   5.112817e-17 
   3572.987   1.681163e-16 
   3575.808   7.090601e-17 
    3578.63   1.276424e-16 
   3581.453    1.10479e-16 
   3584.279   8.995067e-17 
   3587.106   1.063521e-16 
   3589.935   1.583847e-16 
   3592.766   5.207165e-17 
   3595.599   1.459758e-16 
   3598.433    1.33893e-16 
   3601.269   9.668183e-17 
   3604.107   1.316616e-16 
   3606.946   5.130659e-17 
   3609.788   1.237351e-16 
    3612.63   9.099541e-17 
   3615.475   5.827687e-17 
   3618.322   9.499608e-17 
    3621.17   4.054947e-17 
    3624.02    1.04937e-16 
   3626.871    9.86444e-17 
   3629.724   6.797692e-17 
   3632.579    7.83958e-17 
   3635.436   2.700866e-17 
   3638.294   8.895763e-17 
   3641.154   6.979921e-17 
   3644.016   3.793104e-17 
    3646.88   6.966799e-17 
   3649.745   1.203968e-16 
   3652.612   1.126597e-16 
    3655.48   8.799817e-17 
    3658.35   8.983616e-17 
   3661.222   1.082493e-16 
   3664.096   8.097225e-17 
   3666.971    6.70216e-17 
   3669.848   9.946076e-17 
   3672.727   1.451393e-16 
   3675.607   5.195474e-17 
   3678.489   9.083352e-17 
   3681.372   8.455666e-17 
   3684.258   1.214778e-16 
   3687.145   1.257903e-16 
   3690.033   1.525527e-16 
   3692.923   8.566538e-17 
   3695.815   1.454851e-16 
   3698.709   1.092143e-16 
   3701.604   1.058126e-16 
   3704.501   9.906486e-17 
   3707.399   7.316139e-17 
   3710.299   8.409429e-17 
   3713.201   9.242554e-17 
   3716.104   1.353407e-16 
   3719.009   1.000248e-16 
   3721.916    1.19295e-16 
   3724.824   9.626078e-17 
   3727.734   1.129732e-16 
   3730.646   1.242926e-16 
   3733.559   1.147845e-16 
   3736.473   1.124212e-16 
    3739.39   1.027556e-16 
   3742.308    1.24994e-16 
   3745.227   8.793929e-17 
   3748.148   7.433392e-17 
   3751.071   1.021831e-16 
   3753.995   1.226352e-16 
   3756.921   1.034341e-16 
   3759.849   1.255352e-16 
   3762.778    9.51792e-17 
   3765.708   1.020653e-16 
   3768.641    1.09646e-16 
   3771.575   1.091302e-16 
    3774.51    8.13523e-17 
   3777.447   9.957733e-17 
   3780.386   1.080931e-16 
   3783.326   1.257826e-16 
   3786.268   1.091959e-16 
   3789.211   1.370513e-16 
   3792.156   9.963824e-17 
   3795.102   1.043741e-16 
    3798.05   1.302769e-16 
     3801.0   1.283487e-16 
   3803.951   9.694384e-17 
   3806.904    8.29778e-17 
   3809.858   8.632168e-17 
   3812.813   1.237476e-16 
   3815.771   1.067363e-16 
   3818.729    9.13429e-17 
    3821.69   1.308669e-16 
   3824.652   1.164913e-16 
   3827.615    9.15305e-17 
    3830.58     1.0669e-16 
   3833.547    1.16243e-16 
   3836.515   1.217689e-16 
   3839.484   1.145231e-16 
   3842.455   1.055487e-16 
   3845.428    1.08827e-16 
   3848.402   9.459285e-17 
   3851.378   9.280768e-17 
   3854.355    1.01169e-16 
   3857.333   1.092313e-16 
   3860.314   1.276644e-16 
   3863.295   1.180403e-16 
   3866.279   1.139494e-16 
   3869.263   1.234674e-16 
   3872.249   9.994342e-17 
   3875.237   1.158961e-16 
   3878.226   1.252816e-16 
   3881.217   1.186176e-16 
   3884.209   1.283469e-16 
   3887.203   1.004833e-16 
   3890.198   1.216135e-16 
   3893.194   1.035134e-16 
   3896.192   9.603979e-17 
   3899.192   1.026023e-16 
   3902.193   9.525922e-17 
   3905.195   1.158217e-16 
   3908.199   1.328929e-16 
   3911.205   1.105437e-16 
   3914.211   1.108112e-16 
    3917.22   1.040647e-16 
   3920.229    1.12558e-16 
   3923.241   1.057379e-16 
   3926.253   1.140645e-16 
   3929.268   1.065502e-16 
   3932.283   1.142473e-16 
     3935.3   1.100132e-16 
   3938.319   1.194896e-16 
   3941.339   1.117075e-16 
    3944.36   1.199513e-16 
   3947.383    8.75253e-17 
   3950.407   1.168885e-16 
   3953.433   1.145542e-16 
    3956.46   1.190906e-16 
   3959.488   1.065254e-16 
   3962.518   9.562662e-17 
   3965.549   9.632792e-17 
   3968.582   1.067169e-16 
   3971.616   9.587336e-17 
   3974.652    9.11892e-17 
   3977.689   1.095702e-16 
   3980.727   1.102691e-16 
   3983.767    1.00689e-16 
   3986.808   1.049681e-16 
   3989.851   9.480147e-17 
   3992.895    1.22133e-16 
   3995.941    9.68161e-17 
   3998.987   1.100676e-16 
   4002.036   1.036936e-16 
   4005.085   1.084623e-16 
   4008.136   1.064224e-16 
   4011.188   1.077186e-16 
   4014.242   1.003724e-16 
   4017.298   1.141708e-16 
   4020.354   1.068279e-16 
   4023.412   8.221103e-17 
   4026.471   9.144196e-17 
   4029.532   7.738626e-17 
   4032.594   9.177804e-17 
   4035.657   8.953916e-17 
   4038.722    1.13169e-16 
   4041.788   9.483485e-17 
   4044.855   7.660353e-17 
   4047.924   7.204462e-17 
   4050.995   9.383835e-17 
   4054.066   9.762237e-17 
   4057.139   9.495617e-17 
   4060.213   8.970223e-17 
   4063.289   1.023605e-16 
   4066.366   8.762502e-17 
   4069.444   1.000434e-16 
   4072.524   9.963761e-17 
   4075.604    1.07026e-16 
   4078.687   9.631179e-17 
   4081.771   1.100058e-16 
   4084.855   9.766963e-17 
   4087.942   1.053721e-16 
   4091.029   9.709828e-17 
   4094.118   9.634097e-17 
   4097.208   7.817444e-17 
     4100.3   1.069085e-16 
   4103.393   1.079779e-16 
   4106.487   8.158936e-17 
   4109.583   7.782709e-17 
   4112.679   9.314071e-17 
   4115.777   9.756433e-17 
   4118.877   9.386328e-17 
   4121.978   8.590858e-17 
    4125.08   9.360993e-17 
   4128.183   8.644064e-17 
   4131.288   8.422749e-17 
   4134.393   9.091438e-17 
     4137.5   1.049421e-16 
   4140.609   9.466085e-17 
   4143.719   8.140783e-17 
    4146.83   8.727448e-17 
   4149.942   8.713039e-17 
   4153.056   8.996705e-17 
    4156.17   9.576917e-17 
   4159.287   7.507562e-17 
   4162.404   9.110618e-17 
   4165.523   9.785701e-17 
   4168.643   8.723241e-17 
   4171.764   9.466727e-17 
   4174.887   9.376927e-17 
    4178.01   8.804262e-17 
   4181.135   8.744202e-17 
   4184.262   8.654574e-17 
   4187.389    9.25035e-17 
   4190.518    8.67098e-17 
   4193.648   1.021757e-16 
   4196.779    9.71148e-17 
   4199.912    7.24962e-17 
   4203.045   1.129861e-16 
   4206.181   8.230546e-17 
   4209.317   9.372408e-17 
   4212.454   8.353686e-17 
   4215.593   1.112944e-16 
   4218.733   9.336238e-17 
   4221.874   8.785056e-17 
   4225.017   8.567443e-17 
    4228.16   9.126322e-17 
   4231.305   9.392057e-17 
   4234.451   1.031754e-16 
   4237.599   9.492023e-17 
   4240.747   1.002041e-16 
   4243.897   1.055081e-16 
   4247.048   1.138033e-16 
     4250.2   1.013282e-16 
   4253.354   1.156765e-16 
   4256.508   1.053362e-16 
   4259.664   8.960008e-17 
   4262.821   1.032227e-16 
   4265.979   9.514394e-17 
   4269.138   9.461171e-17 
   4272.299   8.612245e-17 
    4275.46   9.803335e-17 
   4278.624    9.23841e-17 
   4281.788   1.109284e-16 
   4284.953   1.069926e-16 
    4288.12   9.500219e-17 
   4291.288   9.935176e-17 
   4294.456   9.624375e-17 
   4297.626   9.741249e-17 
   4300.798   8.476298e-17 
    4303.97   8.685759e-17 
   4307.144   1.018336e-16 
   4310.318   9.547004e-17 
   4313.494   9.539936e-17 
   4316.671   1.000486e-16 
    4319.85    1.04213e-16 
   4323.029   9.017836e-17 
    4326.21   9.098717e-17 
   4329.392     9.3664e-17 
   4332.574   9.743867e-17 
   4335.758   9.233043e-17 
   4338.944   9.423588e-17 
    4342.13   9.558351e-17 
   4345.317   9.475793e-17 
   4348.506   9.950784e-17 
   4351.696    8.84197e-17 
   4354.887   9.911494e-17 
   4358.079   1.001845e-16 
   4361.272   8.775851e-17 
   4364.466   8.541916e-17 
   4367.662    9.96331e-17 
   4370.858   1.019129e-16 
   4374.056   9.926808e-17 
   4377.255    8.91534e-17 
   4380.455   9.176776e-17 
   4383.656   9.617689e-17 
   4386.858   1.013768e-16 
   4390.062   9.859266e-17 
   4393.266    9.00985e-17 
   4396.472   9.745033e-17 
   4399.678   1.012645e-16 
   4402.886   9.885365e-17 
   4406.095   9.776552e-17 
   4409.305   9.571747e-17 
   4412.516   9.684701e-17 
   4415.729   1.008776e-16 
   4418.942   7.537722e-17 
   4422.156   8.770501e-17 
   4425.372   7.150164e-17 
   4428.588   9.240312e-17 
   4431.806   8.897417e-17 
   4435.025   8.582664e-17 
   4438.245   9.301924e-17 
   4441.465   9.481985e-17 
   4444.687   8.988936e-17 
   4447.911   7.055556e-17 
   4451.135    9.79931e-17 
    4454.36   7.598456e-17 
   4457.586   7.072617e-17 
   4460.814   9.097193e-17 
   4464.042   9.021578e-17 
   4467.272   8.350965e-17 
   4470.502   8.112117e-17 
   4473.734   8.644311e-17 
   4476.967   8.194686e-17 
   4480.201   9.020359e-17 
   4483.436   9.387742e-17 
   4486.671   8.322852e-17 
   4489.909   9.722058e-17 
   4493.146   8.299643e-17 
   4496.386   9.067332e-17 
   4499.626   7.946508e-17 
   4502.867   9.290741e-17 
   4506.109   8.680164e-17 
   4509.353   7.736318e-17 
   4512.597   9.412381e-17 
   4515.842   9.173619e-17 
   4519.088   7.405396e-17 
   4522.336   7.634817e-17 
   4525.584   7.866462e-17 
   4528.834   8.208735e-17 
   4532.084   8.236599e-17 
   4535.336   8.290123e-17 
   4538.588   1.008354e-16 
   4541.842   9.237203e-17 
   4545.097   9.002878e-17 
   4548.353   7.907117e-17 
   4551.609   9.484125e-17 
   4554.867   9.214396e-17 
   4558.125   8.337978e-17 
   4561.385   7.945458e-17 
   4564.646   8.460114e-17 
   4567.907    7.35928e-17 
    4571.17    7.15168e-17 
   4574.434   8.159165e-17 
   4577.699   8.081312e-17 
   4580.964   8.022103e-17 
   4584.231   7.200587e-17 
   4587.499   7.514539e-17 
   4590.768   6.827941e-17 
   4594.037   8.147886e-17 
   4597.308   9.127849e-17 
    4600.58   8.497171e-17 
   4603.852   8.464668e-17 
   4607.126   7.578189e-17 
     4610.4    7.27448e-17 
   4613.676   7.941934e-17 
   4616.953   7.843209e-17 
    4620.23   6.818148e-17 
   4623.509   7.687678e-17 
   4626.789    8.86851e-17 
   4630.069   7.788096e-17 
   4633.351   7.488336e-17 
   4636.633   7.271213e-17 
   4639.916   8.013813e-17 
   4643.201   7.226918e-17 
   4646.486   7.994179e-17 
   4649.772   8.539496e-17 
    4653.06   7.387005e-17 
   4656.348   8.787273e-17 
   4659.637   8.259937e-17 
   4662.927   7.921684e-17 
   4666.218   7.761146e-17 
    4669.51   7.993959e-17 
   4672.803   8.564434e-17 
   4676.097   8.159245e-17 
   4679.392   7.903834e-17 
   4682.687   6.802135e-17 
   4685.984   7.425029e-17 
   4689.282   8.578503e-17 
   4692.581   7.630194e-17 
    4695.88   8.769346e-17 
   4699.181   7.614637e-17 
   4702.482    7.61399e-17 
   4705.784   7.835979e-17 
   4709.087   8.214718e-17 
   4712.392   7.961399e-17 
   4715.697   7.363846e-17 
   4719.003   7.730311e-17 
    4722.31   8.215622e-17 
   4725.618   8.566602e-17 
   4728.927   7.761035e-17 
   4732.236   7.427028e-17 
   4735.547   7.784556e-17 
   4738.858   7.349263e-17 
   4742.171   7.235304e-17 
   4745.484   7.974725e-17 
   4748.798   8.095705e-17 
   4752.114   7.006567e-17 
    4755.43   8.734584e-17 
   4758.747   7.847964e-17 
   4762.064   8.082748e-17 
   4765.383   7.647753e-17 
   4768.703   7.598687e-17 
   4772.023   7.416454e-17 
   4775.345   7.365087e-17 
   4778.667   7.548146e-17 
    4781.99   7.754517e-17 
   4785.314   7.245871e-17 
    4788.64   7.704765e-17 
   4791.965   7.362337e-17 
   4795.292   8.342421e-17 
    4798.62   7.839331e-17 
   4801.948   7.457938e-17 
   4805.278   7.636387e-17 
   4808.608   7.393322e-17 
   4811.939    6.60435e-17 
   4815.271   7.423201e-17 
   4818.604   8.008349e-17 
   4821.937   7.313979e-17 
   4825.272   7.221886e-17 
   4828.608   6.936108e-17 
   4831.944   6.494526e-17 
   4835.281    7.65924e-17 
   4838.619     7.1331e-17 
   4841.958   7.972279e-17 
   4845.298   7.638947e-17 
   4848.639     7.2973e-17 
    4851.98   7.233293e-17 
   4855.322    6.97925e-17 
   4858.666   7.735112e-17 
   4862.009   6.512075e-17 
   4865.354   7.315907e-17 
     4868.7   6.683038e-17 
   4872.046   6.401628e-17 
   4875.394   6.626148e-17 
   4878.742   6.902018e-17 
   4882.091    7.34834e-17 
   4885.441   6.196001e-17 
   4888.792    6.50031e-17 
   4892.144   7.043297e-17 
   4895.496   7.025991e-17 
   4898.849   7.022499e-17 
   4902.203   6.086449e-17 
   4905.558   6.211778e-17 
   4908.914   6.514174e-17 
    4912.27   6.950189e-17 
   4915.627   6.512721e-17 
   4918.985   7.471021e-17 
   4922.344   7.294015e-17 
   4925.704   6.494516e-17 
   4929.065   7.151655e-17 
   4932.426    7.06421e-17 
   4935.788   6.596518e-17 
   4939.151    7.36755e-17 
   4942.515   6.969664e-17 
    4945.88   6.753527e-17 
   4949.245   6.869736e-17 
   4952.611   7.213446e-17 
   4955.979   7.217571e-17 
   4959.346   6.548389e-17 
   4962.715   7.164727e-17 
   4966.084   7.170241e-17 
   4969.455   7.451492e-17 
   4972.825   6.967665e-17 
   4976.197   6.342766e-17 
    4979.57   6.413313e-17 
   4982.943   7.403488e-17 
   4986.317   7.199067e-17 
   4989.692   6.796238e-17 
   4993.068   7.386866e-17 
   4996.444   7.279218e-17 
   4999.822    6.77216e-17 
     5003.2   6.018634e-17 
   5006.579   6.597855e-17 
   5009.958   6.575298e-17 
   5013.338   5.804312e-17 
    5016.72   6.881511e-17 
   5020.102   6.481761e-17 
   5023.484   6.717696e-17 
   5026.868    7.36097e-17 
   5030.252   6.219171e-17 
   5033.637   6.057925e-17 
   5037.022   5.875514e-17 
   5040.409   6.771183e-17 
   5043.796   6.563236e-17 
   5047.184   6.669348e-17 
   5050.573   6.365018e-17 
   5053.962   6.783035e-17 
   5057.353   5.722884e-17 
   5060.744   6.182505e-17 
   5064.135   7.045674e-17 
   5067.528   7.033589e-17 
   5070.921   6.801582e-17 
   5074.315   6.312416e-17 
    5077.71   6.890954e-17 
   5081.105   5.778757e-17 
   5084.501   5.830934e-17 
   5087.898   6.817607e-17 
   5091.296   6.306425e-17 
   5094.695    6.69994e-17 
   5098.094   7.197964e-17 
   5101.494   6.271036e-17 
   5104.895   6.183657e-17 
   5108.296   6.809645e-17 
   5111.698   7.516675e-17 
   5115.101   6.604511e-17 
   5118.504   6.456917e-17 
   5121.908   6.732371e-17 
   5125.313   6.244688e-17 
   5128.719   6.787635e-17 
   5132.125    6.55277e-17 
   5135.532    7.01162e-17 
    5138.94   6.657361e-17 
   5142.349   7.122801e-17 
   5145.758   6.610745e-17 
   5149.168    6.87895e-17 
   5152.579   6.888756e-17 
    5155.99   6.754451e-17 
   5159.402   7.156534e-17 
   5162.815    6.83625e-17 
   5166.229   6.830454e-17 
   5169.643   6.989246e-17 
   5173.058   6.426636e-17 
   5176.473   6.988392e-17 
    5179.89   6.722652e-17 
   5183.306   6.706114e-17 
   5186.724   6.632502e-17 
   5190.143   6.991249e-17 
   5193.562   6.685383e-17 
   5196.981   6.859626e-17 
   5200.402   6.041726e-17 
   5203.823   7.123065e-17 
   5207.245   6.713783e-17 
   5210.667    6.56967e-17 
    5214.09   6.484962e-17 
   5217.514   5.768375e-17 
   5220.938   6.215708e-17 
   5224.364   6.852846e-17 
    5227.79   6.319402e-17 
   5231.216   6.332925e-17 
   5234.644   5.969171e-17 
   5238.071   6.117903e-17 
     5241.5   5.819802e-17 
   5244.929   5.599125e-17 
   5248.359   5.765789e-17 
    5251.79    6.51447e-17 
   5255.221   5.950566e-17 
   5258.653    5.86903e-17 
   5262.085   5.863921e-17 
   5265.519   6.459945e-17 
   5268.953   6.777917e-17 
   5272.387   6.247572e-17 
   5275.822    6.74211e-17 
   5279.258    6.55952e-17 
   5282.695    5.60278e-17 
   5286.132   5.903386e-17 
    5289.57   6.725769e-17 
   5293.008   5.776069e-17 
   5296.447   6.742052e-17 
   5299.887   5.458894e-17 
   5303.328   5.664696e-17 
   5306.769   5.915752e-17 
    5310.21    5.90037e-17 
   5313.653   6.079044e-17 
   5317.096   6.204828e-17 
    5320.54   4.998967e-17 
   5323.983   6.239213e-17 
   5327.429   5.493281e-17 
   5330.874   5.585548e-17 
    5334.32   5.840573e-17 
   5337.767   5.134394e-17 
   5341.214   5.669334e-17 
   5344.663   5.375969e-17 
   5348.111   5.490927e-17 
   5351.561    5.94979e-17 
    5355.01   5.535487e-17 
   5358.461   5.425043e-17 
   5361.912   5.685658e-17 
   5365.364   5.170192e-17 
   5368.816   5.507679e-17 
    5372.27   5.487844e-17 
   5375.723   5.435931e-17 
   5379.177   5.438569e-17 
   5382.632   5.259023e-17 
   5386.088   5.704288e-17 
   5389.544   5.156986e-17 
     5393.0   6.261659e-17 
   5396.458   5.263386e-17 
   5399.916    5.48144e-17 
   5403.374   6.031265e-17 
   5406.833   5.179235e-17 
   5410.293   5.478947e-17 
   5413.753   5.439286e-17 
   5417.214    5.21375e-17 
   5420.676   5.151835e-17 
   5424.138   4.985371e-17 
   5427.601   4.332605e-17 
   5431.064   4.883177e-17 
   5434.528   5.314964e-17 
   5437.993   5.293367e-17 
   5441.458   5.505918e-17 
   5444.923   5.406585e-17 
    5448.39   5.829051e-17 
   5451.857   4.676657e-17 
   5455.324   5.456818e-17 
   5458.792   4.819349e-17 
   5462.261   5.359295e-17 
    5465.73   4.493193e-17 
     5469.2   6.439921e-17 
    5472.67   5.703457e-17 
   5476.141   5.621805e-17 
   5479.613   4.997508e-17 
   5483.085   5.584291e-17 
   5486.558    4.72008e-17 
   5490.031   5.794797e-17 
   5493.505   5.559464e-17 
   5496.979   5.658242e-17 
   5500.454   5.465366e-17 
    5503.93   5.151622e-17 
   5507.406   5.412471e-17 
   5510.883    5.36558e-17 
    5514.36   5.050219e-17 
   5517.838   6.132825e-17 
   5521.316   5.146197e-17 
   5524.795   5.826915e-17 
   5528.274   5.379853e-17 
   5531.754    6.08994e-17 
   5535.235   5.837153e-17 
   5538.716   5.807347e-17 
   5542.198   5.454519e-17 
   5545.681   5.635929e-17 
   5549.163   5.682714e-17 
   5552.646   5.622322e-17 
   5556.131   5.425462e-17 
   5559.615   5.744599e-17 
     5563.1   5.723803e-17 
   5566.586   5.703001e-17 
   5570.072   5.682199e-17 
   5573.559   5.661388e-17 
   5577.046    5.64058e-17 
   5580.534   5.619764e-17 
   5584.022   5.598951e-17 
   5587.511   5.578128e-17 
     5591.0   5.543764e-17 
    5594.49   5.305048e-17 
    5597.98   5.817666e-17 
   5601.472   5.552873e-17 
   5604.963   6.027248e-17 
   5608.455   5.446701e-17 
   5611.948   4.827832e-17 
   5615.441   5.806394e-17 
   5618.935    5.15498e-17 
   5622.429   5.322604e-17 
   5625.923   5.657152e-17 
   5629.419   5.584142e-17 
   5632.915   4.714613e-17 
   5636.411    5.47572e-17 
   5639.908   5.823978e-17 
   5643.405   5.131674e-17 
   5646.903   4.998228e-17 
   5650.401   5.091088e-17 
     5653.9   5.369485e-17 
   5657.399   4.422456e-17 
   5660.899    5.35934e-17 
     5664.4   5.167758e-17 
   5667.901   5.278146e-17 
   5671.402   4.866132e-17 
   5674.904   4.912318e-17 
   5678.407   5.064025e-17 
    5681.91   4.328899e-17 
   5685.414   4.866374e-17 
   5688.917   4.755112e-17 
   5692.422   4.170541e-17 
   5695.927   4.997288e-17 
   5699.433   4.667467e-17 
   5702.938   4.913475e-17 
   5706.445    4.21472e-17 
   5709.952   4.692566e-17 
   5713.459   4.370791e-17 
   5716.968   4.545102e-17 
   5720.476   4.394635e-17 
   5723.985   4.060438e-17 
   5727.495   4.636096e-17 
   5731.005   4.839089e-17 
   5734.515   4.545679e-17 
   5738.026   4.286647e-17 
   5741.538   4.380054e-17 
    5745.05   4.454744e-17 
   5748.562   4.470107e-17 
   5752.075   4.685124e-17 
   5755.588   4.195843e-17 
   5759.103   4.872628e-17 
   5762.617   4.581261e-17 
   5766.132   4.802756e-17 
   5769.647   4.737535e-17 
   5773.163   4.651106e-17 
   5776.679   4.303177e-17 
   5780.196   4.450652e-17 
   5783.713    4.46914e-17 
   5787.231   4.093877e-17 
    5790.75   4.579626e-17 
   5794.268   4.232336e-17 
   5797.788   4.713235e-17 
   5801.307   4.584127e-17 
   5804.827   4.994044e-17 
   5808.348   4.622545e-17 
   5811.869    4.75546e-17 
   5815.391   4.362692e-17 
   5818.913   4.832233e-17 
   5822.435   4.718622e-17 
   5825.958   4.500489e-17 
   5829.481   5.041553e-17 
   5833.005   4.505385e-17 
   5836.529   4.920728e-17 
   5840.054   5.009671e-17 
    5843.58   4.578277e-17 
   5847.105   4.833933e-17 
   5850.631   5.327666e-17 
   5854.158   4.790319e-17 
   5857.685   5.087132e-17 
   5861.213   5.027697e-17 
   5864.741   5.213936e-17 
   5868.269   4.720671e-17 
   5871.798   4.479231e-17 
   5875.328   4.960509e-17 
   5878.857   5.194409e-17 
   5882.388     5.2014e-17 
   5885.918   4.853043e-17 
   5889.449   4.790877e-17 
   5892.981   4.412786e-17 
   5896.513   4.997751e-17 
   5900.045   5.050319e-17 
   5903.579   5.016386e-17 
   5907.112   5.092203e-17 
   5910.646   4.702864e-17 
    5914.18    4.79828e-17 
   5917.715    4.92911e-17 
    5921.25   4.412629e-17 
   5924.785   4.731134e-17 
   5928.321   4.541559e-17 
   5931.858   4.299292e-17 
   5935.395   4.873901e-17 
   5938.932   4.525681e-17 
    5942.47   4.714213e-17 
   5946.008   5.179499e-17 
   5949.546   4.940218e-17 
   5953.085   4.687188e-17 
   5956.625   4.890062e-17 
   5960.165   4.975363e-17 
   5963.706   4.782984e-17 
   5967.246   4.846718e-17 
   5970.787   4.510379e-17 
   5974.329   4.772058e-17 
   5977.871   4.783531e-17 
   5981.414   5.017481e-17 
   5984.957   5.068311e-17 
     5988.5   4.638853e-17 
   5992.043   4.309002e-17 
   5995.587   4.114472e-17 
   5999.132   4.086601e-17 
   6002.677   4.257488e-17 
   6006.223   4.283846e-17 
   6009.769   4.953633e-17 
   6013.314   4.610286e-17 
   6016.861   4.364854e-17 
   6020.408   4.267552e-17 
   6023.956   4.467303e-17 
   6027.503   4.963747e-17 
   6031.052   4.726836e-17 
   6034.601   4.639126e-17 
    6038.15   4.569345e-17 
   6041.699    4.66155e-17 
   6045.249   5.346415e-17 
   6048.799   4.470568e-17 
    6052.35    4.49212e-17 
   6055.901   4.393687e-17 
   6059.453   4.188208e-17 
   6063.005   4.630671e-17 
   6066.557   4.191958e-17 
    6070.11   4.095531e-17 
   6073.663   4.261125e-17 
   6077.217   3.673281e-17 
   6080.771   4.154334e-17 
   6084.325   4.278997e-17 
    6087.88   4.689363e-17 
   6091.435   4.800957e-17 
   6094.991   4.783059e-17 
   6098.546   4.019123e-17 
   6102.103   4.166262e-17 
    6105.66   4.171421e-17 
   6109.217   4.117808e-17 
   6112.774   4.622838e-17 
   6116.332    4.24844e-17 
   6119.891   4.338561e-17 
   6123.449   4.253372e-17 
   6127.008   4.984985e-17 
   6130.567   4.175666e-17 
   6134.127   4.521773e-17 
   6137.687   4.814804e-17 
   6141.249   4.570854e-17 
   6144.809   4.142961e-17 
   6148.371   4.448128e-17 
   6151.933   4.790265e-17 
   6155.495   4.533037e-17 
   6159.057   4.598083e-17 
    6162.62   4.627575e-17 
   6166.184   4.387033e-17 
   6169.747   4.238325e-17 
   6173.311   4.415119e-17 
   6176.875   4.917231e-17 
    6180.44   4.270196e-17 
   6184.005   4.229978e-17 
   6187.571   4.622987e-17 
   6191.137   5.044123e-17 
   6194.703   3.834646e-17 
    6198.27   4.547089e-17 
   6201.837    4.23744e-17 
   6205.404   4.471163e-17 
   6208.972    4.31434e-17 
   6212.541   4.175243e-17 
   6216.109   4.175933e-17 
   6219.678   4.925176e-17 
   6223.247   4.291448e-17 
   6226.817   3.586264e-17 
   6230.387    4.21222e-17 
   6233.957   3.681827e-17 
   6237.528   4.310759e-17 
   6241.099   3.931127e-17 
    6244.67   3.842021e-17 
   6248.242   4.046929e-17 
   6251.814   3.384246e-17 
   6255.387   4.138068e-17 
    6258.96   3.651466e-17 
   6262.533   3.369067e-17 
   6266.106   3.080701e-17 
   6269.681   3.811235e-17 
   6273.255    3.40761e-17 
    6276.83   4.030616e-17 
   6280.405   3.515843e-17 
    6283.98   4.170077e-17 
   6287.556    3.26078e-17 
   6291.132   3.509332e-17 
   6294.708      3.862e-17 
   6298.285   4.158261e-17 
   6301.862   3.588403e-17 
    6305.44   3.734684e-17 
   6309.018   3.825572e-17 
   6312.596   3.691381e-17 
   6316.174   3.682353e-17 
   6319.753   3.651511e-17 
   6323.333    3.69198e-17 
   6326.913   3.818451e-17 
   6330.492   3.814201e-17 
   6334.073   4.074844e-17 
   6337.653   3.461331e-17 
   6341.234   3.101163e-17 
   6344.815   3.345117e-17 
   6348.397   3.387797e-17 
   6351.979   3.598311e-17 
   6355.562   2.827776e-17 
   6359.145    3.48021e-17 
   6362.728   3.150732e-17 
   6366.311   4.063544e-17 
   6369.895   3.593967e-17 
   6373.479   3.752416e-17 
   6377.063   4.151021e-17 
   6380.648   4.193111e-17 
   6384.233   3.503991e-17 
   6387.818   3.718943e-17 
   6391.404   3.324832e-17 
    6394.99   3.742681e-17 
   6398.577   3.875383e-17 
   6402.163     3.8962e-17 
    6405.75   3.933905e-17 
   6409.338   3.814345e-17 
   6412.926   3.355946e-17 
   6416.514   3.478899e-17 
   6420.102   3.553818e-17 
   6423.691    3.87023e-17 
    6427.28   3.931553e-17 
   6430.869   3.577235e-17 
   6434.459   3.532318e-17 
   6438.049   3.887671e-17 
    6441.64   4.025066e-17 
    6445.23   3.761609e-17 
   6448.821   3.745926e-17 
   6452.413   3.855816e-17 
   6456.004   3.804748e-17 
   6459.596   4.021738e-17 
   6463.188   3.750675e-17 
   6466.781   3.602526e-17 
   6470.375   3.673973e-17 
   6473.968   3.354399e-17 
   6477.562   3.557675e-17 
   6481.155    3.71632e-17 
    6484.75   3.816723e-17 
   6488.344   3.752679e-17 
   6491.939   3.866032e-17 
   6495.534    3.36101e-17 
    6499.13   3.413286e-17 
   6502.726    3.58667e-17 
   6506.322   3.819123e-17 
   6509.918   4.056794e-17 
   6513.515   3.679144e-17 
   6517.112   3.723202e-17 
    6520.71   3.490558e-17 
   6524.308   3.298156e-17 
   6527.906   3.843341e-17 
   6531.504    3.09847e-17 
   6535.103   3.273683e-17 
   6538.702    4.19203e-17 
   6542.301   3.512327e-17 
   6545.901   3.245253e-17 
     6549.5   3.966738e-17 
   6553.101   3.908645e-17 
   6556.702   3.551774e-17 
   6560.302   3.457518e-17 
   6563.903   3.887889e-17 
   6567.505   3.708192e-17 
   6571.107   3.803978e-17 
   6574.709   3.656598e-17 
   6578.312   3.598947e-17 
   6581.914   3.577729e-17 
   6585.517    3.68324e-17 
   6589.121   3.748927e-17 
   6592.724   3.635148e-17 
   6596.328    4.14744e-17 
   6599.932   3.904818e-17 
   6603.537    4.10882e-17 
   6607.142   3.475528e-17 
   6610.747   4.123417e-17 
   6614.352   3.714027e-17 
   6617.958   4.114385e-17 
   6621.564   3.747385e-17 
    6625.17     3.8156e-17 
   6628.777   3.341682e-17 
   6632.384   3.165678e-17 
   6635.991   3.965654e-17 
   6639.599   3.902752e-17 
   6643.207   3.747141e-17 
   6646.815   3.335043e-17 
   6650.423    3.64141e-17 
   6654.032   3.563789e-17 
   6657.641   3.908807e-17 
    6661.25   3.808215e-17 
    6664.86   3.954835e-17 
    6668.47   3.746852e-17 
   6672.081   3.595237e-17 
   6675.691   3.745013e-17 
   6679.302    4.32108e-17 
   6682.913   3.525982e-17 
   6686.524    3.83657e-17 
   6690.136   3.267211e-17 
   6693.748   3.818801e-17 
    6697.36   3.705874e-17 
   6700.973   3.862401e-17 
   6704.585   3.859316e-17 
   6708.199   3.506891e-17 
   6711.812   3.124737e-17 
   6715.426   3.629053e-17 
    6719.04   3.526795e-17 
   6722.654   3.472969e-17 
   6726.269   3.355953e-17 
   6729.884   3.416224e-17 
   6733.499   3.283302e-17 
   6737.114   3.827842e-17 
    6740.73    3.29188e-17 
   6744.346   3.562838e-17 
   6747.962   3.561472e-17 
   6751.579   3.146135e-17 
   6755.196   3.350344e-17 
   6758.813    3.37169e-17 
   6762.431   3.075563e-17 
   6766.048   3.106261e-17 
   6769.667    3.32321e-17 
   6773.285   3.716456e-17 
   6776.903    3.49765e-17 
   6780.522   2.876018e-17 
   6784.142   3.067434e-17 
   6787.761   2.898407e-17 
   6791.381   3.537368e-17 
   6795.001   3.215755e-17 
   6798.621   3.442157e-17 
   6802.242   3.170782e-17 
   6805.863   3.277257e-17 
   6809.484   3.092546e-17 
   6813.105   2.784172e-17 
   6816.727   2.910495e-17 
   6820.349   3.262773e-17 
   6823.971   3.223696e-17 
   6827.594     3.1487e-17 
   6831.216   2.919872e-17 
    6834.84   2.904719e-17 
   6838.463    3.45108e-17 
   6842.086   3.108662e-17 
    6845.71   2.752098e-17 
   6849.335    3.58024e-17 
   6852.959   4.061239e-17 
   6856.584   3.735536e-17 
   6860.209   3.520163e-17 
   6863.834   3.056667e-17 
    6867.46   2.611336e-17 
   6871.086   3.022546e-17 
   6874.712    3.21994e-17 
   6878.338   3.552766e-17 
   6881.965    3.71823e-17 
   6885.592   3.966398e-17 
   6889.219    3.87833e-17 
   6892.847   3.395787e-17 
   6896.475   2.883557e-17 
   6900.103   3.506244e-17 
   6903.731   2.876833e-17 
    6907.36   3.140853e-17 
   6910.988   3.106482e-17 
   6914.618   2.579741e-17 
   6918.247   2.506024e-17 
   6921.877   2.861463e-17 
   6925.507   3.217472e-17 
   6929.137   3.052194e-17 
   6932.768   3.482914e-17 
   6936.398   3.038253e-17 
   6940.029   3.294717e-17 
   6943.661   3.721027e-17 
   6947.292   3.735611e-17 
   6950.924   3.033102e-17 
   6954.556   3.103854e-17 
   6958.188   2.889031e-17 
   6961.821   2.741982e-17 
   6965.454   2.810168e-17 
   6969.087   2.281929e-17 
   6972.721    2.73043e-17 
   6976.354   2.733202e-17 
   6979.989    2.86149e-17 
   6983.623   3.176364e-17 
   6987.257   2.853557e-17 
   6990.892   3.011671e-17 
   6994.527   2.389408e-17 
   6998.163   2.775752e-17 
   7001.798   2.836138e-17 
   7005.434   2.518498e-17 
    7009.07    2.53507e-17 
   7012.707   2.861396e-17 
   7016.343   2.720531e-17 
    7019.98   2.722588e-17 
   7023.617    2.62986e-17 
   7027.255   2.487838e-17 
   7030.893   3.094087e-17 
   7034.531   2.728309e-17 
   7038.169   2.815014e-17 
   7041.807   2.294151e-17 
   7045.446    2.82326e-17 
   7049.085   3.010246e-17 
   7052.725   2.587622e-17 
   7056.364   2.287275e-17 
   7060.004   2.504307e-17 
   7063.644    2.73047e-17 
   7067.284   3.026332e-17 
   7070.925   2.988106e-17 
   7074.566   2.802361e-17 
   7078.207   2.541811e-17 
   7081.849   2.415867e-17 
    7085.49   2.531195e-17 
   7089.132   2.753165e-17 
   7092.774   2.128305e-17 
   7096.417   2.761905e-17 
    7100.06   2.757872e-17 
   7103.703   2.456772e-17 
   7107.346   3.262753e-17 
   7110.989   2.899362e-17 
   7114.633   2.829514e-17 
   7118.277   3.223966e-17 
   7121.921   3.018755e-17 
   7125.566   2.184054e-17 
   7129.211   2.828817e-17 
   7132.856      2.754e-17 
   7136.501   2.694594e-17 
   7140.147   2.599237e-17 
   7143.792   2.792234e-17 
   7147.439    2.61721e-17 
   7151.085    3.14197e-17 
   7154.732   2.671986e-17 
   7158.379   2.612587e-17 
   7162.026    2.82307e-17 
   7165.673   2.640036e-17 
   7169.321   2.906857e-17 
   7172.969   2.564191e-17 
   7176.617   2.802882e-17 
   7180.266   2.278363e-17 
   7183.914     2.2696e-17 
   7187.563   2.682232e-17 
   7191.212   2.058445e-17 
   7194.862   2.371053e-17 
   7198.512   2.788391e-17 
   7202.162   2.557073e-17 
   7205.812   2.518136e-17 
   7209.462   2.136837e-17 
   7213.113   2.665319e-17 
   7216.765   2.466634e-17 
   7220.416   2.597744e-17 
   7224.067   2.674715e-17 
   7227.719   2.803101e-17 
   7231.371   2.550378e-17 
   7235.023   2.423979e-17 
   7238.676    2.22864e-17 
   7242.329   2.693938e-17 
   7245.982   2.273059e-17 
   7249.636    2.55802e-17 
   7253.289   2.446065e-17 
   7256.943   2.803955e-17 
   7260.597    3.23835e-17 
   7264.251   2.510663e-17 
   7267.906   2.576831e-17 
   7271.561   2.672364e-17 
   7275.216   1.905639e-17 
   7278.872   2.442473e-17 
   7282.528   2.621246e-17 
   7286.184   2.735256e-17 
    7289.84   2.317068e-17 
   7293.496   2.906962e-17 
   7297.153   2.776756e-17 
    7300.81   2.337914e-17 
   7304.467   2.778889e-17 
   7308.125   2.853206e-17 
   7311.783   2.488511e-17 
    7315.44   2.053106e-17 
   7319.099   2.477807e-17 
   7322.757    2.50582e-17 
   7326.416   2.872137e-17 
   7330.075   2.665519e-17 
   7333.734   2.544725e-17 
   7337.394   2.764479e-17 
   7341.054   2.749082e-17 
   7344.714   2.920606e-17 
   7348.375   2.325404e-17 
   7352.035   2.334434e-17 
   7355.696   2.321425e-17 
   7359.357   2.785134e-17 
   7363.019   1.822818e-17 
    7366.68   2.579273e-17 
   7370.342   2.786823e-17 
   7374.004   2.315209e-17 
   7377.667   2.662432e-17 
   7381.329   2.678119e-17 
   7384.992   2.600185e-17 
   7388.655    2.47128e-17 
   7392.319    2.56755e-17 
   7395.982   2.166598e-17 
   7399.646   2.548972e-17 
   7403.311    2.60737e-17 
   7406.976   2.709337e-17 
    7410.64    2.27374e-17 
   7414.305   2.482197e-17 
    7417.97   2.261949e-17 
   7421.636    2.02398e-17 
   7425.302   2.314042e-17 
   7428.968   2.428437e-17 
   7432.634   2.850858e-17 
   7436.301   2.910393e-17 
   7439.967   2.963398e-17 
   7443.635   2.509852e-17 
   7447.302   2.984682e-17 
    7450.97    2.43048e-17 
   7454.638   2.483194e-17 
   7458.306    2.63928e-17 
   7461.974   2.555562e-17 
   7465.643   2.290848e-17 
   7469.312   2.329851e-17 
   7472.981   2.409364e-17 
    7476.65   2.055703e-17 
    7480.32   2.127122e-17 
    7483.99   1.975454e-17 
    7487.66   2.202454e-17 
   7491.331   2.148599e-17 
   7495.001   2.307087e-17 
   7498.672   2.290969e-17 
   7502.344   2.607288e-17 
   7506.015   2.401824e-17 
   7509.687   2.710919e-17 
   7513.359    2.51047e-17 
   7517.031   2.359522e-17 
   7520.704   2.225665e-17 
   7524.377   2.843828e-17 
    7528.05   2.800505e-17 
   7531.723   2.606858e-17 
   7535.397   2.431169e-17 
   7539.071   2.930731e-17 
   7542.745   3.072352e-17 
   7546.419   2.537255e-17 
   7550.094   2.280168e-17 
   7553.769   2.584505e-17 
   7557.444   2.756933e-17 
    7561.12    2.37802e-17 
   7564.795   2.531547e-17 
   7568.472   2.221451e-17 
   7572.148   2.173017e-17 
   7575.824   2.292303e-17 
   7579.501   1.986986e-17 
   7583.178   1.948314e-17 
   7586.855   2.367655e-17 
   7590.533   2.239586e-17 
   7594.211    2.16162e-17 
   7597.889   2.215047e-17 
   7601.568   2.172932e-17 
   7605.247   1.723707e-17 
   7608.925   1.296472e-17 
   7612.604   2.146233e-17 
   7616.284   1.494028e-17 
   7619.964   1.876333e-17 
   7623.644   1.708384e-17 
   7627.324   1.297261e-17 
   7631.004   1.728973e-17 
   7634.686   2.086746e-17 
   7638.367   1.555378e-17 
   7642.048   2.287866e-17 
   7645.729   1.787656e-17 
   7649.412   1.767547e-17 
   7653.094   2.345581e-17 
   7656.776   2.223911e-17 
   7660.459   2.327074e-17 
   7664.142   2.182693e-17 
   7667.825   1.935622e-17 
   7671.508   2.268368e-17 
   7675.192   2.109132e-17 
   7678.876   1.946472e-17 
   7682.561   2.255604e-17 
   7686.245   1.674794e-17 
    7689.93   2.473647e-17 
   7693.615   2.308055e-17 
   7697.301   2.187748e-17 
   7700.986    1.88876e-17 
   7704.672   2.187161e-17 
   7708.359   1.903156e-17 
   7712.045   2.055608e-17 
   7715.732   1.858148e-17 
   7719.419   2.366366e-17 
   7723.106   2.622063e-17 
   7726.794   2.204933e-17 
   7730.482   1.952378e-17 
    7734.17   2.211031e-17 
   7737.858   2.742035e-17 
   7741.547   2.705933e-17 
   7745.236   1.893664e-17 
   7748.926   2.128961e-17 
   7752.615   2.303581e-17 
   7756.305   2.876108e-17 
   7759.995   1.904995e-17 
   7763.686   1.779126e-17 
   7767.376   2.031283e-17 
   7771.067   1.628218e-17 
   7774.758   1.750585e-17 
    7778.45      1.561e-17 
   7782.142   2.299713e-17 
   7785.833   1.999666e-17 
   7789.526   1.575089e-17 
   7793.219   1.819664e-17 
   7796.912    2.20734e-17 
   7800.605   1.861501e-17 
   7804.298   1.997268e-17 
   7807.992   2.085123e-17 
   7811.686   1.927094e-17 
    7815.38   1.669382e-17 
   7819.075    1.81972e-17 
    7822.77   1.517987e-17 
   7826.465   1.855002e-17 
   7830.161   2.032183e-17 
   7833.856   1.809465e-17 
   7837.552   2.454117e-17 
   7841.249   2.073631e-17 
   7844.945   1.699536e-17 
   7848.642   1.646327e-17 
   7852.339   2.298755e-17 
   7856.037   1.888457e-17 
   7859.734   1.861366e-17 
   7863.432   1.990556e-17 
   7867.131   2.086544e-17 
   7870.829   1.898149e-17 
   7874.528   1.938233e-17 
   7878.228   1.775552e-17 
   7881.927   1.884952e-17 
   7885.626   2.198383e-17 
   7889.327   2.006675e-17 
   7893.027   1.637928e-17 
   7896.728   1.976861e-17 
   7900.429   2.064915e-17 
    7904.13   2.128256e-17 
   7907.831   1.722189e-17 
   7911.533   2.347013e-17 
   7915.235   2.250757e-17 
   7918.938   1.601479e-17 
    7922.64   1.905209e-17 
   7926.343   1.442842e-17 
   7930.046    2.02361e-17 
    7933.75   2.134669e-17 
   7937.454   2.243311e-17 
   7941.158   1.878598e-17 
   7944.862   1.673025e-17 
   7948.567   1.877667e-17 
   7952.272   1.940352e-17 
   7955.978   1.816114e-17 
   7959.683   1.592994e-17 
   7963.389     2.1752e-17 
   7967.096   1.510615e-17 
   7970.802   2.237916e-17 
   7974.509   1.982077e-17 
   7978.216   1.770566e-17 
   7981.923   1.647938e-17 
   7985.631   1.519401e-17 
   7989.339   1.927856e-17 
   7993.048   1.703113e-17 
   7996.756   2.222287e-17 
   8000.465   1.581747e-17 
   8004.174   1.904217e-17 
   8007.884   1.824815e-17 
   8011.594   1.877682e-17 
   8015.304   1.906657e-17 
   8019.015   1.948249e-17 
   8022.726   1.452613e-17 
   8026.437   1.548683e-17 
   8030.148   1.376046e-17 
    8033.86   1.820777e-17 
   8037.572   1.492631e-17 
   8041.284   1.951815e-17 
   8044.997    1.34624e-17 
   8048.709   1.899464e-17 
   8052.423   1.310933e-17 
   8056.136   1.781638e-17 
    8059.85   1.714276e-17 
   8063.564   1.636061e-17 
   8067.279   1.828904e-17 
   8070.994   9.752146e-18 
   8074.709   1.314631e-17 
   8078.424   1.166655e-17 
    8082.14   1.245227e-17 
   8085.856   1.405187e-17 
   8089.573   1.529202e-17 
   8093.289   1.787336e-17 
   8097.006   1.267424e-17 
   8100.724   1.736411e-17 
   8104.441   1.735994e-17 
   8108.159   1.689797e-17 
   8111.877   1.346238e-17 
   8115.596   1.796119e-17 
   8119.315   2.112927e-17 
   8123.034   1.598414e-17 
   8126.754   1.717233e-17 
   8130.474   1.986763e-17 
   8134.194   1.720052e-17 
   8137.915   1.354364e-17 
   8141.635    1.95829e-17 
   8145.356     1.8302e-17 
   8149.078    1.79842e-17 
     8152.8   1.532078e-17 
   8156.522   1.179726e-17 
   8160.245   1.084129e-17 
   8163.967   1.387305e-17 
    8167.69   1.659764e-17 
   8171.414   1.525553e-17 
   8175.138   1.563837e-17 
   8178.862   1.534242e-17 
   8182.586   1.759869e-17 
   8186.311   1.471296e-17 
   8190.036   2.326604e-17 
   8193.762   1.576709e-17 
   8197.487   2.363368e-17 
   8201.214   1.753759e-17 
    8204.94    2.07631e-17 
   8208.667    2.48334e-17 
   8212.394   2.311459e-17 
   8216.121   2.183922e-17 
   8219.849   1.791313e-17 
   8223.577   1.679465e-17 
   8227.306   1.876387e-17 
   8231.034   1.600029e-17 
   8234.764   1.654713e-17 
   8238.493   2.239722e-17 
   8242.223   2.152291e-17 
   8245.953   1.951093e-17 
   8249.684   2.429396e-17 
   8253.414   2.363716e-17 
   8257.146   1.646523e-17 
   8260.877   1.635066e-17 
   8264.608   2.103446e-17 
   8268.341   1.689802e-17 
   8272.073   1.784635e-17 
   8275.807   1.495953e-17 
    8279.54   1.914828e-17 
   8283.273    1.79681e-17 
   8287.007   2.148781e-17 
   8290.741   2.098322e-17 
   8294.477   2.051527e-17 
   8298.211   2.229565e-17 
   8301.946   2.074864e-17 
   8305.682   1.704235e-17 
   8309.418    1.95335e-17 
   8313.154   2.208166e-17 
   8316.892   1.629795e-17 
   8320.628    1.51691e-17 
   8324.366    2.02357e-17 
   8328.104   2.112799e-17 
   8331.842    1.96505e-17 
    8335.58   1.339759e-17 
   8339.319   1.844133e-17 
   8343.059   2.144571e-17 
   8346.798   1.806998e-17 
   8350.538   1.953953e-17 
   8354.278   2.295043e-17 
   8358.019   2.501777e-17 
    8361.76   2.043576e-17 
   8365.501   2.386255e-17 
   8369.243   1.743665e-17 
   8372.985   1.662928e-17 
   8376.728   2.290786e-17 
   8380.471   1.850313e-17 
   8384.214   1.665549e-17 
   8387.957   2.381351e-17 
   8391.701   1.882717e-17 
   8395.445   2.797546e-17 
   8399.189   2.186549e-17 
   8402.935   2.543185e-17 
   8406.681   1.446042e-17 
   8410.426   1.765745e-17 
   8414.172   2.127672e-17 
   8417.919   1.646984e-17 
   8421.666   2.255087e-17 
   8425.413   2.057959e-17 
    8429.16   1.657099e-17 
   8432.908   1.713113e-17 
   8436.657   2.002432e-17 
   8440.405   2.115697e-17 
   8444.155   1.957404e-17 
   8447.904   2.058923e-17 
   8451.654   1.911416e-17 
   8455.404    1.64951e-17 
   8459.155   2.070453e-17 
   8462.906   1.702954e-17 
   8466.657   1.762592e-17 
   8470.409   1.885315e-17 
   8474.161   1.678719e-17 
   8477.914   1.471916e-17 
   8481.667   1.691081e-17 
   8485.421    2.05298e-17 
   8489.174   2.418231e-17 
   8492.929   1.854814e-17 
   8496.683   1.740376e-17 
   8500.438   2.244872e-17 
   8504.193   1.449969e-17 
   8507.948    1.84964e-17 
   8511.705   1.936172e-17 
   8515.461   1.734092e-17 
   8519.218   2.264174e-17 
   8522.976   1.434985e-17 
   8526.732    2.34556e-17 
   8530.491   2.120076e-17 
   8534.249   1.970601e-17 
   8538.008   1.717829e-17 
   8541.768   1.955297e-17 
   8545.527   2.224368e-17 
   8549.287   1.993378e-17 
   8553.048   1.623028e-17 
   8556.809   1.947369e-17 
   8560.569   1.575987e-17 
   8564.331   1.899169e-17 
   8568.093   2.289795e-17 
   8571.855   1.550395e-17 
   8575.618   1.930552e-17 
   8579.382    1.43493e-17 
   8583.146   2.112313e-17 
   8586.909   1.820244e-17 
   8590.674   1.941725e-17 
   8594.438   2.115003e-17 
   8598.204   1.991158e-17 
    8601.97   2.167828e-17 
   8605.735   1.729902e-17 
   8609.502   1.434049e-17 
    8613.27   1.696328e-17 
   8617.037    2.22972e-17 
   8620.805   1.530244e-17 
   8624.572   1.436601e-17 
   8628.341   1.850079e-17 
    8632.11   2.051489e-17 
    8635.88    2.27588e-17 
   8639.649   1.696833e-17 
    8643.42   1.731352e-17 
    8647.19   1.257394e-17 
   8650.962   1.819742e-17 
   8654.733   1.612887e-17 
   8658.505   1.765897e-17 
   8662.277   1.658066e-17 
   8666.051   1.485195e-17 
   8669.824   1.548228e-17 
   8673.598   1.837085e-17 
   8677.371   1.367988e-17 
   8681.146   1.530065e-17 
   8684.921    1.54127e-17 
   8688.696   1.885511e-17 
   8692.473   1.379932e-17 
   8696.249   1.749832e-17 
   8700.025   1.865833e-17 
   8703.803   1.796976e-17 
    8707.58    1.85199e-17 
   8711.358   1.985995e-17 
   8715.137   1.867275e-17 
   8718.915   1.676563e-17 
   8722.695   1.307456e-17 
   8726.475   1.325682e-17 
   8730.255   1.722185e-17 
   8734.035   1.255056e-17 
   8737.816   1.280168e-17 
   8741.599    1.65306e-17 
    8745.38   1.600706e-17 
   8749.163   1.926226e-17 
   8752.945   1.371455e-17 
   8756.729    1.49773e-17 
   8760.513   1.035473e-17 
   8764.297   1.229093e-17 
   8768.082   1.368129e-17 
   8771.867    1.83703e-17 
   8775.652   1.474685e-17 
   8779.438   1.634162e-17 
   8783.226   1.653123e-17 
   8787.012   1.363263e-17 
     8790.8   1.662627e-17 
   8794.588   1.517373e-17 
   8798.376   1.215409e-17 
   8802.165   1.730736e-17 
   8805.954   1.971384e-17 
   8809.744   1.248483e-17 
   8813.534   1.553474e-17 
   8817.324   1.398065e-17 
   8821.116   2.071017e-17 
   8824.907    1.31424e-17 
   8828.699    1.66287e-17 
   8832.492   1.201471e-17 
   8836.285   1.175514e-17 
   8840.078   1.568775e-17 
   8843.872   1.762497e-17 
   8847.667   1.025291e-17 
   8851.462    1.94698e-17 
   8855.257    1.83319e-17 
   8859.053   1.352787e-17 
    8862.85   1.350444e-17 
   8866.646   1.910876e-17 
   8870.443   2.148078e-17 
   8874.241   1.214159e-17 
    8878.04   1.613172e-17 
   8881.838   1.478856e-17 
   8885.638   1.471475e-17 
   8889.438   1.003972e-17 
   8893.237   1.521807e-17 
   8897.038   1.564748e-17 
    8900.84   1.766578e-17 
   8904.641   1.618305e-17 
   8908.443   1.438299e-17 
   8912.246   1.696096e-17 
   8916.049   8.670122e-18 
   8919.853   1.670926e-17 
   8923.657   1.082803e-17 
   8927.461   1.127211e-17 
   8931.267   1.670865e-17 
   8935.072    1.68242e-17 
   8938.878   1.830014e-17 
   8942.685   1.380974e-17 
   8946.492   2.137866e-17 
     8950.3    1.68561e-17 
   8954.107   1.453091e-17 
   8957.916   1.420339e-17 
   8961.726   1.109304e-17 
   8965.535   1.246073e-17 
   8969.346   1.394945e-17 
   8973.156   1.245473e-17 
   8976.967   1.180249e-17 
   8980.779   1.476686e-17 
   8984.591   1.693489e-17 
   8988.403   1.015865e-17 
   8992.217   7.556261e-18 
    8996.03   1.456696e-17 
   8999.845   1.525308e-17 
    9003.66   1.485139e-17 
   9007.475   1.552023e-17 
   9011.291   2.108423e-17 
   9015.107   1.692964e-17 
   9018.924   1.724863e-17 
   9022.741   1.430691e-17 
    9026.56   1.251364e-17 
   9030.378   1.195918e-17 
   9034.196   1.113589e-17 
   9038.017   1.505477e-17 
   9041.836   1.674959e-17 
   9045.656   1.102127e-17 
   9049.478   1.339478e-17 
     9053.3   9.530944e-18 
   9057.121   1.122946e-17 
   9060.944    8.72786e-18 
   9064.768   1.283417e-17 
   9068.591   9.645223e-18 
   9072.415   1.206556e-17 
    9076.24   1.097142e-17 
   9080.065   1.277776e-17 
   9083.892   1.515444e-17 
   9087.718   1.736428e-17 
   9091.545   1.445012e-17 
   9095.372   1.597865e-17 
     9099.2   1.531572e-17 
   9103.029   1.565205e-17 
   9106.858   1.749026e-17 
   9110.688   1.492288e-17 
   9114.519   1.458698e-17 
    9118.35   1.566856e-17 
   9122.181    1.30061e-17 
   9126.013   1.401646e-17 
   9129.845   1.400554e-17 
   9133.679   1.295394e-17 
   9137.512   1.430108e-17 
   9141.346   1.296081e-17 
   9145.181   1.476801e-17 
   9149.017   1.645275e-17 
