# STATUS =
# OBJECT = DES16C3cv
# TELESCOPE =  Magellan
# INSTRUMENT =
# DATE-OBS =  2016-10-10
# MJD = 57671.0
# EXPTIME =
# AIRMASS =
# SLIT =
# DISPERSER =
# SOURCE =  2019MNRAS.487.2215A
# FILTER =
# RESOLUTION =
# FLUX_STANDARD =
# EXTINCTION_CORRECTED =
# PHOTOMETRY_CALIBRATED =
# TELLURIC_CORRECTED =
# FLUX_UNITS =
# WAVE_UNITS =
# QUALITY =  MEDIUM
# MIN_WAVE =
# MAX_WAVE =
# COMMENT =  Obtained from private comm with Angus.
 Wavelength          Flux 
    4156.86   4.12039e-18 
    4161.86   2.30784e-19 
    4166.86   1.33754e-18 
    4171.86   -3.9541e-19 
    4176.86   1.07223e-18 
    4181.86   2.44449e-18 
    4186.86   4.15853e-19 
    4191.86   1.40961e-18 
    4196.86   8.66991e-19 
    4201.86    2.3695e-18 
    4206.86  -1.85792e-18 
    4211.86   2.84381e-18 
    4216.86   1.60109e-18 
    4221.86   9.42645e-19 
    4226.86  -1.52137e-18 
    4231.86  -8.23704e-19 
    4236.86  -9.60233e-19 
    4241.86   2.11596e-18 
    4246.86  -1.77225e-18 
    4251.86   1.49471e-18 
    4256.86   4.99164e-18 
    4261.86   1.75051e-18 
    4266.86   3.54673e-18 
    4271.86   3.01859e-18 
    4276.86  -3.02379e-18 
    4281.86   8.48017e-19 
    4286.86    3.1611e-19 
    4291.86   5.23445e-18 
    4296.86   2.81632e-19 
    4301.86   2.65329e-18 
    4306.86   3.71876e-19 
    4311.86   2.54935e-18 
    4316.86   2.42645e-18 
    4321.86     3.277e-18 
    4326.86  -3.44423e-18 
    4331.86   2.01501e-18 
    4336.86     3.429e-19 
    4341.86   5.18638e-18 
    4346.86   1.40675e-18 
    4351.86  -2.73938e-18 
    4356.86   7.02591e-19 
    4361.86   7.81069e-19 
    4366.86   2.25935e-18 
    4371.86   4.19482e-18 
    4376.86  -2.38519e-18 
    4381.86   5.75951e-19 
    4386.86  -1.97825e-18 
    4391.86   1.97795e-20 
    4396.86   1.02203e-19 
    4401.86  -1.03268e-18 
    4406.86   4.46253e-19 
    4411.86  -7.59286e-19 
    4416.86   6.71849e-18 
    4421.86   1.76064e-18 
    4426.86  -6.93121e-19 
    4431.86   8.15139e-19 
    4436.86    1.3045e-18 
    4441.86  -3.19916e-18 
    4446.86   1.14761e-18 
    4451.86  -4.60527e-19 
    4456.86   4.23622e-19 
    4461.86  -4.57065e-19 
    4466.86   2.44463e-18 
    4471.86    1.3449e-18 
    4476.86   2.29296e-18 
    4481.86   2.27533e-18 
    4486.86   2.35538e-18 
    4491.86  -4.52747e-19 
    4496.86    2.2958e-18 
    4501.86  -8.51906e-20 
    4506.86   4.93224e-19 
    4511.86  -7.83204e-19 
    4516.86   9.24914e-19 
    4521.86  -2.69917e-20 
    4526.86  -8.33727e-19 
    4531.86   6.69303e-20 
    4536.86  -6.21564e-20 
    4541.86   5.58952e-19 
    4546.86    1.3314e-18 
    4551.86   2.16303e-18 
    4556.86  -5.11642e-19 
    4561.86   7.32818e-19 
    4566.86   8.58618e-19 
    4571.86   1.97417e-18 
    4576.86  -1.08601e-18 
    4581.86   1.17379e-18 
    4586.86   9.05381e-19 
    4591.86   3.01186e-19 
    4596.86   8.51223e-19 
    4601.86   1.03692e-18 
    4606.86   1.93118e-18 
    4611.86   2.69417e-19 
    4616.86  -1.54702e-18 
    4621.86  -4.09287e-19 
    4626.86  -5.43545e-19 
    4631.86   1.11146e-18 
    4636.86   5.20272e-19 
    4641.86   1.43825e-18 
    4646.86   1.68764e-18 
    4651.86   6.28329e-19 
    4656.86  -6.52768e-19 
    4661.86   8.76223e-19 
    4666.86    7.0643e-19 
    4671.86   1.13192e-18 
    4676.86   1.80092e-19 
    4681.86  -1.01684e-19 
    4686.86  -1.20063e-19 
    4691.86   1.53193e-18 
    4696.86  -7.59296e-19 
    4701.86   9.30595e-19 
    4706.86     2.901e-18 
    4711.86   6.16298e-19 
    4716.86    9.4607e-20 
    4721.86  -1.63788e-19 
    4726.86   1.33532e-18 
    4731.86   2.90689e-19 
    4736.86   8.50306e-19 
    4741.86   6.30396e-19 
    4746.86   9.07622e-19 
    4751.86   5.30718e-19 
    4756.86    2.4318e-18 
    4761.86   2.21533e-18 
    4766.86   7.35014e-19 
    4771.86   5.17808e-19 
    4776.86   1.08521e-18 
    4781.86    6.1006e-19 
    4786.86   1.43016e-18 
    4791.86   2.25267e-18 
    4796.86   1.31624e-18 
    4801.86   2.25105e-18 
    4806.86   9.54984e-19 
    4811.86   2.17551e-18 
    4816.86   1.69655e-18 
    4821.86   2.24772e-18 
    4826.86   2.55641e-18 
    4831.86   8.93026e-19 
    4836.86   2.12712e-18 
    4841.86    7.6245e-19 
    4846.86   2.78324e-18 
    4851.86   1.49463e-18 
    4856.86   3.04069e-18 
    4861.86   1.95218e-18 
    4866.86   1.59607e-18 
    4871.86   2.07949e-18 
    4876.86   1.91904e-18 
    4881.86   2.22369e-18 
    4886.86   1.13406e-18 
    4891.86   2.58326e-18 
    4896.86   2.27856e-18 
    4901.86   2.28346e-18 
    4906.86   2.21062e-18 
    4911.86   2.82327e-18 
    4916.86   8.98643e-19 
    4921.86   1.66149e-18 
    4926.86    2.4037e-18 
    4931.86   1.80011e-18 
    4936.86   1.13644e-18 
    4941.86   8.00913e-19 
    4946.86   1.13941e-18 
    4951.86   1.59344e-18 
    4956.86   1.70259e-18 
    4961.86   1.40733e-18 
    4966.86   2.14325e-18 
    4971.86   2.18582e-18 
    4976.86   1.53164e-18 
    4981.86   2.06814e-18 
    4986.86   1.93104e-18 
    4991.86   2.19809e-18 
    4996.86   9.36568e-19 
    5001.86   2.25589e-18 
    5006.86   1.36616e-18 
    5011.86    2.0645e-18 
    5016.86   2.55028e-18 
    5021.86   1.84599e-18 
    5026.86   2.61263e-18 
    5031.86   1.51153e-18 
    5036.86   2.11353e-18 
    5041.86   1.74585e-18 
    5046.86   2.88256e-18 
    5051.86   1.97218e-18 
    5056.86   2.05831e-18 
    5061.86   2.29375e-18 
    5066.86   2.66436e-18 
    5071.86   2.03728e-18 
    5076.86   2.40324e-18 
    5081.86   1.96006e-18 
    5086.86   2.28119e-18 
    5091.86   2.16153e-18 
    5096.86   2.26604e-18 
    5101.86   2.32559e-18 
    5106.86   2.14981e-18 
    5111.86   1.37546e-18 
    5116.86   2.62527e-18 
    5121.86   2.55193e-18 
    5126.86   9.09184e-19 
    5131.86   1.90277e-18 
    5136.86    2.0481e-18 
    5141.86   1.71748e-18 
    5146.86     1.737e-18 
    5151.86    2.5123e-18 
    5156.86   1.14434e-18 
    5161.86   1.90281e-18 
    5166.86   2.52615e-18 
    5171.86   2.11655e-18 
    5176.86   2.01996e-18 
    5181.86   2.45972e-18 
    5186.86   1.97549e-18 
    5191.86   2.20319e-18 
    5196.86   2.42891e-18 
    5201.86   2.50172e-18 
    5206.86   2.00136e-18 
    5211.86   2.60275e-18 
    5216.86   2.42088e-18 
    5221.86   2.09628e-18 
    5226.86   1.04492e-18 
    5231.86    1.7665e-18 
    5236.86   1.76337e-18 
    5241.86   2.27401e-18 
    5246.86    8.4067e-19 
    5251.86     1.859e-18 
    5256.86   1.76341e-18 
    5261.86    1.2046e-18 
    5266.86   9.67677e-19 
    5271.86   1.58088e-18 
    5276.86   7.47746e-19 
    5281.86   4.27834e-19 
    5286.86   1.07498e-18 
    5291.86   1.25089e-18 
    5296.86   7.78283e-19 
    5301.86   1.68078e-18 
    5306.86   1.40724e-18 
    5311.86   1.29114e-18 
    5316.86   1.87492e-18 
    5321.86   1.50894e-18 
    5326.86   1.49219e-18 
    5331.86   1.29622e-18 
    5336.86   2.16527e-18 
    5341.86   2.07428e-18 
    5346.86    2.4945e-18 
    5351.86   1.77845e-18 
    5356.86   1.50905e-18 
    5361.86   1.25592e-18 
    5366.86    2.8133e-18 
    5371.86   1.88305e-18 
    5376.86   2.22997e-18 
    5381.86   1.63206e-18 
    5386.86   2.59417e-18 
    5391.86   2.59889e-18 
    5396.86   2.70267e-18 
    5401.86   2.36925e-18 
    5406.86   2.04986e-18 
    5411.86   1.65432e-18 
    5416.86   2.06043e-18 
    5421.86   1.82777e-18 
    5426.86   2.43263e-18 
    5431.86   1.62905e-18 
    5436.86   2.01702e-18 
    5441.86    2.1689e-18 
    5446.86   1.92617e-18 
    5451.86   1.67155e-18 
    5456.86   2.24821e-18 
    5461.86   2.46686e-18 
    5466.86   1.13935e-18 
    5471.86   2.17593e-18 
    5476.86   1.68597e-18 
    5481.86   2.10064e-18 
    5486.86   1.91505e-18 
    5491.86    2.3827e-18 
    5496.86   2.86929e-18 
    5501.86    2.6686e-18 
    5506.86   2.08594e-18 
    5511.86   2.62904e-18 
    5516.86   1.71958e-18 
    5521.86   1.57405e-18 
    5526.86   1.14535e-18 
    5531.86   2.19025e-18 
    5536.86   1.32312e-18 
    5541.86     1.446e-18 
    5546.86   2.07507e-18 
    5551.86   2.26174e-18 
    5556.86   2.17805e-18 
    5561.86   1.93345e-18 
    5566.86  -9.72197e-18 
    5571.86   6.42561e-18 
    5576.86    1.8177e-17 
    5581.86  -5.84013e-18 
    5586.86   1.70262e-18 
    5591.86   1.93713e-18 
    5596.86   1.75445e-18 
    5601.86   2.34968e-18 
    5606.86   1.73289e-18 
    5611.86   1.52128e-18 
    5616.86   1.59792e-18 
    5621.86   2.28881e-18 
    5626.86   1.89357e-18 
    5631.86   1.88899e-18 
    5636.86   1.65155e-18 
    5641.86    2.1279e-18 
    5646.86   1.98574e-18 
    5651.86   1.92921e-18 
    5656.86   1.96386e-18 
    5661.86   2.20658e-18 
    5666.86   2.31399e-18 
    5671.86   2.36997e-18 
    5676.86   1.48945e-18 
    5681.86   2.37448e-18 
    5686.86     2.157e-18 
    5691.86   1.34182e-18 
    5696.86     1.686e-18 
    5701.86   2.01429e-18 
    5706.86   2.67792e-18 
    5711.86   2.01407e-18 
    5716.86   2.34251e-18 
    5721.86   2.88814e-18 
    5726.86   1.95874e-18 
    5731.86   3.26834e-18 
    5736.86   2.21346e-18 
    5741.86   1.94149e-18 
    5746.86   1.91621e-18 
    5751.86   2.78876e-18 
    5756.86   1.13207e-18 
    5761.86   1.83222e-18 
    5766.86   2.06734e-18 
    5771.86   2.38793e-18 
    5776.86   1.96877e-18 
    5781.86   1.44545e-18 
    5786.86   1.78709e-18 
    5791.86   1.98923e-18 
    5796.86   2.20505e-18 
    5801.86   2.15192e-18 
    5806.86   2.01719e-18 
    5811.86   1.87251e-18 
    5816.86   2.17689e-18 
    5821.86   2.57038e-18 
    5826.86   1.54994e-18 
    5831.86   2.52028e-18 
    5836.86   2.07214e-18 
    5841.86   1.64463e-18 
    5846.86   1.97617e-18 
    5851.86   2.16633e-18 
    5856.86   2.05718e-18 
    5861.86   2.14586e-18 
    5866.86   2.83294e-18 
    5871.86   1.58969e-18 
    5876.86   2.20184e-18 
    5881.86   7.27447e-19 
    5886.86   2.71701e-18 
    5891.86   2.26288e-18 
    5896.86    1.6294e-18 
    5901.86   1.77752e-18 
    5906.86   2.03592e-18 
    5911.86   1.80688e-18 
    5916.86   2.29369e-18 
    5921.86   1.66242e-18 
    5926.86   1.96077e-18 
    5931.86   1.96707e-18 
    5936.86   1.91693e-18 
    5941.86   2.90731e-18 
    5946.86   2.53549e-18 
    5951.86   2.46276e-18 
    5956.86   1.99265e-18 
    5961.86   2.03359e-18 
    5966.86   2.05888e-18 
    5971.86   1.68301e-18 
    5976.86   2.18442e-18 
    5981.86   2.18419e-18 
    5986.86   2.21247e-18 
    5991.86   2.50297e-18 
    5996.86   2.40299e-18 
    6001.86   2.38896e-18 
    6006.86   2.23368e-18 
    6011.86   2.58958e-18 
    6016.86   2.53945e-18 
    6021.86   2.78113e-18 
    6026.86   2.54249e-18 
    6031.86   2.52613e-18 
    6036.86   2.59831e-18 
    6041.86   3.20248e-18 
    6046.86   2.29672e-18 
    6051.86   2.23502e-18 
    6056.86   2.04415e-18 
    6061.86   2.24077e-18 
    6066.86   1.92464e-18 
    6071.86   2.32851e-18 
    6076.86   2.29122e-18 
    6081.86   2.07748e-18 
    6086.86   2.64494e-18 
    6091.86   2.39918e-18 
    6096.86   2.58904e-18 
    6101.86   2.68355e-18 
    6106.86   2.61933e-18 
    6111.86   2.22707e-18 
    6116.86   2.29933e-18 
    6121.86   2.73033e-18 
    6126.86   2.57756e-18 
    6131.86   2.41222e-18 
    6136.86   2.54484e-18 
    6141.86   2.76977e-18 
    6146.86   3.01144e-18 
    6151.86   2.65071e-18 
    6156.86   2.24212e-18 
    6161.86   2.51482e-18 
    6166.86   2.98463e-18 
    6171.86   3.71059e-18 
    6176.86   2.90652e-18 
    6181.86   2.87437e-18 
    6186.86   3.17134e-18 
    6191.86    2.8608e-18 
    6196.86   2.37506e-18 
    6201.86   2.64378e-18 
    6206.86   2.45491e-18 
    6211.86    2.4299e-18 
    6216.86   2.10045e-18 
    6221.86   2.20507e-18 
    6226.86   2.19554e-18 
    6231.86   2.76755e-18 
    6236.86   2.93296e-18 
    6241.86   2.62301e-18 
    6246.86   2.74943e-18 
    6251.86   2.35787e-18 
    6256.86    2.6036e-18 
    6261.86   2.08055e-18 
    6266.86   2.64724e-18 
    6271.86   2.56166e-18 
    6276.86   2.02237e-18 
    6281.86   2.30049e-18 
    6286.86   2.01339e-18 
    6291.86   3.59828e-21 
    6296.86   6.96135e-18 
    6301.86   6.20403e-18 
    6306.86   2.24256e-18 
    6311.86   2.17791e-18 
    6316.86   2.76617e-18 
    6321.86   2.63884e-18 
    6326.86   3.09524e-18 
    6331.86   2.82513e-18 
    6336.86    2.2716e-18 
    6341.86   2.68887e-18 
    6346.86   2.71113e-18 
    6351.86   2.00144e-18 
    6356.86    3.3657e-18 
    6361.86   3.69374e-18 
    6366.86   2.50566e-18 
    6371.86   2.50177e-18 
    6376.86   2.17115e-18 
    6381.86   2.72909e-18 
    6386.86   3.03166e-18 
    6391.86   2.68648e-18 
    6396.86   2.36035e-18 
    6401.86   2.60966e-18 
    6406.86   3.12289e-18 
    6411.86    3.0441e-18 
    6416.86   2.42782e-18 
    6421.86     1.924e-18 
    6426.86   2.46409e-18 
    6431.86   2.49762e-18 
    6436.86   2.75584e-18 
    6441.86   2.11671e-18 
    6446.86   2.67367e-18 
    6451.86   2.35756e-18 
    6456.86   2.35499e-18 
    6461.86   1.96159e-18 
    6466.86    2.0992e-18 
    6471.86    2.4668e-18 
    6476.86   2.35115e-18 
    6481.86   2.44788e-18 
    6486.86    2.0218e-18 
    6491.86   2.49893e-18 
    6496.86    2.6634e-18 
    6501.86   1.97585e-18 
    6506.86   2.52134e-18 
    6511.86   1.82831e-18 
    6516.86   2.29357e-18 
    6521.86   1.83559e-18 
    6526.86   2.49761e-18 
    6531.86   2.92472e-18 
    6536.86   2.50061e-18 
    6541.86   2.24524e-18 
    6546.86   2.48491e-18 
    6551.86   2.44623e-18 
    6556.86   2.21436e-18 
    6561.86   2.47823e-18 
    6566.86   2.06035e-18 
    6571.86   2.71098e-18 
    6576.86   2.92626e-18 
    6581.86   2.26877e-18 
    6586.86   2.18416e-18 
    6591.86   2.60751e-18 
    6596.86   1.87187e-18 
    6601.86   2.01741e-18 
    6606.86   2.17314e-18 
    6611.86   2.57913e-18 
    6616.86   2.40591e-18 
    6621.86   2.27924e-18 
    6626.86   2.10987e-18 
    6631.86   2.02526e-18 
    6636.86    2.0248e-18 
    6641.86    2.1144e-18 
    6646.86   2.52688e-18 
    6651.86   2.00697e-18 
    6656.86   2.13585e-18 
    6661.86    1.8523e-18 
    6666.86   2.15026e-18 
    6671.86   2.19264e-18 
    6676.86   2.87496e-18 
    6681.86   2.41927e-18 
    6686.86   2.44772e-18 
    6691.86   2.25045e-18 
    6696.86   2.28378e-18 
    6701.86   2.39361e-18 
    6706.86   2.42268e-18 
    6711.86   2.74945e-18 
    6716.86    2.9861e-18 
    6721.86   2.43299e-18 
    6726.86   2.96964e-18 
    6731.86   2.73111e-18 
    6736.86   2.11611e-18 
    6741.86   2.42729e-18 
    6746.86   2.70106e-18 
    6751.86    2.9671e-18 
    6756.86   2.61512e-18 
    6761.86   3.03546e-18 
    6766.86   2.81169e-18 
    6771.86   2.62819e-18 
    6776.86   2.79512e-18 
    6781.86   3.02632e-18 
    6786.86   2.28607e-18 
    6791.86   2.64037e-18 
    6796.86   2.65665e-18 
    6801.86   2.42478e-18 
    6806.86   2.43818e-18 
    6811.86   2.59449e-18 
    6816.86   2.01483e-18 
    6821.86   2.26637e-18 
    6826.86   2.91669e-18 
    6831.86   2.86779e-18 
    6836.86   2.94747e-18 
    6841.86   2.72505e-18 
    6846.86   2.40276e-18 
    6851.86    1.6158e-18 
    6856.86   2.22016e-18 
    6861.86   3.18801e-18 
    6866.86   1.87421e-18 
    6871.86   2.03998e-18 
    6876.86   2.13654e-18 
    6881.86   2.35756e-18 
    6886.86   2.59312e-18 
    6891.86   1.97222e-18 
    6896.86   2.07699e-18 
    6901.86   2.03296e-18 
    6906.86   2.88722e-18 
    6911.86    2.4144e-18 
    6916.86    2.1272e-18 
    6921.86   3.00278e-18 
    6926.86   2.08459e-18 
    6931.86   2.60275e-18 
    6936.86    2.0593e-18 
    6941.86   2.33204e-18 
    6946.86   2.40448e-18 
    6951.86   2.23377e-18 
    6956.86   2.27741e-18 
    6961.86   2.35884e-18 
    6966.86   1.81583e-18 
    6971.86    1.8088e-18 
    6976.86   2.80207e-18 
    6981.86   1.95001e-18 
    6986.86   1.85227e-18 
    6991.86    1.7519e-18 
    6996.86   2.40979e-18 
    7001.86     1.583e-18 
    7006.86   2.58053e-18 
    7011.86   2.00426e-18 
    7016.86   2.12173e-18 
    7021.86   1.80558e-18 
    7026.86   2.49156e-18 
    7031.86   2.09069e-18 
    7036.86   1.72039e-18 
    7041.86   1.71581e-18 
    7046.86   2.19398e-18 
    7051.86   2.02712e-18 
    7056.86   1.83067e-18 
    7061.86   2.08049e-18 
    7066.86   2.29735e-18 
    7071.86   2.46337e-18 
    7076.86    2.0849e-18 
    7081.86   2.20208e-18 
    7086.86   2.33405e-18 
    7091.86   2.39422e-18 
    7096.86   1.89936e-18 
    7101.86   1.97621e-18 
    7106.86   2.28679e-18 
    7111.86   1.89239e-18 
    7116.86   2.21818e-18 
    7121.86   2.24282e-18 
    7126.86   1.86053e-18 
    7131.86    1.9603e-18 
    7136.86   1.78434e-18 
    7141.86   2.04261e-18 
    7146.86   2.22805e-18 
    7151.86   2.38729e-18 
    7156.86    2.5413e-18 
    7161.86   2.10136e-18 
    7166.86   1.91946e-18 
    7171.86   1.91738e-18 
    7176.86   1.83815e-18 
    7181.86   1.95014e-18 
    7186.86   1.89501e-18 
    7191.86   2.39022e-18 
    7196.86   1.78631e-18 
    7201.86   1.86229e-18 
    7206.86   2.31854e-18 
    7211.86   2.28763e-18 
    7216.86   2.09551e-18 
    7221.86   1.84286e-18 
    7226.86   2.17258e-18 
    7231.86   1.59786e-18 
    7236.86   2.48757e-18 
    7241.86   2.49008e-18 
    7246.86   1.92902e-18 
    7251.86   1.93107e-18 
    7256.86   2.10543e-18 
    7261.86    1.7167e-18 
    7266.86   1.19786e-18 
    7271.86    2.4612e-18 
    7276.86   2.67611e-18 
    7281.86     1.843e-18 
    7286.86   1.93105e-18 
    7291.86   1.82798e-18 
    7296.86   2.23969e-18 
    7301.86   2.94126e-18 
    7306.86   1.48495e-18 
    7311.86   3.15789e-18 
    7316.86   2.73111e-18 
    7321.86   1.75838e-18 
    7326.86   2.21995e-18 
    7331.86   8.75106e-19 
    7336.86    2.9064e-18 
    7341.86   2.52193e-18 
    7346.86   9.40895e-19 
    7351.86   2.10075e-18 
    7356.86   1.97468e-18 
    7361.86    1.4282e-18 
    7366.86   2.86587e-18 
    7371.86   2.19627e-18 
    7376.86   1.76905e-18 
    7381.86   1.97825e-18 
    7386.86     1.923e-18 
    7391.86   1.39725e-18 
    7396.86   2.65947e-18 
    7401.86   2.34717e-18 
    7406.86   1.98928e-18 
    7411.86   1.85509e-18 
    7416.86   1.93166e-18 
    7421.86   2.03241e-18 
    7426.86   1.58348e-18 
    7431.86   1.73655e-18 
    7436.86   2.43209e-18 
    7441.86   1.90554e-18 
    7446.86   2.48871e-18 
    7451.86   2.05337e-18 
    7456.86   1.63042e-18 
    7461.86   1.62508e-18 
    7466.86   2.23267e-18 
    7471.86   1.73553e-18 
    7476.86    1.7965e-18 
    7481.86   1.94547e-18 
    7486.86    1.2206e-18 
    7491.86    1.9388e-18 
    7496.86   2.01489e-18 
    7501.86   1.99858e-18 
    7506.86   1.62357e-18 
    7511.86   1.05771e-18 
    7516.86   2.01792e-18 
    7521.86   1.97792e-18 
    7526.86   1.22371e-18 
    7531.86   1.64303e-18 
    7536.86   1.61591e-18 
    7541.86   1.91985e-18 
    7546.86   1.47076e-18 
    7551.86   1.61551e-18 
    7556.86   1.79365e-18 
    7561.86   1.18725e-18 
    7566.86   2.11935e-18 
    7571.86   1.84344e-18 
    7576.86    1.1493e-18 
    7581.86   1.77603e-18 
    7586.86   1.45531e-18 
    7591.86   1.32307e-18 
    7596.86   1.14896e-18 
    7601.86   5.38994e-19 
    7606.86   3.09582e-19 
    7611.86   1.05896e-18 
    7616.86   1.15968e-18 
    7621.86   1.03077e-18 
    7626.86   1.27544e-18 
    7631.86   1.33288e-18 
    7636.86    1.2364e-18 
    7641.86   1.22131e-18 
    7646.86   1.14745e-18 
    7651.86   1.37912e-18 
    7656.86   1.47859e-18 
    7661.86   1.84365e-18 
    7666.86   1.74739e-18 
    7671.86   1.72987e-18 
    7676.86   1.46345e-18 
    7681.86    1.8917e-18 
    7686.86    2.3674e-18 
    7691.86   1.26462e-18 
    7696.86   2.22227e-18 
    7701.86   6.76459e-19 
    7706.86   1.44695e-18 
    7711.86    3.6898e-18 
    7716.86   2.35157e-18 
    7721.86   1.33195e-18 
    7726.86   2.36625e-18 
    7731.86   2.08464e-18 
    7736.86   1.57457e-18 
    7741.86   9.10387e-19 
    7746.86   2.95496e-18 
    7751.86   3.57222e-18 
    7756.86    2.3186e-18 
    7761.86    2.1922e-18 
    7766.86   2.32517e-18 
    7771.86   2.51529e-18 
    7776.86    2.4481e-18 
    7781.86   1.29196e-18 
    7786.86   2.09418e-18 
    7791.86   3.64025e-18 
    7796.86   1.58086e-18 
    7801.86   2.30786e-18 
    7806.86   2.53121e-18 
    7811.86   1.10637e-18 
    7816.86   3.21194e-18 
    7821.86   3.66265e-18 
    7826.86   1.46691e-18 
    7831.86   2.35538e-18 
    7836.86   2.25208e-18 
    7841.86   1.59054e-18 
    7846.86   3.05928e-18 
    7851.86   4.04378e-18 
    7856.86   1.90356e-18 
    7861.86    2.0811e-18 
    7866.86   2.21893e-18 
    7871.86   2.37623e-18 
    7876.86   2.48385e-18 
    7881.86   2.67849e-18 
    7886.86   3.00085e-18 
    7891.86   2.52694e-18 
    7896.86   2.29933e-18 
    7901.86   1.16563e-18 
    7906.86   3.42617e-18 
    7911.86   3.90335e-18 
    7916.86   2.39694e-18 
    7921.86   2.20334e-18 
    7926.86   2.47431e-18 
    7931.86   2.25839e-18 
    7936.86   2.20906e-18 
    7941.86   2.51798e-18 
    7946.86   3.11414e-18 
    7951.86   1.49565e-18 
    7956.86   1.96799e-18 
    7961.86   3.42138e-18 
    7966.86   1.70141e-18 
    7971.86   2.11473e-18 
    7976.86   3.24924e-18 
    7981.86   1.59369e-18 
    7986.86   3.06589e-18 
    7991.86   3.78424e-18 
    7996.86   1.52193e-18 
    8001.86   2.14813e-18 
    8006.86   2.19321e-18 
    8011.86   2.54944e-18 
    8016.86   1.24246e-18 
    8021.86   2.93218e-18 
    8026.86   3.23887e-18 
    8031.86   1.79477e-18 
    8036.86   1.63821e-18 
    8041.86   2.01154e-18 
    8046.86   2.51095e-18 
    8051.86   1.96295e-18 
    8056.86   1.77097e-18 
    8061.86   2.74949e-18 
    8066.86   1.43034e-18 
    8071.86   1.80967e-18 
    8076.86   1.73154e-18 
    8081.86   2.18311e-18 
    8086.86   1.95107e-18 
    8091.86   1.73649e-18 
    8096.86   2.12865e-18 
    8101.86   2.24348e-18 
    8106.86   2.07537e-18 
    8111.86   1.82524e-18 
    8116.86   1.91504e-18 
    8121.86   1.66309e-18 
    8126.86   2.13574e-18 
    8131.86   1.61967e-18 
    8136.86   1.07427e-18 
    8141.86   1.34808e-18 
    8146.86   1.80034e-18 
    8151.86   1.79454e-18 
    8156.86   1.94405e-18 
    8161.86   1.68277e-18 
    8166.86   2.11082e-18 
    8171.86    1.5925e-18 
    8176.86   1.76148e-18 
    8181.86   1.67207e-18 
    8186.86   1.39045e-18 
    8191.86   1.49737e-18 
    8196.87   1.91031e-18 
    8201.87   1.48842e-18 
    8206.87   1.07683e-18 
    8211.87   1.76447e-18 
    8216.87   1.52287e-18 
    8221.87   1.42328e-18 
    8226.87   1.50474e-18 
    8231.87   1.42771e-18 
    8236.87   1.75835e-18 
    8241.87   2.12968e-18 
    8246.87   1.21899e-18 
    8251.87   1.63701e-18 
    8256.87   1.30069e-18 
    8261.87   1.64792e-18 
    8266.87   9.65843e-19 
    8271.87   1.24052e-18 
    8276.87   1.36055e-18 
    8281.87   2.67865e-18 
    8286.87      7.07e-19 
    8291.87   1.08642e-18 
    8296.87   3.63588e-18 
    8301.87   1.04065e-18 
    8306.87   1.80898e-18 
    8311.87   1.48708e-18 
    8316.87   1.55796e-18 
    8321.87   1.64407e-18 
    8326.87   1.50274e-18 
    8331.87   8.58377e-19 
    8336.87    1.5279e-18 
    8341.87   2.83152e-18 
    8346.87   1.56569e-18 
    8351.87   1.69502e-18 
    8356.87   1.01054e-18 
    8361.87   2.23199e-18 
    8366.87   1.39925e-18 
    8371.87   1.04226e-18 
    8376.87   2.07532e-18 
    8381.87   1.40411e-18 
    8386.87  -5.57129e-20 
    8391.87   2.59784e-18 
    8396.87   4.23748e-18 
    8401.87    1.1094e-18 
    8406.87   9.98372e-19 
    8411.87   2.80152e-18 
    8416.87   1.47959e-18 
    8421.87   3.10333e-19 
    8426.87   2.87303e-18 
    8431.87   2.71137e-18 
    8436.87   1.19655e-18 
    8441.87   1.62342e-18 
    8446.87   2.40008e-18 
    8451.87   1.35281e-18 
    8456.87   3.93241e-19 
    8461.87   2.61429e-18 
    8466.87   1.65649e-18 
    8471.87   1.12559e-18 
    8476.87   1.74281e-18 
    8481.87   1.04501e-18 
    8486.87   1.44639e-18 
    8491.87   1.29927e-18 
    8496.87   1.33164e-18 
    8501.87   2.63455e-18 
    8506.87   1.55819e-18 
    8511.87   1.27554e-18 
    8516.87   1.16448e-18 
    8521.87   1.15105e-18 
    8526.87   1.06832e-18 
    8531.87   1.04798e-18 
    8536.87    1.2201e-18 
    8541.87   1.92129e-18 
    8546.87   2.09396e-18 
    8551.87    1.1387e-18 
    8556.87   1.79685e-18 
    8561.87   2.52101e-18 
    8566.87   1.35532e-18 
    8571.87   1.57424e-18 
    8576.87   1.32241e-18 
    8581.87   1.53206e-18 
    8586.87   1.59701e-18 
    8591.87   1.24258e-18 
    8596.87   1.43519e-18 
    8601.87   1.45779e-18 
    8606.87   1.50411e-18 
    8611.87   1.10507e-18 
    8616.87   1.34474e-18 
    8621.87   2.09187e-18 
    8626.87   2.00387e-18 
    8631.87   1.51502e-18 
    8636.87   9.81982e-19 
    8641.87   2.42588e-18 
    8646.87    3.1084e-18 
    8651.87   1.64553e-18 
    8656.87   1.41781e-18 
    8661.87   1.40829e-18 
    8666.87   1.79038e-18 
    8671.87   1.32516e-18 
    8676.87   1.36358e-18 
    8681.87   1.32488e-18 
    8686.87   1.45554e-18 
    8691.87   1.32992e-18 
    8696.87   1.12204e-18 
    8701.87   1.46323e-18 
    8706.87   1.82206e-18 
    8711.87   1.13414e-18 
    8716.87   1.30475e-18 
    8721.87   1.56798e-18 
    8726.87   1.44717e-18 
    8731.87   1.09636e-18 
    8736.87   1.52708e-18 
    8741.87   1.58582e-18 
    8746.87    1.1642e-18 
    8751.87   7.39271e-19 
    8756.87   1.84994e-18 
    8761.87   2.97998e-18 
    8766.87   1.50696e-18 
    8771.87   2.04948e-18 
    8776.87   2.45882e-18 
    8781.87    3.3618e-19 
    8786.87   1.98122e-18 
    8791.87   1.79967e-18 
    8796.87   1.23513e-18 
    8801.87   1.77871e-18 
    8806.87   1.57345e-18 
    8811.87   1.00068e-18 
    8816.87  -8.72425e-19 
    8821.87   4.31258e-18 
    8826.87   3.17905e-18 
    8831.87   1.32628e-18 
    8836.87   2.05043e-18 
    8841.87   6.29366e-19 
    8846.87   2.12663e-18 
    8851.87   1.24437e-18 
    8856.87    1.0597e-18 
    8861.87   2.09643e-18 
    8866.87   1.51077e-18 
    8871.87   8.65264e-19 
    8876.87   1.99082e-19 
    8881.87   2.43463e-18 
    8886.87   2.76694e-18 
    8891.87  -3.84212e-19 
    8896.87   2.82017e-18 
    8901.87   2.39106e-18 
    8906.87   1.30479e-19 
    8911.87   1.86216e-18 
    8916.87   3.60631e-18 
    8921.87    1.3304e-18 
    8926.87   9.35227e-19 
    8931.87   7.83192e-19 
    8936.87   2.14464e-18 
    8941.87   2.04903e-18 
    8946.87   1.87567e-20 
    8951.87   2.79894e-18 
    8956.87   2.70127e-18 
    8961.87   2.26915e-19 
    8966.87   1.34101e-18 
    8971.87   1.50148e-18 
    8976.87   1.18372e-18 
    8981.87   1.93338e-18 
    8986.87   1.07966e-18 
    8991.87   7.25403e-19 
    8996.87   2.29128e-18 
    9001.87   2.25167e-18 
    9006.87   1.17296e-18 
    9011.87   1.04885e-18 
    9016.87   1.50638e-18 
    9021.87   1.56922e-18 
    9026.87   1.16648e-18 
    9031.87   1.77834e-18 
    9036.87   1.49318e-18 
    9041.87   1.38848e-18 
    9046.87   1.60918e-18 
    9051.87   1.39783e-18 
    9056.87   1.32152e-18 
    9061.87   1.40792e-18 
    9066.87   1.68036e-18 
    9071.87   1.45557e-18 
    9076.87   1.15688e-18 
    9081.87   1.38754e-18 
    9086.87   1.63956e-18 
    9091.87   1.26543e-18 
    9096.87   1.07217e-18 
    9101.87   1.56825e-18 
    9106.87   1.40363e-18 
    9111.87   1.58044e-18 
    9116.87   1.43645e-18 
    9121.87   1.81603e-18 
    9126.87   1.52447e-18 
    9131.87   1.38219e-18 
    9136.87   1.31172e-18 
    9141.87   1.42719e-18 
    9146.87   1.42374e-18 
    9151.87   1.30945e-18 
    9156.87   1.38273e-18 
    9161.87   1.53089e-18 
    9166.87   1.45947e-18 
    9171.87   1.42834e-18 
    9176.87   1.48937e-18 
    9181.87   1.64006e-18 
    9186.87    1.4279e-18 
    9191.87    1.5074e-18 
    9196.87   1.34165e-18 
    9201.87   1.81524e-18 
    9206.87   1.65952e-18 
    9211.87   1.43112e-18 
    9216.87   1.63532e-18 
    9221.87   2.07322e-18 
    9226.87   1.78059e-18 
    9231.87   1.41445e-18 
    9236.87     1.694e-18 
    9241.87    1.5694e-18 
    9246.87   1.60801e-18 
    9251.87    1.3316e-18 
    9256.87   1.67961e-18 
    9261.87   1.41215e-18 
    9266.87   1.16032e-18 
    9271.87   1.58506e-18 
    9276.87   1.70719e-18 
    9281.87   1.55193e-18 
    9286.87    1.4666e-18 
    9291.87   1.22566e-18 
    9296.87  -2.96067e-19 
    9301.87   1.14955e-18 
    9306.87   3.48064e-18 
    9311.87  -8.26624e-20 
    9316.87   1.26259e-18 
    9321.87   2.44613e-18 
    9326.87   4.03035e-19 
    9331.87   1.00431e-18 
    9336.87   1.38412e-18 
    9341.87    7.1087e-19 
    9346.87   1.10584e-18 
    9351.87   1.04253e-18 
    9356.87   1.00449e-18 
    9361.87  -4.00871e-20 
    9366.87    -4.713e-19 
    9371.87   4.51025e-18 
    9376.87   4.76022e-18 
    9381.87  -3.07519e-19 
    9386.87   1.36386e-18 
    9391.87   1.04651e-18 
    9396.87   1.76255e-18 
    9401.87   1.46256e-18 
    9406.87   3.41816e-19 
    9411.87   7.57318e-19 
    9416.87   2.73733e-18 
    9421.87   1.19304e-18 
    9426.87  -5.30859e-19 
    9431.87   9.88813e-19 
    9436.87   2.34822e-18 
    9441.87   3.25595e-19 
    9446.87  -3.89899e-19 
    9451.87   1.70315e-18 
    9456.87    2.5217e-18 
    9461.87  -1.10368e-19 
    9466.87  -1.62565e-18 
    9471.87   2.13277e-18 
    9476.87   4.16504e-18 
    9481.87  -7.72064e-19 
    9486.87   1.19461e-18 
    9491.87   9.46545e-20 
    9496.87   2.02649e-18 
    9501.87   2.21954e-18 
    9506.87   1.51238e-19 
    9511.87    1.2337e-18 
    9516.87   1.30839e-18 
    9521.87   1.06445e-18 
    9526.87   7.43716e-19 
    9531.87   1.12243e-18 
    9536.87   9.27729e-19 
    9541.87  -2.27791e-19 
    9546.87   1.27662e-18 
    9551.87   1.66992e-18 
    9556.87  -5.11207e-19 
    9561.87   9.79319e-19 
    9566.87   2.52641e-18 
    9571.87   1.19326e-19 
    9576.87    9.5962e-19 
    9581.87   6.03415e-19 
    9586.87   1.06607e-18 
    9591.87   5.79622e-19 
    9596.87   5.28664e-19 
    9601.87   1.04837e-18 
    9606.87   9.15772e-19 
    9611.87   5.89722e-20 
    9616.87   6.25655e-19 
    9621.87   7.96998e-19 
    9626.87   1.03288e-18 
    9631.87   1.02279e-18 
    9636.87   9.69346e-19 
    9641.87   6.10655e-19 
    9646.87   1.26799e-18 
    9651.87   5.93982e-19 
    9656.87   1.03472e-18 
    9661.87   1.91619e-18 
    9666.87   1.42349e-18 
    9671.87    1.0685e-18 
    9676.87   1.03519e-18 
    9681.87   1.48788e-18 
    9686.87   2.04205e-19 
    9691.87   2.65123e-19 
    9696.87   1.71994e-18 
    9701.87   1.37767e-19 
    9706.87   1.50814e-19 
    9711.87   1.54918e-18 
    9716.87   1.55048e-18 
    9721.87     6.696e-19 
    9726.87   1.18432e-20 
    9731.87   1.23217e-18 
    9736.87   1.50573e-18 
    9741.87   8.98297e-19 
    9746.87   1.44584e-18 
    9751.87   9.21763e-19 
    9756.87   1.13422e-18 
    9761.87   1.07248e-18 
    9766.87    8.9429e-19 
    9771.87   6.85985e-19 
    9776.87   5.01299e-20 
    9781.87   9.63332e-19 
    9786.87   9.13194e-19 
    9791.87   1.00341e-18 
    9796.87   1.37482e-19 
    9801.87   8.13066e-19 
    9806.87      1.68e-18 
    9811.87   9.71401e-19 
    9816.87   9.25555e-19 
    9821.87   1.07268e-18 
    9826.87   1.09248e-18 
    9831.87   8.79331e-19 
    9836.87   7.26728e-19 
    9841.87    1.8346e-18 
    9846.87   8.37789e-19 
    9851.87   1.66886e-19 
    9856.87   1.85925e-19 
    9861.87   2.91896e-19 
    9866.87   2.97214e-18 
    9871.87   4.08306e-18 
    9876.87   5.80382e-20 
    9881.87   2.57679e-19 
    9886.87     1.905e-18 
    9891.87   2.52589e-18 
    9896.87   6.63892e-19 
    9901.87  -1.27576e-18 
    9906.87   1.05338e-18 
    9911.87   5.27275e-18 
    9916.87  -4.41296e-19 
    9921.87   7.92854e-19 
    9926.87   3.96922e-19 
    9931.87   5.72701e-21 
    9936.87   1.52942e-18 
    9941.87   4.67911e-18 
    9946.87   1.98793e-18 
    9951.87   3.86388e-18 
    9956.87   3.88386e-18 
    9961.87    2.8295e-18 
    9966.87   8.61897e-19 
    9971.87   5.14987e-19 
    9976.87   8.10987e-19 
    9981.87    2.6635e-19 
    9986.87    1.3833e-18 
    9991.87   2.00852e-18 
    9996.87   1.00423e-18 
    10001.9  -1.94486e-18 
    10006.9   1.01039e-18 
    10011.9   4.26933e-18 
    10016.9   2.22766e-19 
    10021.9   4.47934e-18 
    10026.9   9.56527e-19 
    10031.9   1.19666e-18 
    10036.9    2.8537e-18 
    10041.9   6.57612e-18 
    10046.9   3.01458e-18 
    10051.9   2.85734e-18 
    10056.9   5.15074e-18 
    10061.9  -2.50208e-19 
    10066.9  -6.32618e-19 
    10071.9   1.34238e-18 
    10076.9   1.04717e-17 
    10081.9   3.70182e-18 
    10086.9  -1.58935e-18 
    10091.9   2.74393e-19 
    10096.9   7.84957e-18 
