# STATUS =
# OBJECT = 2016ard
# TELESCOPE = MMT
# INSTRUMENT = MMT-Blue
# DATE-OBS = 2016-04-14 00:00:00.00
# MJD = 57492.0
# EXPTIME = 2400
# AIRMASS = --
# SLIT = --
# DISPERSER = --
# SOURCE = 2018arXiv180507372B
# FILTER =
# RESOLUTION =
# FLUX_STANDARD =
# EXTINCTION_CORRECTED = --
# PHOTOMETRY_CALIBRATED =
# TELLURIC_CORRECTED =
# FLUX_UNITS = erg cm(-2) sec(-1) Ang(-1)
# WAVE_UNITS = Angstrom
# QUALITY = --
# MIN_WAVE = 3356.0
# MAX_WAVE = 8578.1
# COMMENT = --
       Wavelength          Flux 
          3357.95   3.51227e-17 
           3359.9  2.755365e-17 
          3361.85  3.555608e-17 
           3363.8   3.75358e-17 
          3365.75  2.853847e-17 
           3367.7  4.077455e-17 
          3369.65  4.867759e-17 
           3371.6  4.103236e-17 
          3373.55  2.905687e-17 
           3375.5  1.899344e-17 
          3377.45  2.740326e-17 
           3379.4  3.424738e-17 
          3381.35  3.247891e-17 
           3383.3  3.201625e-17 
          3385.25  3.842189e-17 
           3387.2  4.153369e-17 
          3389.15  3.793369e-17 
           3391.1  3.276101e-17 
          3393.05  3.576021e-17 
           3395.0  3.962742e-17 
          3396.95  4.868538e-17 
           3398.9  4.925975e-17 
          3400.85  3.678451e-17 
           3402.8  4.700541e-17 
          3404.75  5.945018e-17 
           3406.7  5.588394e-17 
          3408.65  3.562642e-17 
           3410.6  3.193636e-17 
          3412.55  4.300469e-17 
           3414.5  3.807449e-17 
          3416.45  4.012238e-17 
           3418.4  3.322783e-17 
          3420.35  2.899145e-17 
           3422.3  3.889322e-17 
          3424.25  4.093746e-17 
           3426.2  3.441549e-17 
          3428.15  2.556873e-17 
           3430.1   2.79754e-17 
          3432.05  3.866164e-17 
           3434.0  3.939841e-17 
          3435.95  3.419801e-17 
           3437.9  3.197161e-17 
          3439.85  3.233098e-17 
           3441.8  2.893618e-17 
          3443.75  3.401295e-17 
           3445.7  4.225149e-17 
          3447.65  4.030829e-17 
           3449.6  4.407053e-17 
          3451.55  5.028443e-17 
           3453.5  4.290381e-17 
          3455.45  3.642377e-17 
           3457.4  4.032075e-17 
          3459.35  3.548429e-17 
           3461.3  3.611312e-17 
          3463.25  4.642609e-17 
           3465.2  4.385662e-17 
          3467.15  4.132845e-17 
           3469.1  4.484244e-17 
          3471.05  4.240538e-17 
           3473.0  3.339922e-17 
          3474.95  2.733784e-17 
           3476.9  3.140299e-17 
          3478.85  3.873183e-17 
           3480.8  3.857731e-17 
          3482.75  4.032781e-17 
           3484.7  4.729719e-17 
          3486.65  4.266243e-17 
           3488.6  3.830392e-17 
          3490.55  4.458709e-17 
           3492.5  3.905315e-17 
          3494.45  3.875016e-17 
           3496.4  4.858519e-17 
          3498.35  4.063161e-17 
           3500.3  3.298004e-17 
          3502.25  3.074272e-17 
           3504.2  3.552377e-17 
          3506.15  4.662031e-17 
           3508.1  4.106971e-17 
          3510.05  3.638511e-17 
           3512.0  4.121297e-17 
          3513.95  4.349759e-17 
           3515.9  4.299699e-17 
          3517.85  4.095224e-17 
           3519.8  4.245235e-17 
          3521.75  3.629081e-17 
           3523.7  3.273546e-17 
          3525.65  4.241668e-17 
           3527.6  4.052295e-17 
          3529.55  3.464141e-17 
           3531.5  3.506125e-17 
          3533.45   3.43211e-17 
           3535.4  3.486554e-17 
          3537.35  3.328297e-17 
           3539.3  2.834015e-17 
          3541.25  3.426639e-17 
           3543.2  2.713783e-17 
          3545.15  2.348462e-17 
           3547.1  3.884457e-17 
          3549.05  4.356541e-17 
           3551.0  4.568678e-17 
          3552.95  4.181792e-17 
           3554.9  2.941987e-17 
          3556.85  3.093325e-17 
           3558.8  4.192128e-17 
          3560.75  4.210833e-17 
           3562.7  4.432322e-17 
          3564.65  4.133596e-17 
           3566.6  3.747297e-17 
          3568.55  4.052699e-17 
           3570.5   3.90751e-17 
          3572.45   4.11009e-17 
           3574.4  4.250398e-17 
          3576.35  3.868869e-17 
           3578.3  3.554805e-17 
          3580.25  2.858018e-17 
           3582.2  3.156374e-17 
          3584.15  3.678723e-17 
           3586.1  3.281882e-17 
          3588.05  2.748068e-17 
           3590.0  2.305433e-17 
          3591.95  2.621191e-17 
           3593.9  2.626237e-17 
          3595.85  2.404331e-17 
           3597.8  3.363203e-17 
          3599.75  3.450163e-17 
           3601.7  3.792455e-17 
          3603.65  3.857524e-17 
           3605.6  3.251701e-17 
          3607.55  2.873428e-17 
           3609.5   3.32018e-17 
          3611.45  3.605395e-17 
           3613.4  3.117838e-17 
          3615.35  3.085389e-17 
           3617.3  2.752588e-17 
          3619.25  3.532992e-17 
           3621.2  4.126427e-17 
          3623.15   3.16754e-17 
           3625.1   2.94623e-17 
          3627.05  3.195697e-17 
           3629.0  2.782506e-17 
          3630.95  2.546212e-17 
           3632.9  2.128936e-17 
          3634.85  1.394645e-17 
           3636.8  2.259862e-17 
          3638.75  3.205607e-17 
           3640.7  3.228494e-17 
          3642.65  3.200613e-17 
           3644.6  3.126153e-17 
          3646.55  2.524172e-17 
           3648.5  2.869157e-17 
          3650.45  3.802543e-17 
           3652.4  2.552307e-17 
          3654.35  2.287462e-17 
           3656.3  2.873159e-17 
          3658.25  2.682374e-17 
           3660.2  3.118141e-17 
          3662.15  3.713706e-17 
           3664.1   3.31144e-17 
          3666.05  2.854517e-17 
           3668.0   2.95999e-17 
          3669.95  2.865167e-17 
           3671.9   3.24845e-17 
          3673.85  3.657401e-17 
           3675.8  3.090757e-17 
          3677.75  2.261197e-17 
           3679.7  2.775566e-17 
          3681.65  3.783129e-17 
           3683.6  3.629001e-17 
          3685.55  2.783034e-17 
           3687.5  2.565664e-17 
          3689.45  3.359134e-17 
           3691.4  3.757879e-17 
          3693.35  2.915167e-17 
           3695.3  2.103394e-17 
          3697.25  2.751341e-17 
           3699.2   3.58169e-17 
          3701.15    3.3655e-17 
           3703.1  3.243939e-17 
          3705.05  3.814284e-17 
           3707.0  3.807594e-17 
          3708.95  3.339311e-17 
           3710.9  2.800574e-17 
          3712.85  2.772513e-17 
           3714.8  3.357125e-17 
          3716.75  4.014647e-17 
           3718.7  4.330976e-17 
          3720.65  4.025812e-17 
           3722.6  3.334134e-17 
          3724.55  3.354865e-17 
           3726.5  3.080455e-17 
          3728.45  3.271226e-17 
           3730.4  3.866217e-17 
          3732.35  3.968947e-17 
           3734.3  3.812416e-17 
          3736.25  3.947228e-17 
           3738.2  4.183574e-17 
          3740.15  3.548303e-17 
           3742.1  3.393284e-17 
          3744.05   3.66544e-17 
           3746.0  3.475709e-17 
          3747.95  3.491749e-17 
           3749.9  3.712166e-17 
          3751.85  3.862092e-17 
           3753.8  3.535656e-17 
          3755.75  3.412205e-17 
           3757.7  3.390266e-17 
          3759.65  3.739577e-17 
           3761.6  3.912666e-17 
          3763.55  3.711079e-17 
           3765.5  4.081043e-17 
          3767.45  3.864388e-17 
           3769.4  3.757789e-17 
          3771.35  3.205549e-17 
           3773.3  3.246586e-17 
          3775.25  4.403841e-17 
           3777.2  3.967683e-17 
          3779.15  3.562307e-17 
           3781.1  4.149495e-17 
          3783.05  3.723735e-17 
           3785.0  3.179933e-17 
          3786.95  2.917743e-17 
           3788.9  3.046455e-17 
          3790.85  3.968795e-17 
           3792.8  3.645889e-17 
          3794.75  3.515371e-17 
           3796.7  4.206406e-17 
          3798.65   3.60553e-17 
           3800.6  3.688908e-17 
          3802.55  3.414502e-17 
           3804.5  4.012888e-17 
          3806.45  4.151267e-17 
           3808.4  3.604643e-17 
          3810.35  3.496795e-17 
           3812.3  3.351096e-17 
          3814.25  3.750253e-17 
           3816.2  2.983369e-17 
          3818.15  2.953543e-17 
           3820.1  3.153007e-17 
          3822.05  2.864288e-17 
           3824.0  2.882552e-17 
          3825.95  3.265137e-17 
           3827.9  2.801315e-17 
          3829.85  2.434988e-17 
           3831.8  3.101203e-17 
          3833.75  3.874586e-17 
           3835.7  4.138476e-17 
          3837.65  3.595763e-17 
           3839.6  3.375276e-17 
          3841.55   3.57463e-17 
           3843.5  3.543707e-17 
          3845.45  3.821072e-17 
           3847.4  3.435824e-17 
          3849.35  2.961771e-17 
           3851.3  3.695644e-17 
          3853.25  3.822982e-17 
           3855.2  3.266807e-17 
          3857.15  3.498565e-17 
           3859.1  3.977342e-17 
          3861.05  3.694964e-17 
           3863.0  3.772944e-17 
          3864.95  3.919872e-17 
           3866.9  3.981398e-17 
          3868.85  3.523315e-17 
           3870.8   3.34291e-17 
          3872.75  3.394776e-17 
           3874.7  3.557545e-17 
          3876.65  3.168291e-17 
           3878.6  3.213005e-17 
          3880.55  4.391352e-17 
           3882.5  4.268535e-17 
          3884.45  3.436777e-17 
           3886.4  3.226296e-17 
          3888.35  3.729664e-17 
           3890.3  3.549167e-17 
          3892.25   3.00734e-17 
           3894.2  3.276242e-17 
          3896.15  3.465361e-17 
           3898.1  3.399822e-17 
          3900.05  3.295707e-17 
           3902.0  3.396176e-17 
          3903.95  3.393461e-17 
           3905.9   3.65191e-17 
          3907.85   3.94204e-17 
           3909.8   3.90899e-17 
          3911.75  3.688281e-17 
           3913.7  3.481238e-17 
          3915.65  3.319203e-17 
           3917.6  3.590062e-17 
          3919.55    4.0859e-17 
           3921.5    3.6926e-17 
          3923.45  3.621245e-17 
           3925.4  3.891014e-17 
          3927.35  3.806817e-17 
           3929.3  3.467588e-17 
          3931.25  3.776976e-17 
           3933.2  4.091231e-17 
          3935.15  3.962602e-17 
           3937.1   4.05791e-17 
          3939.05  3.860099e-17 
           3941.0  3.178378e-17 
          3942.95  3.496699e-17 
           3944.9   4.07572e-17 
          3946.85   3.53064e-17 
           3948.8  3.733133e-17 
          3950.75  4.046228e-17 
           3952.7  3.642327e-17 
          3954.65  3.952592e-17 
           3956.6  4.434066e-17 
          3958.55  4.429723e-17 
           3960.5  4.103473e-17 
          3962.45     3.818e-17 
           3964.4  3.797098e-17 
          3966.35   3.77064e-17 
           3968.3   3.73301e-17 
          3970.25  3.668275e-17 
           3972.2   3.78763e-17 
          3974.15  4.273462e-17 
           3976.1  3.693922e-17 
          3978.05  3.447854e-17 
           3980.0  3.491723e-17 
          3981.95   3.58946e-17 
           3983.9  3.862758e-17 
          3985.85  3.769859e-17 
           3987.8   3.78579e-17 
          3989.75  4.099329e-17 
           3991.7   4.18112e-17 
          3993.65   4.18425e-17 
           3995.6  3.985873e-17 
          3997.55  3.948868e-17 
           3999.5  4.124014e-17 
          4001.45  3.825034e-17 
           4003.4  3.762847e-17 
          4005.35  4.276557e-17 
           4007.3  4.459294e-17 
          4009.25  4.325541e-17 
           4011.2   4.32471e-17 
          4013.15  3.876659e-17 
           4015.1  3.899464e-17 
          4017.05  3.780185e-17 
           4019.0  3.702347e-17 
          4020.95  4.073795e-17 
           4022.9  4.076471e-17 
          4024.85  4.090496e-17 
           4026.8  3.867359e-17 
          4028.75  4.468385e-17 
           4030.7  4.534512e-17 
          4032.65  4.175861e-17 
           4034.6  4.034969e-17 
          4036.55  3.863579e-17 
           4038.5  3.877541e-17 
          4040.45  4.594929e-17 
           4042.4  3.913168e-17 
          4044.35  4.523456e-17 
           4046.3  5.061418e-17 
          4048.25  4.654513e-17 
           4050.2  4.341771e-17 
          4052.15  5.441275e-17 
           4054.1  4.964114e-17 
          4056.05  4.381814e-17 
           4058.0  4.050042e-17 
          4059.95  4.168282e-17 
           4061.9  4.106747e-17 
          4063.85  4.130196e-17 
           4065.8  4.194068e-17 
          4067.75  4.126546e-17 
           4069.7  4.193492e-17 
          4071.65   4.68581e-17 
           4073.6  4.941407e-17 
          4075.55  4.969577e-17 
           4077.5  4.645853e-17 
          4079.45  4.721695e-17 
           4081.4   4.24452e-17 
          4083.35  4.508599e-17 
           4085.3  4.800349e-17 
          4087.25  4.851946e-17 
           4089.2  5.117691e-17 
          4091.15  4.849757e-17 
           4093.1  4.651257e-17 
          4095.05  4.741623e-17 
           4097.0   4.56546e-17 
          4098.95  4.713621e-17 
           4100.9  4.557172e-17 
          4102.85  5.191168e-17 
           4104.8  5.454545e-17 
          4106.75  4.984747e-17 
           4108.7  5.026691e-17 
          4110.65  5.119183e-17 
           4112.6  5.271059e-17 
          4114.55  5.445205e-17 
           4116.5  5.632342e-17 
          4118.45  5.247626e-17 
           4120.4  4.889656e-17 
          4122.35  4.923277e-17 
           4124.3  5.043606e-17 
          4126.25  5.153058e-17 
           4128.2  5.523429e-17 
          4130.15  4.896819e-17 
           4132.1  4.868031e-17 
          4134.05  5.628694e-17 
           4136.0  6.067736e-17 
          4137.95  5.938306e-17 
           4139.9  5.286499e-17 
          4141.85  5.635278e-17 
           4143.8  6.362102e-17 
          4145.75  5.783798e-17 
           4147.7  5.386671e-17 
          4149.65  5.944277e-17 
           4151.6  5.966663e-17 
          4153.55  5.494864e-17 
           4155.5  5.305453e-17 
          4157.45  4.884466e-17 
           4159.4  4.597018e-17 
          4161.35  5.333781e-17 
           4163.3   5.81096e-17 
          4165.25  6.175546e-17 
           4167.2    6.5185e-17 
          4169.15  6.009467e-17 
           4171.1  5.847062e-17 
          4173.05  5.508158e-17 
           4175.0  5.292489e-17 
          4176.95  5.947486e-17 
           4178.9  6.151913e-17 
          4180.85  6.022202e-17 
           4182.8  5.839249e-17 
          4184.75  6.791133e-17 
           4186.7  6.714007e-17 
          4188.65  6.048845e-17 
           4190.6  5.213447e-17 
          4192.55   5.36699e-17 
           4194.5  5.419845e-17 
          4196.45  5.398509e-17 
           4198.4  5.721679e-17 
          4200.35  5.688188e-17 
           4202.3  5.576582e-17 
          4204.25  5.683804e-17 
           4206.2  5.811906e-17 
          4208.15  5.676702e-17 
           4210.1  6.270441e-17 
          4212.05  6.118714e-17 
           4214.0  5.677696e-17 
          4215.95  6.527295e-17 
           4217.9  6.382357e-17 
          4219.85   5.72841e-17 
           4221.8  5.781755e-17 
          4223.75  5.357878e-17 
           4225.7  5.534306e-17 
          4227.65  5.898354e-17 
           4229.6  5.409608e-17 
          4231.55   5.54134e-17 
           4233.5  6.200606e-17 
          4235.45  6.122456e-17 
           4237.4  6.017454e-17 
          4239.35   5.79451e-17 
           4241.3  5.792608e-17 
          4243.25  5.313405e-17 
           4245.2   5.23364e-17 
          4247.15  5.816098e-17 
           4249.1   5.62001e-17 
          4251.05   5.70359e-17 
           4253.0  5.642622e-17 
          4254.95  6.117654e-17 
           4256.9  5.953752e-17 
          4258.85  6.043061e-17 
           4260.8  5.907684e-17 
          4262.75  6.043598e-17 
           4264.7  6.046495e-17 
          4266.65  6.362669e-17 
           4268.6  6.180495e-17 
          4270.55  6.095216e-17 
           4272.5  7.072565e-17 
          4274.45  6.594013e-17 
           4276.4  6.256279e-17 
          4278.35  6.542884e-17 
           4280.3  7.051438e-17 
          4282.25  6.772198e-17 
           4284.2  6.563859e-17 
          4286.15   6.54136e-17 
           4288.1  6.624938e-17 
          4290.05  6.833086e-17 
           4292.0  7.051355e-17 
          4293.95  7.031968e-17 
           4295.9  6.695438e-17 
          4297.85  6.851667e-17 
           4299.8  6.884084e-17 
          4301.75  6.176397e-17 
           4303.7  6.415277e-17 
          4305.65  6.415227e-17 
           4307.6   6.55736e-17 
          4309.55  6.621204e-17 
           4311.5  7.201906e-17 
          4313.45  7.234774e-17 
           4315.4   6.95858e-17 
          4317.35  7.047069e-17 
           4319.3  6.797591e-17 
          4321.25  7.164434e-17 
           4323.2  6.952172e-17 
          4325.15  6.754745e-17 
           4327.1  6.891396e-17 
          4329.05  6.992651e-17 
           4331.0  7.227223e-17 
          4332.95  7.404127e-17 
           4334.9  7.064254e-17 
          4336.85  6.977064e-17 
           4338.8  7.013747e-17 
          4340.75   7.01466e-17 
           4342.7  7.358879e-17 
          4344.65  7.414328e-17 
           4346.6  7.503727e-17 
          4348.55  6.943013e-17 
           4350.5  7.048786e-17 
          4352.45  6.712076e-17 
           4354.4  6.223401e-17 
          4356.35  7.193171e-17 
           4358.3   7.82507e-17 
          4360.25   7.56931e-17 
           4362.2  7.873611e-17 
          4364.15  7.225326e-17 
           4366.1  7.060742e-17 
          4368.05   7.16891e-17 
           4370.0  6.622455e-17 
          4371.95  6.242898e-17 
           4373.9  6.630961e-17 
          4375.85  7.172478e-17 
           4377.8  7.006428e-17 
          4379.75  6.471258e-17 
           4381.7   6.14479e-17 
          4383.65  6.100217e-17 
           4385.6  6.182047e-17 
          4387.55  6.251282e-17 
           4389.5  6.533837e-17 
          4391.45  6.077422e-17 
           4393.4  6.073697e-17 
          4395.35  5.569663e-17 
           4397.3  4.984294e-17 
          4399.25  5.536462e-17 
           4401.2  5.687417e-17 
          4403.15  5.314322e-17 
           4405.1  5.584325e-17 
          4407.05  5.754277e-17 
           4409.0  4.803286e-17 
          4410.95  5.083057e-17 
           4412.9  5.326682e-17 
          4414.85  4.894531e-17 
           4416.8  4.594041e-17 
          4418.75  5.332492e-17 
           4420.7  5.071948e-17 
          4422.65   4.88672e-17 
           4424.6  5.074218e-17 
          4426.55   5.07818e-17 
           4428.5  5.305673e-17 
          4430.45  4.954996e-17 
           4432.4  4.536517e-17 
          4434.35  4.449422e-17 
           4436.3  5.090273e-17 
          4438.25  4.617073e-17 
           4440.2  4.776647e-17 
          4442.15  4.581066e-17 
           4444.1  4.324562e-17 
          4446.05  4.599308e-17 
           4448.0  4.705955e-17 
          4449.95  4.534211e-17 
           4451.9  5.100165e-17 
          4453.85  4.676134e-17 
           4455.8  4.366225e-17 
          4457.75  4.480235e-17 
           4459.7  4.695352e-17 
          4461.65  4.281675e-17 
           4463.6   5.30785e-17 
          4465.55  4.940133e-17 
           4467.5   4.25584e-17 
          4469.45  5.338803e-17 
           4471.4   4.84297e-17 
          4473.35  5.215614e-17 
           4475.3  5.271812e-17 
          4477.25   5.27671e-17 
           4479.2  5.154706e-17 
          4481.15  5.011087e-17 
           4483.1  5.759035e-17 
          4485.05   5.33337e-17 
           4487.0  5.351419e-17 
          4488.95  5.671593e-17 
           4490.9  5.325148e-17 
          4492.85  5.236687e-17 
           4494.8  5.059592e-17 
          4496.75  5.017129e-17 
           4498.7  4.979054e-17 
          4500.65  4.642777e-17 
           4502.6  5.064945e-17 
          4504.55  4.871183e-17 
           4506.5  5.700806e-17 
          4508.45   5.58148e-17 
           4510.4  5.827114e-17 
          4512.35  5.835546e-17 
           4514.3  6.027214e-17 
          4516.25  5.597829e-17 
           4518.2  6.279927e-17 
          4520.15   5.63666e-17 
           4522.1   5.31193e-17 
          4524.05  5.576224e-17 
           4526.0  5.927721e-17 
          4527.95  6.418302e-17 
           4529.9  6.361428e-17 
          4531.85  5.799281e-17 
           4533.8  5.831947e-17 
          4535.75  6.064524e-17 
           4537.7  6.311604e-17 
          4539.65  6.100783e-17 
           4541.6  6.571086e-17 
          4543.55  6.553313e-17 
           4545.5  7.058542e-17 
          4547.45  6.703828e-17 
           4549.4  6.416725e-17 
          4551.35  6.362891e-17 
           4553.3  6.245839e-17 
          4555.25  6.134242e-17 
           4557.2  7.240105e-17 
          4559.15  6.809603e-17 
           4561.1  6.219132e-17 
          4563.05  7.232223e-17 
           4565.0  7.106858e-17 
          4566.95  6.329962e-17 
           4568.9   6.84204e-17 
          4570.85  7.316627e-17 
           4572.8  6.950821e-17 
          4574.75  6.711835e-17 
           4576.7  7.278538e-17 
          4578.65  6.878309e-17 
           4580.6  6.481137e-17 
          4582.55  7.118917e-17 
           4584.5  6.922912e-17 
          4586.45  6.913798e-17 
           4588.4  7.678166e-17 
          4590.35  8.219374e-17 
           4592.3  8.487559e-17 
          4594.25   7.56049e-17 
           4596.2  7.152095e-17 
          4598.15  7.402254e-17 
           4600.1  7.786047e-17 
          4602.05  7.964636e-17 
           4604.0   7.90389e-17 
          4605.95  7.535352e-17 
           4607.9  7.857277e-17 
          4609.85  7.436701e-17 
           4611.8  8.085671e-17 
          4613.75  8.138547e-17 
           4615.7  7.885948e-17 
          4617.65  7.951773e-17 
           4619.6  7.978703e-17 
          4621.55  8.422391e-17 
           4623.5  8.049874e-17 
          4625.45  8.073887e-17 
           4627.4  8.157127e-17 
          4629.35  7.985909e-17 
           4631.3  8.823033e-17 
          4633.25  8.961509e-17 
           4635.2  8.537209e-17 
          4637.15  8.568845e-17 
           4639.1  8.706311e-17 
          4641.05  8.738761e-17 
           4643.0  8.274002e-17 
          4644.95   8.42588e-17 
           4646.9  8.584479e-17 
          4648.85  8.517411e-17 
           4650.8  8.751801e-17 
          4652.75  8.758374e-17 
           4654.7  8.728841e-17 
          4656.65  8.634248e-17 
           4658.6  9.100582e-17 
          4660.55  9.072665e-17 
           4662.5  8.039656e-17 
          4664.45  8.384481e-17 
           4666.4  8.394403e-17 
          4668.35  7.838362e-17 
           4670.3  8.388119e-17 
          4672.25  9.100912e-17 
           4674.2  8.627023e-17 
          4676.15  8.480689e-17 
           4678.1  8.236444e-17 
          4680.05  7.921196e-17 
           4682.0   8.89109e-17 
          4683.95  8.526025e-17 
           4685.9  8.260218e-17 
          4687.85  8.322756e-17 
           4689.8  8.098008e-17 
          4691.75  8.384627e-17 
           4693.7  7.998271e-17 
          4695.65  8.473405e-17 
           4697.6  8.554192e-17 
          4699.55  8.224204e-17 
           4701.5  8.393448e-17 
          4703.45  8.286225e-17 
           4705.4  8.001998e-17 
          4707.35  8.303514e-17 
           4709.3  8.457865e-17 
          4711.25   7.46061e-17 
           4713.2   8.44671e-17 
          4715.15  8.401535e-17 
           4717.1  8.192932e-17 
          4719.05  7.523961e-17 
           4721.0  8.499273e-17 
          4722.95  8.020015e-17 
           4724.9  7.614653e-17 
          4726.85   8.23034e-17 
           4728.8  7.608921e-17 
          4730.75  7.239238e-17 
           4732.7  7.495609e-17 
          4734.65  7.549498e-17 
           4736.6  7.401025e-17 
          4738.55  7.469191e-17 
           4740.5  7.575134e-17 
          4742.45  7.234923e-17 
           4744.4  7.318939e-17 
          4746.35  7.760141e-17 
           4748.3  7.600943e-17 
          4750.25  6.741353e-17 
           4752.2  7.317543e-17 
          4754.15  8.322537e-17 
           4756.1  6.940545e-17 
          4758.05  6.885353e-17 
           4760.0  7.278673e-17 
          4761.95  7.094212e-17 
           4763.9  7.244972e-17 
          4765.85  7.002664e-17 
           4767.8  7.220637e-17 
          4769.75  6.959799e-17 
           4771.7  6.651766e-17 
          4773.65   6.73495e-17 
           4775.6   6.97555e-17 
          4777.55  6.694057e-17 
           4779.5  6.805865e-17 
          4781.45  7.302812e-17 
           4783.4  6.937925e-17 
          4785.35  6.898825e-17 
           4787.3  6.761387e-17 
          4789.25  6.425256e-17 
           4791.2  7.279899e-17 
          4793.15  7.135364e-17 
           4795.1  7.248666e-17 
          4797.05  7.230725e-17 
           4799.0  7.142811e-17 
          4800.95  7.446157e-17 
           4802.9  6.905658e-17 
          4804.85  6.522109e-17 
           4806.8  7.258121e-17 
          4808.75  7.397443e-17 
           4810.7  7.497541e-17 
          4812.65    7.6778e-17 
           4814.6  7.216181e-17 
          4816.55  6.814745e-17 
           4818.5  6.582608e-17 
          4820.45  7.174106e-17 
           4822.4  6.993864e-17 
          4824.35   7.04763e-17 
           4826.3  6.938014e-17 
          4828.25  7.490621e-17 
           4830.2  7.308245e-17 
          4832.15  6.791841e-17 
           4834.1   6.83913e-17 
          4836.05  6.857618e-17 
           4838.0  7.223627e-17 
          4839.95  7.248338e-17 
           4841.9  6.824912e-17 
          4843.85  6.579905e-17 
           4845.8  6.723789e-17 
          4847.75  7.082547e-17 
           4849.7  6.773734e-17 
          4851.65  6.793332e-17 
           4853.6  6.751745e-17 
          4855.55  6.876569e-17 
           4857.5  6.832679e-17 
          4859.45  6.284204e-17 
           4861.4  6.346425e-17 
          4863.35  6.196792e-17 
           4865.3  6.309359e-17 
          4867.25  6.893048e-17 
           4869.2  6.859487e-17 
          4871.15  6.521813e-17 
           4873.1  6.735485e-17 
          4875.05  6.427156e-17 
           4877.0  6.620525e-17 
          4878.95  6.784099e-17 
           4880.9  6.823458e-17 
          4882.85   6.57882e-17 
           4884.8  6.803478e-17 
          4886.75  6.592755e-17 
           4888.7  6.652658e-17 
          4890.65  6.627514e-17 
           4892.6  6.590732e-17 
          4894.55   7.07523e-17 
           4896.5  6.975297e-17 
          4898.45  7.036757e-17 
           4900.4  6.587015e-17 
          4902.35  6.618729e-17 
           4904.3  6.655624e-17 
          4906.25  6.487876e-17 
           4908.2  6.308658e-17 
          4910.15  6.365399e-17 
           4912.1  6.684274e-17 
          4914.05  6.561414e-17 
           4916.0   6.83707e-17 
          4917.95  6.830648e-17 
           4919.9  6.700103e-17 
          4921.85  6.676746e-17 
           4923.8  6.651895e-17 
          4925.75  6.577665e-17 
           4927.7   6.65528e-17 
          4929.65  6.734614e-17 
           4931.6  6.575065e-17 
          4933.55  6.609933e-17 
           4935.5  6.566677e-17 
          4937.45   6.09217e-17 
           4939.4  6.132588e-17 
          4941.35  6.585311e-17 
           4943.3   6.87947e-17 
          4945.25  6.682927e-17 
           4947.2   6.24991e-17 
          4949.15  6.432671e-17 
           4951.1  6.732471e-17 
          4953.05   6.65767e-17 
           4955.0  6.592818e-17 
          4956.95  6.265773e-17 
           4958.9  5.749699e-17 
          4960.85  6.086128e-17 
           4962.8  6.474048e-17 
          4964.75  6.426943e-17 
           4966.7  6.532609e-17 
          4968.65  6.583244e-17 
           4970.6  6.473894e-17 
          4972.55  6.437047e-17 
           4974.5  6.651989e-17 
          4976.45  6.299426e-17 
           4978.4  6.536772e-17 
          4980.35  7.021229e-17 
           4982.3  6.653801e-17 
          4984.25  6.920576e-17 
           4986.2  6.598281e-17 
          4988.15  6.866669e-17 
           4990.1  6.478288e-17 
          4992.05  6.596512e-17 
           4994.0   7.21715e-17 
          4995.95  7.150986e-17 
           4997.9   6.79408e-17 
          4999.85   6.64164e-17 
           5001.8  6.598049e-17 
          5003.75  6.700451e-17 
           5005.7  7.294179e-17 
          5007.65  7.181237e-17 
           5009.6  6.891105e-17 
          5011.55  6.828152e-17 
           5013.5  6.558092e-17 
          5015.45  7.205299e-17 
           5017.4  7.218712e-17 
          5019.35  6.700002e-17 
           5021.3  6.762397e-17 
          5023.25  7.141102e-17 
           5025.2  7.023475e-17 
          5027.15  7.015825e-17 
           5029.1  6.604504e-17 
          5031.05  6.748317e-17 
           5033.0   6.68842e-17 
          5034.95  7.023075e-17 
           5036.9  6.960639e-17 
          5038.85  6.635466e-17 
           5040.8  6.650356e-17 
          5042.75  6.573327e-17 
           5044.7  6.760816e-17 
          5046.65  6.539282e-17 
           5048.6  6.276472e-17 
          5050.55  6.790082e-17 
           5052.5  6.300553e-17 
          5054.45  6.371742e-17 
           5056.4  6.234037e-17 
          5058.35  6.562185e-17 
           5060.3   6.63042e-17 
          5062.25  6.576308e-17 
 5064.20000000001   6.55935e-17 
          5066.15  6.519531e-17 
           5068.1  7.129389e-17 
          5070.05  6.893214e-17 
           5072.0  6.238756e-17 
          5073.95  5.928763e-17 
           5075.9  6.268853e-17 
          5077.85  5.905575e-17 
           5079.8  5.904448e-17 
          5081.75   6.76995e-17 
           5083.7   6.89106e-17 
          5085.65  6.529745e-17 
           5087.6  6.151159e-17 
          5089.55  6.003034e-17 
           5091.5  5.554562e-17 
          5093.45  5.931213e-17 
           5095.4  6.418263e-17 
          5097.35  6.648948e-17 
           5099.3  6.388159e-17 
          5101.25  5.714314e-17 
           5103.2  5.433483e-17 
          5105.15  5.919687e-17 
           5107.1  6.449789e-17 
          5109.05  6.579434e-17 
           5111.0  6.256026e-17 
          5112.95  6.253073e-17 
 5114.90000000001  6.170532e-17 
          5116.85   5.58796e-17 
           5118.8  5.842976e-17 
          5120.75  5.912185e-17 
           5122.7  5.985291e-17 
          5124.65  5.709083e-17 
           5126.6  5.605867e-17 
          5128.55   5.81977e-17 
 5130.50000000001  5.804637e-17 
          5132.45  5.368973e-17 
           5134.4  5.846192e-17 
          5136.35  5.557318e-17 
           5138.3  5.682041e-17 
          5140.25  5.972415e-17 
           5142.2  5.385127e-17 
          5144.15  5.644684e-17 
           5146.1   5.87128e-17 
          5148.05  5.968281e-17 
           5150.0  5.547932e-17 
 5151.95000000001  5.130029e-17 
           5153.9  5.279286e-17 
          5155.85   5.31132e-17 
           5157.8  5.347764e-17 
          5159.75  5.554413e-17 
           5161.7  5.769124e-17 
          5163.65  5.234421e-17 
           5165.6  5.070399e-17 
          5167.55  5.561516e-17 
           5169.5  5.772369e-17 
          5171.45  5.983946e-17 
           5173.4  5.536126e-17 
          5175.35  5.449324e-17 
           5177.3  5.305431e-17 
          5179.25  5.652246e-17 
           5181.2  5.565247e-17 
          5183.15  5.129094e-17 
           5185.1  5.611671e-17 
          5187.05  6.041141e-17 
           5189.0  5.894966e-17 
          5190.95  5.858772e-17 
           5192.9   5.51155e-17 
          5194.85  5.736795e-17 
           5196.8  5.944506e-17 
          5198.75   5.81329e-17 
           5200.7  5.508383e-17 
          5202.65  5.304114e-17 
           5204.6  5.809414e-17 
          5206.55  6.157964e-17 
           5208.5  5.984385e-17 
          5210.45  5.522832e-17 
           5212.4  5.190816e-17 
          5214.35  5.506199e-17 
           5216.3  5.566045e-17 
 5218.25000000001  5.796243e-17 
           5220.2  5.702154e-17 
          5222.15  5.756484e-17 
           5224.1  5.767187e-17 
          5226.05  5.888478e-17 
           5228.0  5.962792e-17 
          5229.95  5.704012e-17 
           5231.9  5.459368e-17 
          5233.85  5.825594e-17 
           5235.8  6.007239e-17 
          5237.75  6.052537e-17 
           5239.7  6.321056e-17 
          5241.65  6.002174e-17 
           5243.6  5.837135e-17 
          5245.55  6.147498e-17 
           5247.5  6.068174e-17 
 5249.45000000001    6.0134e-17 
           5251.4  5.999274e-17 
          5253.35  6.014408e-17 
           5255.3  5.984556e-17 
          5257.25  6.376167e-17 
           5259.2  6.601081e-17 
          5261.15  6.186291e-17 
           5263.1  6.321175e-17 
 5265.05000000001  6.166211e-17 
           5267.0  6.431693e-17 
          5268.95  6.503608e-17 
           5270.9  6.613293e-17 
          5272.85  7.098854e-17 
           5274.8  7.025755e-17 
 5276.75000000001  6.929514e-17 
           5278.7  7.145775e-17 
          5280.65  7.084867e-17 
           5282.6  7.011701e-17 
          5284.55  6.897371e-17 
           5286.5  7.109488e-17 
          5288.45  7.042397e-17 
           5290.4  7.001357e-17 
          5292.35  7.554423e-17 
           5294.3  7.747678e-17 
          5296.25  7.537855e-17 
           5298.2  7.833043e-17 
          5300.15  7.861468e-17 
           5302.1  7.420783e-17 
          5304.05  7.376031e-17 
           5306.0   7.72336e-17 
          5307.95  7.937536e-17 
           5309.9  7.689695e-17 
          5311.85  7.568741e-17 
           5313.8  8.115897e-17 
          5315.75  8.297437e-17 
           5317.7  8.181727e-17 
          5319.65  8.202672e-17 
           5321.6  7.936584e-17 
          5323.55   8.09887e-17 
           5325.5  8.089008e-17 
          5327.45  8.009032e-17 
           5329.4  8.127042e-17 
          5331.35  7.750263e-17 
           5333.3  7.775475e-17 
          5335.25  8.119599e-17 
           5337.2  8.585269e-17 
          5339.15  8.526845e-17 
           5341.1  8.248834e-17 
          5343.05  8.272167e-17 
           5345.0  8.676224e-17 
          5346.95  9.182498e-17 
           5348.9  8.872842e-17 
          5350.85  8.943673e-17 
           5352.8  9.293714e-17 
          5354.75  9.036139e-17 
           5356.7  9.395798e-17 
          5358.65  9.539201e-17 
           5360.6  9.111539e-17 
          5362.55   9.31205e-17 
 5364.50000000001  9.636273e-17 
          5366.45  9.323353e-17 
 5368.40000000001  8.997439e-17 
          5370.35  9.341948e-17 
           5372.3  9.927583e-17 
 5374.25000000001  1.000728e-16 
           5376.2  9.884115e-17 
          5378.15  9.575983e-17 
           5380.1   9.57115e-17 
          5382.05  9.904043e-17 
           5384.0   9.89733e-17 
          5385.95  9.591638e-17 
           5387.9  1.011663e-16 
          5389.85  1.083257e-16 
           5391.8  1.042925e-16 
          5393.75  9.908161e-17 
           5395.7   1.04125e-16 
          5397.65  1.076812e-16 
           5399.6  1.036017e-16 
          5401.55  1.008601e-16 
           5403.5  9.916286e-17 
          5405.45    1.0454e-16 
           5407.4  1.098659e-16 
          5409.35  1.084381e-16 
           5411.3  1.092624e-16 
          5413.25  1.104437e-16 
           5415.2  1.059863e-16 
          5417.15  1.060972e-16 
 5419.10000000001  1.080448e-16 
          5421.05  1.078544e-16 
           5423.0  1.072275e-16 
          5424.95  1.052746e-16 
           5426.9   1.07714e-16 
          5428.85  1.122561e-16 
           5430.8  1.085762e-16 
          5432.75  1.072173e-16 
           5434.7   1.08671e-16 
          5436.65  1.086555e-16 
           5438.6  1.073961e-16 
          5440.55  1.093356e-16 
           5442.5   1.08794e-16 
          5444.45  1.112483e-16 
           5446.4  1.115581e-16 
          5448.35  1.005044e-16 
           5450.3    1.0339e-16 
 5452.25000000001  1.091047e-16 
           5454.2  1.182081e-16 
          5456.15   1.19077e-16 
           5458.1  1.105606e-16 
          5460.05  1.073965e-16 
 5462.00000000001  1.061478e-16 
          5463.95  1.050846e-16 
           5465.9  1.052792e-16 
          5467.85  9.773193e-17 
           5469.8  9.796184e-17 
          5471.75  1.003886e-16 
           5473.7   9.43715e-17 
          5475.65  9.666126e-17 
 5477.60000000001   1.00918e-16 
          5479.55  1.018456e-16 
           5481.5  1.036828e-16 
          5483.45  1.049919e-16 
           5485.4  1.019496e-16 
          5487.35  1.017118e-16 
           5489.3  1.030715e-16 
          5491.25  9.884253e-17 
           5493.2  9.889945e-17 
          5495.15  1.008409e-16 
           5497.1  1.008886e-16 
          5499.05  9.777406e-17 
           5501.0   9.57971e-17 
          5502.95   9.77883e-17 
           5504.9  9.751602e-17 
          5506.85  9.199183e-17 
           5508.8   9.20215e-17 
          5510.75  9.578126e-17 
           5512.7  1.001071e-16 
 5514.65000000001  1.010436e-16 
           5516.6  9.637238e-17 
          5518.55  9.207777e-17 
           5520.5  8.723317e-17 
          5522.45  8.942482e-17 
           5524.4  9.723768e-17 
          5526.35  9.170664e-17 
           5528.3   8.76811e-17 
          5530.25    9.1487e-17 
           5532.2  9.098079e-17 
          5534.15  9.229534e-17 
           5536.1  8.749307e-17 
          5538.05   8.38764e-17 
           5540.0  8.710809e-17 
          5541.95  8.669279e-17 
           5543.9  8.494544e-17 
          5545.85  8.399061e-17 
           5547.8  8.280589e-17 
 5549.75000000001  8.301781e-17 
           5551.7  8.055225e-17 
          5553.65  8.075812e-17 
           5555.6  7.959427e-17 
          5557.55   7.86995e-17 
           5559.5  8.233851e-17 
          5561.45  8.439718e-17 
           5563.4  8.079316e-17 
 5565.35000000001  7.678451e-17 
           5567.3   8.20428e-17 
          5569.25   8.21197e-17 
           5571.2   7.76099e-17 
          5573.15  8.670256e-17 
           5575.1   8.17024e-17 
          5577.05  7.427517e-17 
           5579.0  7.798756e-17 
          5580.95  8.044842e-17 
           5582.9  8.042155e-17 
          5584.85  7.324298e-17 
           5586.8  7.059795e-17 
          5588.75  7.198691e-17 
           5590.7  7.478419e-17 
          5592.65  7.943392e-17 
           5594.6  7.956505e-17 
          5596.55  7.684333e-17 
           5598.5  7.634941e-17 
          5600.45  7.560128e-17 
 5602.40000000001  7.568098e-17 
          5604.35  7.399084e-17 
           5606.3  7.527169e-17 
          5608.25  7.722475e-17 
           5610.2  7.526371e-17 
 5612.15000000001  7.227535e-17 
           5614.1  7.522304e-17 
          5616.05  7.810094e-17 
           5618.0  7.442188e-17 
          5619.95  7.345295e-17 
           5621.9  7.359575e-17 
          5623.85  7.277371e-17 
           5625.8  7.655115e-17 
          5627.75  7.433308e-17 
           5629.7  6.958296e-17 
          5631.65  6.995159e-17 
           5633.6  6.944487e-17 
          5635.55   7.13655e-17 
           5637.5  6.949736e-17 
          5639.45  6.581411e-17 
           5641.4  6.777421e-17 
          5643.35  7.020673e-17 
           5645.3  7.005692e-17 
          5647.25  7.202455e-17 
           5649.2  7.163467e-17 
          5651.15  7.103955e-17 
 5653.10000000001  7.079822e-17 
          5655.05   6.90949e-17 
           5657.0  6.662362e-17 
          5658.95  6.331281e-17 
           5660.9  6.571927e-17 
          5662.85  6.828147e-17 
           5664.8   6.50942e-17 
          5666.75  6.341733e-17 
           5668.7  6.616383e-17 
          5670.65  6.819627e-17 
           5672.6  6.898038e-17 
          5674.55  7.113286e-17 
           5676.5   7.53254e-17 
          5678.45  7.910878e-17 
           5680.4  7.513654e-17 
          5682.35  7.427285e-17 
           5684.3  7.426422e-17 
          5686.25  7.113878e-17 
           5688.2  7.181159e-17 
          5690.15  7.054339e-17 
           5692.1  7.367541e-17 
          5694.05  7.476548e-17 
           5696.0  7.232425e-17 
          5697.95  7.355661e-17 
 5699.90000000001  7.804597e-17 
          5701.85   8.37217e-17 
           5703.8  7.973416e-17 
          5705.75  7.720948e-17 
           5707.7  7.846165e-17 
          5709.65  7.812831e-17 
           5711.6  7.917095e-17 
          5713.55  7.465864e-17 
 5715.50000000001  7.363955e-17 
          5717.45  7.786826e-17 
           5719.4  7.559623e-17 
 5721.35000000001   6.98645e-17 
           5723.3  7.068702e-17 
          5725.25  7.473675e-17 
           5727.2  7.440242e-17 
          5729.15  7.363228e-17 
           5731.1  7.518926e-17 
          5733.05  7.254923e-17 
           5735.0  6.815913e-17 
          5736.95  6.710197e-17 
           5738.9  6.840021e-17 
          5740.85  7.328446e-17 
           5742.8  7.324641e-17 
          5744.75  6.881134e-17 
           5746.7  6.876587e-17 
          5748.65  6.895971e-17 
           5750.6  6.778206e-17 
 5752.55000000001   6.78897e-17 
           5754.5   6.96947e-17 
          5756.45  7.211749e-17 
           5758.4  6.972683e-17 
          5760.35  6.844047e-17 
           5762.3  7.344163e-17 
          5764.25  7.631827e-17 
           5766.2  7.554089e-17 
          5768.15  7.352208e-17 
           5770.1  7.158843e-17 
          5772.05  7.230644e-17 
           5774.0  7.187311e-17 
          5775.95  6.843148e-17 
           5777.9  6.954564e-17 
          5779.85  6.717345e-17 
           5781.8  6.526435e-17 
          5783.75  6.977961e-17 
           5785.7  7.065619e-17 
          5787.65  7.276532e-17 
           5789.6  7.457973e-17 
          5791.55  7.435177e-17 
           5793.5  7.469382e-17 
          5795.45  7.287892e-17 
           5797.4  7.018299e-17 
          5799.35  7.070432e-17 
           5801.3  7.041505e-17 
 5803.25000000001  6.888427e-17 
           5805.2  7.177913e-17 
          5807.15  7.341619e-17 
 5809.10000000001  7.395005e-17 
          5811.05  7.330268e-17 
           5813.0  6.709429e-17 
          5814.95  6.547383e-17 
           5816.9    6.9728e-17 
 5818.85000000001  7.034669e-17 
           5820.8   7.03311e-17 
          5822.75  7.355336e-17 
           5824.7  7.237977e-17 
          5826.65  6.780108e-17 
           5828.6   6.94327e-17 
          5830.55  6.831558e-17 
           5832.5  6.651958e-17 
 5834.45000000001  6.723382e-17 
           5836.4  6.394235e-17 
          5838.35  6.618685e-17 
           5840.3  6.896402e-17 
          5842.25  6.785221e-17 
           5844.2  6.584614e-17 
          5846.15  6.493942e-17 
           5848.1  6.840404e-17 
          5850.05  6.975005e-17 
           5852.0  6.893657e-17 
          5853.95  6.804569e-17 
           5855.9  6.837064e-17 
          5857.85  6.562052e-17 
           5859.8  5.970981e-17 
          5861.75  6.254935e-17 
           5863.7  6.731732e-17 
          5865.65  7.076987e-17 
 5867.60000000001  7.386291e-17 
          5869.55  7.115779e-17 
           5871.5  6.741542e-17 
          5873.45  6.642115e-17 
           5875.4  6.704594e-17 
          5877.35  6.700462e-17 
           5879.3  6.432667e-17 
          5881.25  6.035961e-17 
           5883.2  5.845069e-17 
          5885.15  6.449521e-17 
           5887.1  6.599492e-17 
          5889.05  6.529789e-17 
           5891.0  6.834554e-17 
          5892.95  6.475152e-17 
           5894.9  6.369169e-17 
 5896.85000000001  6.273663e-17 
           5898.8  6.079073e-17 
          5900.75  6.497054e-17 
           5902.7  6.718126e-17 
          5904.65   6.08416e-17 
           5906.6  5.426884e-17 
          5908.55  5.396184e-17 
           5910.5  5.863348e-17 
          5912.45  6.594841e-17 
           5914.4  6.706239e-17 
          5916.35  6.451917e-17 
           5918.3   6.06867e-17 
          5920.25  5.444606e-17 
           5922.2  5.584422e-17 
          5924.15  6.329251e-17 
           5926.1  6.268276e-17 
          5928.05  5.718098e-17 
           5930.0  5.709414e-17 
          5931.95  5.924566e-17 
           5933.9  6.444037e-17 
          5935.85  6.476642e-17 
           5937.8  5.828238e-17 
          5939.75  5.721788e-17 
           5941.7  5.877697e-17 
          5943.65  5.800121e-17 
           5945.6  5.813765e-17 
          5947.55  5.921598e-17 
           5949.5  5.871639e-17 
          5951.45  5.541363e-17 
 5953.40000000001  5.595985e-17 
          5955.35   5.65062e-17 
           5957.3  5.705241e-17 
 5959.25000000001  5.759876e-17 
           5961.2  5.814512e-17 
          5963.15  5.869133e-17 
 5965.10000000001  5.923768e-17 
          5967.05   5.97839e-17 
           5969.0  6.033025e-17 
          5970.95   6.08766e-17 
           5972.9  6.001483e-17 
          5974.85  6.281655e-17 
           5976.8  6.051354e-17 
          5978.75  6.185543e-17 
           5980.7  6.347094e-17 
          5982.65  6.168848e-17 
 5984.60000000001  6.310157e-17 
          5986.55  6.186418e-17 
           5988.5  6.001383e-17 
          5990.45  6.003478e-17 
           5992.4   6.13564e-17 
          5994.35  6.178504e-17 
           5996.3  6.295258e-17 
          5998.25  6.528654e-17 
           6000.2  6.186394e-17 
          6002.15  6.181462e-17 
           6004.1  6.586849e-17 
          6006.05  6.608984e-17 
           6008.0  6.845424e-17 
          6009.95  6.761832e-17 
           6011.9  6.406028e-17 
          6013.85  6.568075e-17 
           6015.8   6.26061e-17 
          6017.75  6.143723e-17 
           6019.7  6.873672e-17 
          6021.65   7.79131e-17 
           6023.6  7.901058e-17 
          6025.55  7.382936e-17 
           6027.5  7.295432e-17 
          6029.45  7.066024e-17 
           6031.4  6.158787e-17 
          6033.35  6.074251e-17 
           6035.3  6.562181e-17 
          6037.25  6.439178e-17 
           6039.2  6.417874e-17 
          6041.15  6.682721e-17 
           6043.1  6.732643e-17 
          6045.05   6.80606e-17 
 6047.00000000001  6.475827e-17 
          6048.95  6.152398e-17 
           6050.9  6.668205e-17 
 6052.85000000001  6.781643e-17 
           6054.8  6.746591e-17 
          6056.75   6.80818e-17 
           6058.7  6.766983e-17 
          6060.65  6.979104e-17 
 6062.60000000001  6.742556e-17 
          6064.55  6.575416e-17 
           6066.5  7.016632e-17 
          6068.45  7.558248e-17 
           6070.4  7.343113e-17 
          6072.35  6.572931e-17 
           6074.3  6.740581e-17 
          6076.25  6.872438e-17 
 6078.20000000001  6.701359e-17 
          6080.15  6.806941e-17 
           6082.1   6.94836e-17 
          6084.05  7.162423e-17 
           6086.0   7.03357e-17 
          6087.95  7.047516e-17 
           6089.9  7.024362e-17 
          6091.85  6.901967e-17 
           6093.8  6.968193e-17 
          6095.75  6.931867e-17 
           6097.7  7.038173e-17 
          6099.65  7.222383e-17 
           6101.6  7.522558e-17 
          6103.55   8.04491e-17 
           6105.5  7.596401e-17 
          6107.45  7.091596e-17 
           6109.4  7.520975e-17 
          6111.35  7.867882e-17 
           6113.3   7.75283e-17 
          6115.25  7.402208e-17 
           6117.2  7.462792e-17 
          6119.15  7.746928e-17 
           6121.1  7.506419e-17 
          6123.05  7.092467e-17 
           6125.0  7.539808e-17 
          6126.95  8.005746e-17 
           6128.9  7.804153e-17 
          6130.85  7.920824e-17 
           6132.8  8.230799e-17 
 6134.75000000001  7.969996e-17 
           6136.7  7.480582e-17 
          6138.65  7.521727e-17 
 6140.60000000001  7.857526e-17 
          6142.55  7.946457e-17 
           6144.5  7.968507e-17 
          6146.45  8.003624e-17 
           6148.4  8.038085e-17 
 6150.35000000001  8.236109e-17 
           6152.3   7.89551e-17 
          6154.25  8.164535e-17 
           6156.2  8.650924e-17 
          6158.15  8.363732e-17 
           6160.1  8.315641e-17 
          6162.05  8.174377e-17 
           6164.0  8.204235e-17 
 6165.95000000001  8.182328e-17 
           6167.9  8.186084e-17 
          6169.85  8.819516e-17 
           6171.8  8.599744e-17 
          6173.75  7.796306e-17 
           6175.7  7.902712e-17 
          6177.65  8.874524e-17 
           6179.6  8.985141e-17 
          6181.55   8.49961e-17 
           6183.5  8.764118e-17 
          6185.45  8.683743e-17 
           6187.4  8.307634e-17 
          6189.35  8.237124e-17 
           6191.3  8.517398e-17 
          6193.25  8.835497e-17 
           6195.2  9.236868e-17 
          6197.15  9.006468e-17 
           6199.1  8.573206e-17 
          6201.05  8.802306e-17 
 6203.00000000001  9.434497e-17 
          6204.95  9.484791e-17 
           6206.9  9.124428e-17 
 6208.85000000001  9.046297e-17 
           6210.8  8.786453e-17 
          6212.75  8.522281e-17 
           6214.7  8.620078e-17 
          6216.65  8.481643e-17 
           6218.6    8.7553e-17 
          6220.55  9.119114e-17 
           6222.5  8.962313e-17 
          6224.45  8.665089e-17 
           6226.4  8.528311e-17 
 6228.35000000001  8.604802e-17 
           6230.3  8.815873e-17 
          6232.25  9.029688e-17 
           6234.2   9.19543e-17 
          6236.15  9.129574e-17 
           6238.1  8.697271e-17 
          6240.05  8.827986e-17 
           6242.0  9.384727e-17 
          6243.95  9.324013e-17 
           6245.9  9.046839e-17 
          6247.85  9.005032e-17 
           6249.8  9.462128e-17 
          6251.75   9.58956e-17 
 6253.70000000001  9.148558e-17 
          6255.65  8.862172e-17 
           6257.6  8.855196e-17 
          6259.55   8.77109e-17 
           6261.5  9.304266e-17 
          6263.45  9.448019e-17 
           6265.4  9.521303e-17 
          6267.35  9.746903e-17 
           6269.3  9.302679e-17 
          6271.25  9.051644e-17 
           6273.2  9.008362e-17 
          6275.15  9.426491e-17 
           6277.1  9.615511e-17 
          6279.05  9.151402e-17 
           6281.0  9.060149e-17 
          6282.95   9.36653e-17 
           6284.9  9.570299e-17 
          6286.85  9.583089e-17 
           6288.8   9.56063e-17 
 6290.75000000001  9.447189e-17 
           6292.7   9.37161e-17 
          6294.65  9.359869e-17 
 6296.60000000001  9.660501e-17 
          6298.55   9.92409e-17 
 6300.50000000001  9.621539e-17 
          6302.45  9.295639e-17 
           6304.4   9.53194e-17 
 6306.35000000001  9.457031e-17 
           6308.3   9.01685e-17 
          6310.25  8.968314e-17 
           6312.2  8.819417e-17 
          6314.15  8.546966e-17 
 6316.10000000001  9.289293e-17 
          6318.05  9.449169e-17 
           6320.0  8.689329e-17 
          6321.95  8.687713e-17 
           6323.9  8.989236e-17 
          6325.85  8.644586e-17 
           6327.8  8.710987e-17 
          6329.75  8.602714e-17 
           6331.7   8.27382e-17 
          6333.65  8.637421e-17 
           6335.6  8.671797e-17 
          6337.55  8.702211e-17 
           6339.5  9.069546e-17 
          6341.45  9.026493e-17 
           6343.4  8.843064e-17 
          6345.35  8.829439e-17 
           6347.3   8.47688e-17 
          6349.25  8.460894e-17 
           6351.2  8.796874e-17 
          6353.15  8.780903e-17 
           6355.1  8.883136e-17 
          6357.05  9.204351e-17 
           6359.0  9.312616e-17 
          6360.95  9.115209e-17 
           6362.9   8.77618e-17 
          6364.85  8.568935e-17 
           6366.8  8.770957e-17 
          6368.75  8.911853e-17 
           6370.7  8.962831e-17 
          6372.65  8.991435e-17 
           6374.6  8.700045e-17 
          6376.55  8.561594e-17 
 6378.50000000001  9.289477e-17 
          6380.45  9.873598e-17 
           6382.4  9.055367e-17 
 6384.35000000001  8.825189e-17 
           6386.3  9.170287e-17 
          6388.25  9.342537e-17 
           6390.2  9.364242e-17 
          6392.15  9.322559e-17 
 6394.10000000001  9.162966e-17 
          6396.05  9.130748e-17 
           6398.0  9.256835e-17 
          6399.95  9.409604e-17 
           6401.9   9.55551e-17 
 6403.85000000001  9.556243e-17 
           6405.8  9.452703e-17 
          6407.75   9.14326e-17 
           6409.7  9.403854e-17 
          6411.65   9.38212e-17 
           6413.6  9.392242e-17 
          6415.55  9.572081e-17 
           6417.5  9.507875e-17 
          6419.45  9.372208e-17 
           6421.4  9.290464e-17 
          6423.35  9.521407e-17 
           6425.3   9.90739e-17 
          6427.25   1.01383e-16 
           6429.2   1.01435e-16 
          6431.15  8.894389e-17 
 6433.10000000001  8.552367e-17 
 6435.05000000001  9.528961e-17 
           6437.0  9.542542e-17 
          6438.95  9.141682e-17 
           6440.9  9.197841e-17 
          6442.85  9.003034e-17 
           6444.8   9.46916e-17 
 6446.75000000001  9.488087e-17 
           6448.7   9.12376e-17 
          6450.65  9.605334e-17 
           6452.6  9.589989e-17 
          6454.55  9.461051e-17 
           6456.5  9.627613e-17 
          6458.45  9.543378e-17 
           6460.4   9.45541e-17 
          6462.35  9.755564e-17 
           6464.3  9.655322e-17 
 6466.25000000001  9.125169e-17 
 6468.20000000001  9.039812e-17 
          6470.15  9.352805e-17 
           6472.1   9.31915e-17 
          6474.05  9.543739e-17 
           6476.0  9.714332e-17 
          6477.95  9.437198e-17 
           6479.9  9.666438e-17 
 6481.85000000001  9.689522e-17 
           6483.8  9.381525e-17 
 6485.75000000001  9.473062e-17 
           6487.7  9.432898e-17 
          6489.65   9.34554e-17 
           6491.6    9.0714e-17 
          6493.55  8.988277e-17 
           6495.5  9.437709e-17 
          6497.45  9.668581e-17 
           6499.4  1.000216e-16 
 6501.35000000001  1.031644e-16 
           6503.3  9.464867e-17 
          6505.25  8.530933e-17 
           6507.2  9.261425e-17 
          6509.15  1.017875e-16 
           6511.1  9.702881e-17 
          6513.05  9.541056e-17 
           6515.0  9.300611e-17 
          6516.95  9.085716e-17 
           6518.9  9.328559e-17 
 6520.85000000001  9.400427e-17 
           6522.8  9.545035e-17 
          6524.75   9.45089e-17 
           6526.7  9.265979e-17 
          6528.65  9.103188e-17 
           6530.6  9.047952e-17 
          6532.55  9.034863e-17 
 6534.50000000001   9.03801e-17 
          6536.45  9.989678e-17 
           6538.4  9.516341e-17 
          6540.35  9.182152e-17 
           6542.3  9.444833e-17 
          6544.25  9.105482e-17 
           6546.2  9.009353e-17 
          6548.15  8.882919e-17 
 6550.10000000001  8.903859e-17 
          6552.05  9.041683e-17 
 6554.00000000001  9.313131e-17 
          6555.95  9.537682e-17 
           6557.9  9.572192e-17 
          6559.85  9.155847e-17 
           6561.8  9.046123e-17 
          6563.75   9.09448e-17 
 6565.70000000001  9.247634e-17 
          6567.65  8.862942e-17 
 6569.60000000001  8.856964e-17 
          6571.55  9.656722e-17 
           6573.5  9.275579e-17 
          6575.45  8.809688e-17 
           6577.4  9.323023e-17 
          6579.35  9.458722e-17 
           6581.3  8.810605e-17 
          6583.25  9.275383e-17 
           6585.2  8.943014e-17 
          6587.15  8.851523e-17 
           6589.1  9.270369e-17 
          6591.05  8.806703e-17 
           6593.0  8.584434e-17 
          6594.95  9.072906e-17 
           6596.9  8.699592e-17 
          6598.85  9.055059e-17 
           6600.8  9.075831e-17 
          6602.75  9.236755e-17 
           6604.7  9.180465e-17 
          6606.65  9.164619e-17 
           6608.6  9.168524e-17 
          6610.55  9.013487e-17 
           6612.5  9.183566e-17 
          6614.45  8.984061e-17 
           6616.4   8.39861e-17 
          6618.35  8.640944e-17 
           6620.3  9.042707e-17 
          6622.25  8.970321e-17 
           6624.2  8.733933e-17 
          6626.15   8.70935e-17 
           6628.1  9.093603e-17 
          6630.05  9.366404e-17 
           6632.0  8.883752e-17 
          6633.95  8.745888e-17 
           6635.9  8.853247e-17 
 6637.85000000001  8.972022e-17 
           6639.8  9.112527e-17 
          6641.75  8.941192e-17 
           6643.7  8.883031e-17 
          6645.65  9.133526e-17 
 6647.60000000001  8.957539e-17 
          6649.55  8.876011e-17 
           6651.5  8.476648e-17 
 6653.45000000001  8.853356e-17 
           6655.4  8.711711e-17 
          6657.35  8.769953e-17 
           6659.3  8.905174e-17 
          6661.25  8.664902e-17 
           6663.2  8.836927e-17 
          6665.15  8.945978e-17 
           6667.1  8.915712e-17 
          6669.05  8.511428e-17 
           6671.0  8.850991e-17 
          6672.95  8.905579e-17 
           6674.9  8.673126e-17 
          6676.85  8.984281e-17 
 6678.80000000001  8.501125e-17 
          6680.75  8.555963e-17 
           6682.7  8.680248e-17 
          6684.65  8.482277e-17 
           6686.6  8.731621e-17 
          6688.55  8.829345e-17 
 6690.50000000001   8.38481e-17 
          6692.45  8.481259e-17 
           6694.4  8.703363e-17 
          6696.35  8.306071e-17 
           6698.3  7.991686e-17 
          6700.25  7.964456e-17 
           6702.2  8.634684e-17 
          6704.15  8.324253e-17 
           6706.1  8.355381e-17 
          6708.05  8.481063e-17 
           6710.0  8.174691e-17 
          6711.95  8.388897e-17 
           6713.9   8.94453e-17 
          6715.85  8.195047e-17 
           6717.8  8.480454e-17 
          6719.75  8.749697e-17 
           6721.7  8.559048e-17 
          6723.65   8.21647e-17 
 6725.60000000001  7.535251e-17 
          6727.55  8.002357e-17 
           6729.5  8.091602e-17 
          6731.45  8.428012e-17 
           6733.4  8.266588e-17 
 6735.35000000001  8.498659e-17 
           6737.3    8.5885e-17 
          6739.25  8.441803e-17 
           6741.2  8.001771e-17 
          6743.15  8.204556e-17 
 6745.10000000001  8.211006e-17 
 6747.05000000001  7.951946e-17 
           6749.0   8.17663e-17 
          6750.95  8.299338e-17 
           6752.9  7.789953e-17 
          6754.85  8.013112e-17 
           6756.8  7.953061e-17 
          6758.75  7.871699e-17 
           6760.7  7.835172e-17 
          6762.65  8.140633e-17 
           6764.6  8.164294e-17 
 6766.55000000001  8.728878e-17 
           6768.5  8.383978e-17 
          6770.45  7.698182e-17 
           6772.4  7.807632e-17 
          6774.35  7.979038e-17 
           6776.3  7.969892e-17 
 6778.25000000001  7.969633e-17 
           6780.2  7.462139e-17 
 6782.15000000001  7.938524e-17 
           6784.1  7.769888e-17 
          6786.05  7.488135e-17 
           6788.0  7.832683e-17 
          6789.95  8.188503e-17 
           6791.9  8.217602e-17 
          6793.85  7.955449e-17 
           6795.8  8.017453e-17 
          6797.75  8.114998e-17 
           6799.7  7.453994e-17 
          6801.65  7.636973e-17 
           6803.6  8.061635e-17 
          6805.55  7.988793e-17 
           6807.5  7.822188e-17 
          6809.45   8.25618e-17 
           6811.4  7.701292e-17 
 6813.35000000001  7.897632e-17 
 6815.30000000001  7.984692e-17 
          6817.25  8.047125e-17 
           6819.2  8.571518e-17 
          6821.15  8.031404e-17 
           6823.1  7.703161e-17 
          6825.05  7.332498e-17 
           6827.0  6.885452e-17 
          6828.95  7.621481e-17 
           6830.9  8.731926e-17 
 6832.85000000001  8.343306e-17 
 6834.80000000001  8.142303e-17 
          6836.75  8.490132e-17 
           6838.7  8.630376e-17 
          6840.65  7.338579e-17 
           6842.6  7.302914e-17 
          6844.55  7.883455e-17 
           6846.5  7.688973e-17 
          6848.45  7.724762e-17 
           6850.4  7.517879e-17 
          6852.35  7.037502e-17 
 6854.30000000001  7.498918e-17 
          6856.25  7.037377e-17 
           6858.2  7.562415e-17 
          6860.15  7.314308e-17 
           6862.1   7.95835e-17 
          6864.05  7.829556e-17 
 6866.00000000001  7.397808e-17 
          6867.95  6.871417e-17 
 6869.90000000001  6.416945e-17 
          6871.85  7.298986e-17 
           6873.8  7.445455e-17 
          6875.75  6.895384e-17 
           6877.7  6.915714e-17 
          6879.65  6.968164e-17 
           6881.6  7.458109e-17 
          6883.55  6.822901e-17 
 6885.50000000001  7.148668e-17 
          6887.45  7.610976e-17 
           6889.4   6.91741e-17 
 6891.35000000001  6.843136e-17 
           6893.3  6.877293e-17 
          6895.25  6.806935e-17 
           6897.2  6.862044e-17 
          6899.15  6.941898e-17 
 6901.10000000001  6.586262e-17 
 6903.05000000001  7.134067e-17 
           6905.0  7.406306e-17 
          6906.95  7.052868e-17 
           6908.9  7.331769e-17 
          6910.85  6.847064e-17 
           6912.8  6.920549e-17 
          6914.75  7.869252e-17 
           6916.7  7.390414e-17 
          6918.65  7.016004e-17 
 6920.60000000001  6.639506e-17 
          6922.55  6.905359e-17 
           6924.5  7.585638e-17 
          6926.45   7.29073e-17 
           6928.4  6.816966e-17 
          6930.35  7.377118e-17 
           6932.3  7.409441e-17 
          6934.25  6.993906e-17 
           6936.2  7.224204e-17 
          6938.15  7.612941e-17 
           6940.1  7.387592e-17 
          6942.05  6.621364e-17 
           6944.0  7.120249e-17 
          6945.95  7.669339e-17 
           6947.9  6.812891e-17 
          6949.85  7.141577e-17 
           6951.8  7.530944e-17 
 6953.75000000001   7.01166e-17 
           6955.7   6.40916e-17 
          6957.65  6.590087e-17 
           6959.6   7.14745e-17 
          6961.55  6.907741e-17 
           6963.5  6.390897e-17 
          6965.45  6.539909e-17 
           6967.4  6.273546e-17 
          6969.35  6.384823e-17 
           6971.3  6.763989e-17 
          6973.25  6.198261e-17 
           6975.2  6.500218e-17 
          6977.15  6.629712e-17 
 6979.10000000001  6.729555e-17 
          6981.05   7.05526e-17 
           6983.0  7.031692e-17 
          6984.95   7.29438e-17 
           6986.9  7.140302e-17 
          6988.85  7.399355e-17 
 6990.80000000001  7.384135e-17 
          6992.75  6.671406e-17 
           6994.7  6.661388e-17 
          6996.65  6.830276e-17 
           6998.6  7.086253e-17 
          7000.55  6.805758e-17 
           7002.5  6.739397e-17 
 7004.45000000001  7.189976e-17 
           7006.4  7.287406e-17 
          7008.35   7.39267e-17 
           7010.3   6.90154e-17 
          7012.25  6.790004e-17 
           7014.2  6.902649e-17 
          7016.15  6.642188e-17 
           7018.1  6.813536e-17 
          7020.05  7.253656e-17 
           7022.0  6.772199e-17 
          7023.95  6.706277e-17 
 7025.90000000001  6.700414e-17 
          7027.85  6.744294e-17 
           7029.8  7.182915e-17 
          7031.75  7.066528e-17 
           7033.7  6.301069e-17 
          7035.65  6.101667e-17 
 7037.60000000001  6.270346e-17 
          7039.55  6.466312e-17 
           7041.5  6.750025e-17 
          7043.45  7.006062e-17 
           7045.4   7.10461e-17 
          7047.35  6.504277e-17 
           7049.3  6.718288e-17 
          7051.25  7.156111e-17 
           7053.2  6.460365e-17 
          7055.15  6.255806e-17 
           7057.1  6.270711e-17 
          7059.05   6.72587e-17 
           7061.0  6.600341e-17 
          7062.95  6.618391e-17 
           7064.9  6.630523e-17 
 7066.85000000001  6.610293e-17 
           7068.8  7.063976e-17 
          7070.75  6.453928e-17 
           7072.7  6.346796e-17 
          7074.65  7.369895e-17 
           7076.6  6.678143e-17 
 7078.55000000001  6.220335e-17 
           7080.5  7.095121e-17 
          7082.45  6.919666e-17 
           7084.4  6.635174e-17 
 7086.35000000001  6.568979e-17 
           7088.3   6.79529e-17 
          7090.25  6.517776e-17 
           7092.2  6.438573e-17 
          7094.15   6.26714e-17 
           7096.1  6.153577e-17 
          7098.05  6.561754e-17 
           7100.0  6.473048e-17 
          7101.95  6.256378e-17 
           7103.9  6.823203e-17 
          7105.85  6.536728e-17 
           7107.8  6.247087e-17 
          7109.75  6.565606e-17 
           7111.7  7.288116e-17 
 7113.65000000001  6.526879e-17 
           7115.6  6.269992e-17 
          7117.55   6.29027e-17 
           7119.5  6.224962e-17 
          7121.45  6.542968e-17 
           7123.4  6.835629e-17 
          7125.35  6.806543e-17 
           7127.3  6.569768e-17 
 7129.25000000001  6.951601e-17 
           7131.2  6.807885e-17 
          7133.15  6.821016e-17 
 7135.10000000001  6.451539e-17 
          7137.05  7.119145e-17 
           7139.0  6.363618e-17 
 7140.95000000001  6.477288e-17 
           7142.9  6.478418e-17 
          7144.85  6.542875e-17 
           7146.8  6.129975e-17 
          7148.75  6.366704e-17 
           7150.7  6.260775e-17 
          7152.65  5.999305e-17 
 7154.60000000001   6.10004e-17 
          7156.55  5.857845e-17 
           7158.5  6.331598e-17 
 7160.45000000001  6.413831e-17 
           7162.4  6.465305e-17 
          7164.35  6.056366e-17 
 7166.30000000001  6.484021e-17 
          7168.25  6.736026e-17 
 7170.20000000001  5.835653e-17 
          7172.15  6.272258e-17 
           7174.1  6.659944e-17 
          7176.05  6.463584e-17 
           7178.0  6.778032e-17 
 7179.95000000001  6.658173e-17 
           7181.9  5.707179e-17 
          7183.85  6.517323e-17 
           7185.8  6.553904e-17 
          7187.75  6.316614e-17 
           7189.7  6.003062e-17 
          7191.65  5.898453e-17 
           7193.6  6.262669e-17 
          7195.55  6.397531e-17 
           7197.5  6.125967e-17 
          7199.45  6.112091e-17 
 7201.40000000001  6.509964e-17 
          7203.35  6.850523e-17 
           7205.3  6.323599e-17 
          7207.25  6.396135e-17 
           7209.2  6.205584e-17 
          7211.15   6.34151e-17 
           7213.1  6.013385e-17 
          7215.05   6.32288e-17 
 7217.00000000001  5.915426e-17 
          7218.95  5.900236e-17 
           7220.9  5.838687e-17 
          7222.85  5.574718e-17 
           7224.8  6.021787e-17 
          7226.75  6.090184e-17 
 7228.70000000001   5.43534e-17 
          7230.65  5.351357e-17 
 7232.60000000001  5.769525e-17 
          7234.55  6.085825e-17 
           7236.5  6.152028e-17 
 7238.45000000001  5.694594e-17 
           7240.4  5.345044e-17 
          7242.35  6.089333e-17 
           7244.3  6.635974e-17 
          7246.25  5.937737e-17 
 7248.20000000001  5.740959e-17 
          7250.15  6.070661e-17 
           7252.1  6.474787e-17 
 7254.05000000001  5.779591e-17 
           7256.0  5.522046e-17 
          7257.95  5.705526e-17 
           7259.9  5.009351e-17 
          7261.85  4.772394e-17 
           7263.8  5.316898e-17 
          7265.75  5.662256e-17 
 7267.70000000001  6.276482e-17 
          7269.65    6.2548e-17 
           7271.6  5.972492e-17 
          7273.55  6.414435e-17 
           7275.5  6.237497e-17 
          7277.45  5.614082e-17 
           7279.4  6.240815e-17 
 7281.35000000001  6.441518e-17 
           7283.3   6.47887e-17 
          7285.25  5.668912e-17 
           7287.2  5.371352e-17 
 7289.15000000001  5.956691e-17 
           7291.1  5.871691e-17 
          7293.05  5.419012e-17 
           7295.0  5.020207e-17 
          7296.95  4.994744e-17 
           7298.9  5.482791e-17 
          7300.85  5.727744e-17 
 7302.80000000001  5.695199e-17 
 7304.75000000001  5.225534e-17 
           7306.7  4.992787e-17 
          7308.65  5.464223e-17 
           7310.6  5.514527e-17 
          7312.55  5.392744e-17 
           7314.5  5.502278e-17 
 7316.45000000001  5.477852e-17 
           7318.4  5.594418e-17 
 7320.35000000001  5.467936e-17 
           7322.3  4.905022e-17 
          7324.25  4.898784e-17 
 7326.20000000001  5.281515e-17 
          7328.15  5.915151e-17 
           7330.1  6.139767e-17 
          7332.05   5.59569e-17 
           7334.0   5.08682e-17 
 7335.95000000001  4.851264e-17 
           7337.9  4.989604e-17 
          7339.85  5.214327e-17 
           7341.8   5.55408e-17 
          7343.75  5.534709e-17 
           7345.7  5.468987e-17 
          7347.65  5.636859e-17 
           7349.6  5.075635e-17 
 7351.55000000001  4.970879e-17 
           7353.5  5.100322e-17 
 7355.45000000001  4.930251e-17 
           7357.4  5.632897e-17 
          7359.35   6.36245e-17 
           7361.3  5.867364e-17 
          7363.25  5.445928e-17 
           7365.2  5.404705e-17 
 7367.15000000001  5.131701e-17 
 7369.10000000001  6.184307e-17 
          7371.05  6.098517e-17 
 7373.00000000001  5.189441e-17 
          7374.95  5.362484e-17 
           7376.9  5.119763e-17 
 7378.85000000001   5.09496e-17 
           7380.8  5.109693e-17 
          7382.75  5.252797e-17 
 7384.70000000001  5.643102e-17 
          7386.65  5.513997e-17 
           7388.6  4.942797e-17 
          7390.55  5.009354e-17 
           7392.5  5.188569e-17 
          7394.45  5.781146e-17 
           7396.4  5.720209e-17 
          7398.35  5.614941e-17 
           7400.3  5.827273e-17 
          7402.25  6.024989e-17 
 7404.20000000001  6.225705e-17 
          7406.15  6.229679e-17 
           7408.1  5.436618e-17 
          7410.05   5.28283e-17 
           7412.0  5.285517e-17 
 7413.95000000001  5.190985e-17 
           7415.9  4.998165e-17 
          7417.85  5.264548e-17 
           7419.8  5.483549e-17 
 7421.75000000001  5.104222e-17 
 7423.70000000001  5.533191e-17 
          7425.65  5.106172e-17 
           7427.6  5.110106e-17 
          7429.55  5.566622e-17 
           7431.5  5.421595e-17 
 7433.45000000001  5.190581e-17 
           7435.4  5.364641e-17 
          7437.35  5.586482e-17 
 7439.30000000001  6.219261e-17 
          7441.25  6.383854e-17 
           7443.2  5.788562e-17 
          7445.15  5.935145e-17 
           7447.1  6.320688e-17 
          7449.05  5.912729e-17 
           7451.0  5.879288e-17 
          7452.95  5.971639e-17 
 7454.90000000001  6.183132e-17 
          7456.85  5.949665e-17 
           7458.8  6.008756e-17 
 7460.75000000001  5.803726e-17 
           7462.7  6.146459e-17 
          7464.65  6.597887e-17 
 7466.60000000001  6.228376e-17 
          7468.55  6.220466e-17 
 7470.50000000001  6.441226e-17 
          7472.45  6.536852e-17 
           7474.4   6.35339e-17 
 7476.35000000001  6.399461e-17 
           7478.3  6.098503e-17 
          7480.25  6.369223e-17 
           7482.2  6.758569e-17 
          7484.15  6.717293e-17 
           7486.1   6.40555e-17 
          7488.05  6.804031e-17 
           7490.0  6.579704e-17 
 7491.95000000001  5.859624e-17 
 7493.90000000001  6.085852e-17 
          7495.85   6.13544e-17 
           7497.8  5.841888e-17 
          7499.75  6.037826e-17 
           7501.7  6.323043e-17 
 7503.65000000001  6.576842e-17 
           7505.6  6.519775e-17 
          7507.55   6.32709e-17 
           7509.5  6.453889e-17 
          7511.45  6.338698e-17 
           7513.4  6.324647e-17 
          7515.35  6.477274e-17 
           7517.3  6.769535e-17 
          7519.25  7.333531e-17 
           7521.2  7.511054e-17 
          7523.15     6.561e-17 
           7525.1  6.292485e-17 
          7527.05  6.816921e-17 
           7529.0  7.214753e-17 
          7530.95  7.260516e-17 
           7532.9  7.403736e-17 
          7534.85  7.565696e-17 
           7536.8  7.118266e-17 
          7538.75  6.551168e-17 
           7540.7  6.752348e-17 
          7542.65  7.040418e-17 
           7544.6  7.006285e-17 
 7546.55000000001  6.764213e-17 
 7548.50000000001  6.743233e-17 
          7550.45  7.024641e-17 
           7552.4  7.081857e-17 
 7554.35000000001  6.699302e-17 
           7556.3   6.90649e-17 
          7558.25  7.177489e-17 
           7560.2  6.613919e-17 
          7562.15  6.503807e-17 
 7564.10000000001  6.984456e-17 
          7566.05   7.30476e-17 
           7568.0  7.147447e-17 
          7569.95  6.972098e-17 
           7571.9  7.290288e-17 
          7573.85  7.477983e-17 
           7575.8  7.178463e-17 
          7577.75  7.044258e-17 
 7579.70000000001  7.137961e-17 
 7581.65000000001  7.030008e-17 
           7583.6  7.265889e-17 
          7585.55  7.364875e-17 
           7587.5  7.002898e-17 
 7589.45000000001  6.968383e-17 
 7591.40000000001  6.980338e-17 
          7593.35  7.073204e-17 
 7595.30000000001  7.703669e-17 
          7597.25  7.265786e-17 
           7599.2  8.008613e-17 
          7601.15  7.272947e-17 
           7603.1   7.30159e-17 
          7605.05  7.272947e-17 
           7607.0  6.851462e-17 
          7608.95  7.420767e-17 
           7610.9  7.584618e-17 
          7612.85  7.391263e-17 
           7614.8  7.368842e-17 
 7616.75000000001  7.368842e-17 
           7618.7  6.548781e-17 
          7620.65  7.368842e-17 
           7622.6  7.646904e-17 
          7624.55  7.711133e-17 
           7626.5   8.19856e-17 
          7628.45  7.968142e-17 
           7630.4  7.648567e-17 
          7632.35  7.450999e-17 
 7634.30000000001  7.264761e-17 
 7636.25000000001  7.161536e-17 
           7638.2  7.539234e-17 
          7640.15  7.546727e-17 
           7642.1  7.310733e-17 
          7644.05  6.541367e-17 
           7646.0  6.936531e-17 
          7647.95    7.0496e-17 
 7649.90000000001  6.997311e-17 
 7651.85000000001  7.415771e-17 
           7653.8  7.561986e-17 
          7655.75  7.391616e-17 
           7657.7  7.065807e-17 
          7659.65  6.932218e-17 
           7661.6  6.955617e-17 
          7663.55  7.537975e-17 
           7665.5  7.964388e-17 
 7667.45000000001  7.655672e-17 
 7669.40000000001   7.60164e-17 
          7671.35  7.889369e-17 
           7673.3  7.782964e-17 
          7675.25  7.644716e-17 
           7677.2  7.784969e-17 
 7679.15000000001   8.06531e-17 
           7681.1  7.774447e-17 
 7683.05000000001  7.612511e-17 
           7685.0  7.657435e-17 
 7686.95000000001  7.368011e-17 
           7688.9  7.427696e-17 
          7690.85  7.914698e-17 
           7692.8  7.405835e-17 
          7694.75  7.277249e-17 
           7696.7  7.387993e-17 
 7698.65000000001  7.506162e-17 
           7700.6  8.176775e-17 
          7702.55  7.868836e-17 
 7704.50000000001   7.27499e-17 
          7706.45  7.549864e-17 
           7708.4  7.789144e-17 
          7710.35  7.310603e-17 
           7712.3   7.92115e-17 
 7714.25000000001  7.976513e-17 
           7716.2  8.124566e-17 
          7718.15  8.616361e-17 
 7720.10000000001  8.340923e-17 
 7722.05000000001  7.843706e-17 
           7724.0  7.541339e-17 
          7725.95  7.547486e-17 
           7727.9  7.619578e-17 
          7729.85  7.504531e-17 
           7731.8  7.663375e-17 
          7733.75  7.556675e-17 
 7735.70000000001  7.092014e-17 
 7737.65000000001  7.120817e-17 
 7739.60000000001  7.736813e-17 
          7741.55  7.800093e-17 
           7743.5  7.389615e-17 
          7745.45  7.064816e-17 
           7747.4  7.390303e-17 
          7749.35  7.956398e-17 
           7751.3  7.793131e-17 
          7753.25  7.804135e-17 
 7755.20000000001  8.372705e-17 
          7757.15  7.973138e-17 
           7759.1  7.289813e-17 
          7761.05  7.363195e-17 
           7763.0  7.449762e-17 
          7764.95  7.798532e-17 
 7766.90000000001  7.794965e-17 
 7768.85000000001   6.94087e-17 
 7770.80000000001  6.656031e-17 
          7772.75   7.48191e-17 
           7774.7  7.889928e-17 
          7776.65  7.465223e-17 
           7778.6  7.179543e-17 
          7780.55  7.662842e-17 
           7782.5  7.944945e-17 
          7784.45  7.331134e-17 
 7786.40000000001  7.224857e-17 
          7788.35  7.224857e-17 
           7790.3   7.20376e-17 
 7792.25000000001  7.686044e-17 
           7794.2  6.922898e-17 
          7796.15  6.850121e-17 
           7798.1   7.16748e-17 
          7800.05  7.357429e-17 
 7802.00000000001  7.327213e-17 
          7803.95  7.299772e-17 
           7805.9  7.280555e-17 
 7807.85000000001  7.469862e-17 
           7809.8  7.768693e-17 
          7811.75  7.808773e-17 
           7813.7  7.365849e-17 
          7815.65  6.914272e-17 
 7817.60000000001  6.802843e-17 
          7819.55  7.476731e-17 
           7821.5  8.413108e-17 
 7823.45000000001  8.463681e-17 
           7825.4  7.994075e-17 
          7827.35  7.491383e-17 
           7829.3   7.23021e-17 
          7831.25  7.247174e-17 
           7833.2  7.421869e-17 
          7835.15  7.387833e-17 
           7837.1  7.190296e-17 
 7839.05000000001   7.05025e-17 
           7841.0  7.004053e-17 
          7842.95  7.280183e-17 
           7844.9  6.863138e-17 
          7846.85  6.677752e-17 
           7848.8  6.877424e-17 
          7850.75  7.209256e-17 
           7852.7  8.081834e-17 
 7854.65000000001  7.917123e-17 
 7856.60000000001   7.54348e-17 
          7858.55  7.491224e-17 
 7860.50000000001  7.494865e-17 
          7862.45  7.341739e-17 
           7864.4  7.569159e-17 
          7866.35  7.800454e-17 
           7868.3  7.631996e-17 
          7870.25  7.345668e-17 
           7872.2  6.763197e-17 
          7874.15  6.752342e-17 
           7876.1  7.361236e-17 
          7878.05  6.843423e-17 
 7880.00000000001  6.635671e-17 
          7881.95  7.702863e-17 
           7883.9  7.799254e-17 
          7885.85  7.219877e-17 
           7887.8  7.259248e-17 
 7889.75000000001  7.209274e-17 
           7891.7  7.565994e-17 
 7893.65000000001  7.606711e-17 
 7895.60000000001  7.712026e-17 
          7897.55  7.878233e-17 
           7899.5  7.406001e-17 
          7901.45  7.280715e-17 
           7903.4  7.093537e-17 
 7905.35000000001  7.064803e-17 
           7907.3  7.072903e-17 
          7909.25  7.489544e-17 
           7911.2  8.138104e-17 
          7913.15   7.95173e-17 
           7915.1   7.44787e-17 
          7917.05  7.204623e-17 
           7919.0   7.19381e-17 
          7920.95  7.172185e-17 
           7922.9  6.551198e-17 
          7924.85  6.461357e-17 
 7926.80000000001  7.184123e-17 
          7928.75  7.288428e-17 
           7930.7  6.842851e-17 
          7932.65  6.981328e-17 
           7934.6  7.251873e-17 
 7936.55000000001  7.117257e-17 
           7938.5  6.657928e-17 
          7940.45  6.824595e-17 
 7942.40000000001  6.899885e-17 
          7944.35  6.509362e-17 
           7946.3  6.309443e-17 
 7948.25000000001  6.558657e-17 
           7950.2  6.660363e-17 
          7952.15  6.477518e-17 
           7954.1  6.376614e-17 
          7956.05  6.601372e-17 
           7958.0  6.407427e-17 
          7959.95  6.269356e-17 
           7961.9  7.200735e-17 
 7963.85000000001  7.501428e-17 
           7965.8   6.85607e-17 
 7967.75000000001  6.955993e-17 
           7969.7  7.049191e-17 
          7971.65  7.004612e-17 
           7973.6  7.136874e-17 
          7975.55  6.903086e-17 
           7977.5  6.669439e-17 
 7979.45000000001  6.559019e-17 
 7981.40000000001  6.488478e-17 
 7983.35000000001  6.367554e-17 
           7985.3  6.833975e-17 
          7987.25  7.303728e-17 
           7989.2  7.208438e-17 
          7991.15  7.397816e-17 
           7993.1  6.963795e-17 
          7995.05   6.57555e-17 
           7997.0   7.01026e-17 
          7998.95  6.697001e-17 
 8000.90000000001  7.216571e-17 
          8002.85  6.609918e-17 
           8004.8  6.609918e-17 
          8006.75  5.537181e-17 
           8008.7  6.554511e-17 
          8010.65  6.217336e-17 
           8012.6  6.473724e-17 
          8014.55  6.632247e-17 
           8016.5  6.522812e-17 
 8018.45000000001  6.560972e-17 
           8020.4  6.560492e-17 
          8022.35  6.313956e-17 
           8024.3  6.363423e-17 
          8026.25   6.07787e-17 
           8028.2   5.96484e-17 
          8030.15  6.336716e-17 
           8032.1  6.364617e-17 
          8034.05  6.269911e-17 
 8036.00000000001  6.059554e-17 
          8037.95  6.044471e-17 
 8039.90000000001  5.981512e-17 
          8041.85  6.058218e-17 
           8043.8  6.109175e-17 
          8045.75  6.092007e-17 
           8047.7  5.916841e-17 
          8049.65  5.867072e-17 
           8051.6  6.600968e-17 
 8053.55000000001  6.194586e-17 
           8055.5  5.874942e-17 
          8057.45  6.242096e-17 
           8059.4  6.175149e-17 
          8061.35  6.247513e-17 
           8063.3  6.151949e-17 
          8065.25  5.916045e-17 
           8067.2  5.992867e-17 
          8069.15  5.807244e-17 
 8071.10000000001  5.822354e-17 
          8073.05  5.839973e-17 
           8075.0  6.060597e-17 
          8076.95  6.330722e-17 
           8078.9  6.093059e-17 
          8080.85  5.618406e-17 
           8082.8  5.755476e-17 
          8084.75  6.274748e-17 
           8086.7  6.327281e-17 
 8088.65000000001  6.327181e-17 
           8090.6  6.376076e-17 
          8092.55  6.219095e-17 
           8094.5  5.936843e-17 
          8096.45  6.031045e-17 
           8098.4  6.134686e-17 
          8100.35   5.68434e-17 
           8102.3  5.404654e-17 
          8104.25  5.912935e-17 
 8106.20000000001  6.542913e-17 
          8108.15  6.301081e-17 
           8110.1  6.226366e-17 
          8112.05  6.081942e-17 
           8114.0  5.724149e-17 
          8115.95  6.099797e-17 
           8117.9  6.470968e-17 
          8119.85  6.351065e-17 
           8121.8  6.267796e-17 
 8123.75000000001  6.102387e-17 
           8125.7  6.230044e-17 
          8127.65  6.428597e-17 
           8129.6  6.040072e-17 
          8131.55  5.697443e-17 
           8133.5   5.98073e-17 
          8135.45  5.574876e-17 
 8137.40000000001  5.326594e-17 
          8139.35  5.592507e-17 
           8141.3  6.080729e-17 
          8143.25  6.549963e-17 
           8145.2  5.923214e-17 
          8147.15  5.870838e-17 
           8149.1  6.107549e-17 
          8151.05  5.809553e-17 
           8153.0  5.892695e-17 
          8154.95   6.02696e-17 
           8156.9  5.746112e-17 
          8158.85  5.522457e-17 
           8160.8  5.751068e-17 
          8162.75  6.214314e-17 
           8164.7  6.072377e-17 
          8166.65  5.544759e-17 
           8168.6  5.926206e-17 
          8170.55  6.399427e-17 
           8172.5  6.270237e-17 
          8174.45  6.034661e-17 
           8176.4  5.828567e-17 
          8178.35  5.714859e-17 
           8180.3  5.871176e-17 
          8182.25  5.921973e-17 
           8184.2  5.676759e-17 
 8186.15000000001  6.200351e-17 
           8188.1   6.43861e-17 
          8190.05  6.189389e-17 
           8192.0  5.922813e-17 
          8193.95  6.393087e-17 
 8195.90000000001  6.477143e-17 
          8197.85   6.25507e-17 
           8199.8  6.032885e-17 
          8201.75    5.8107e-17 
 8203.70000000001  5.588515e-17 
 8205.65000000001  6.233306e-17 
           8207.6  5.608701e-17 
          8209.55  5.973822e-17 
           8211.5  6.020058e-17 
 8213.45000000001  6.048294e-17 
 8215.40000000001   5.96305e-17 
          8217.35  5.124237e-17 
           8219.3  4.824109e-17 
          8221.25  5.421742e-17 
           8223.2  5.922685e-17 
          8225.15  6.049736e-17 
           8227.1   6.13586e-17 
          8229.05   6.23199e-17 
           8231.0  5.744368e-17 
          8232.95  5.520794e-17 
 8234.90000000001  5.523237e-17 
          8236.85  5.771749e-17 
           8238.8   5.38322e-17 
          8240.75  5.142867e-17 
           8242.7  5.092834e-17 
          8244.65  5.197662e-17 
           8246.6   5.11151e-17 
          8248.55  4.831177e-17 
           8250.5  5.218082e-17 
 8252.45000000001  4.928983e-17 
 8254.40000000001  5.004388e-17 
 8256.35000000001  5.051273e-17 
           8258.3  5.538062e-17 
          8260.25  5.362002e-17 
           8262.2  5.208889e-17 
          8264.15    5.3002e-17 
           8266.1  5.336249e-17 
          8268.05  5.511734e-17 
           8270.0  5.234854e-17 
          8271.95  4.838571e-17 
 8273.90000000001  5.828711e-17 
          8275.85  5.868952e-17 
           8277.8  6.221577e-17 
          8279.75  7.018946e-17 
           8281.7  5.771498e-17 
 8283.65000000001  4.448476e-17 
           8285.6  5.526887e-17 
          8287.55  6.569944e-17 
           8289.5  7.144007e-17 
          8291.45  6.830319e-17 
 8293.40000000001  6.101113e-17 
          8295.35  5.829408e-17 
           8297.3  5.331649e-17 
          8299.25  4.930605e-17 
 8301.20000000001  4.976562e-17 
 8303.15000000001  5.138531e-17 
 8305.10000000001  5.477308e-17 
          8307.05  5.751978e-17 
           8309.0  5.540735e-17 
 8310.95000000001  5.623937e-17 
           8312.9  6.122846e-17 
          8314.85  5.523783e-17 
           8316.8  5.164966e-17 
          8318.75  5.401369e-17 
           8320.7  5.103306e-17 
 8322.65000000001  5.138385e-17 
           8324.6  5.219279e-17 
          8326.55  5.024316e-17 
           8328.5  4.817027e-17 
          8330.45   5.22961e-17 
           8332.4  5.192331e-17 
          8334.35  4.938875e-17 
           8336.3  5.639296e-17 
          8338.25  6.774145e-17 
 8340.20000000001  7.023419e-17 
 8342.15000000001  6.268238e-17 
           8344.1  6.117206e-17 
          8346.05  6.019833e-17 
           8348.0    6.0768e-17 
          8349.95  6.747331e-17 
           8351.9  7.311236e-17 
 8353.85000000001  7.073159e-17 
           8355.8  6.184325e-17 
          8357.75  6.272856e-17 
 8359.70000000001  6.466929e-17 
 8361.65000000001  5.900525e-17 
           8363.6  6.042971e-17 
          8365.55   6.37007e-17 
           8367.5  5.805914e-17 
          8369.45  5.657387e-17 
 8371.40000000001  5.424826e-17 
          8373.35  5.016013e-17 
           8375.3  5.393524e-17 
          8377.25  5.781448e-17 
           8379.2  5.218994e-17 
 8381.15000000001  4.888315e-17 
           8383.1  5.617823e-17 
          8385.05  6.621403e-17 
           8387.0  7.100439e-17 
 8388.95000000001  6.419882e-17 
 8390.90000000001  5.710653e-17 
          8392.85  5.577167e-17 
           8394.8  5.946114e-17 
          8396.75  6.707768e-17 
 8398.70000000001  6.663564e-17 
          8400.65  6.254147e-17 
           8402.6   7.20129e-17 
          8404.55  7.571144e-17 
           8406.5  6.189753e-17 
 8408.45000000001  6.068126e-17 
 8410.40000000001  5.950128e-17 
          8412.35  5.581176e-17 
           8414.3  6.069006e-17 
          8416.25  6.134432e-17 
           8418.2  5.980153e-17 
 8420.15000000001  5.990259e-17 
           8422.1  4.449719e-17 
          8424.05  4.879232e-17 
           8426.0  7.338468e-17 
          8427.95  6.705718e-17 
 8429.90000000001  5.367935e-17 
          8431.85  5.121351e-17 
           8433.8  5.598012e-17 
          8435.75  4.604974e-17 
           8437.7  4.930279e-17 
          8439.65  5.627376e-17 
           8441.6  5.128988e-17 
          8443.55  5.216905e-17 
           8445.5  6.267196e-17 
 8447.45000000001  5.830863e-17 
 8449.40000000001   5.45861e-17 
 8451.35000000001  5.079922e-17 
           8453.3  5.610971e-17 
          8455.25  5.715295e-17 
           8457.2  6.042433e-17 
          8459.15  6.126662e-17 
           8461.1   5.27861e-17 
          8463.05  5.612356e-17 
           8465.0  6.359245e-17 
          8466.95  5.931787e-17 
 8468.90000000001  5.066255e-17 
          8470.85  5.346115e-17 
           8472.8  5.189433e-17 
          8474.75  5.370043e-17 
           8476.7  5.990655e-17 
 8478.65000000001  5.932062e-17 
           8480.6  6.087746e-17 
          8482.55  5.689823e-17 
           8484.5  5.922852e-17 
 8486.45000000001  6.729548e-17 
           8488.4  5.700665e-17 
          8490.35  5.251603e-17 
           8492.3  5.830838e-17 
          8494.25  6.110983e-17 
 8496.20000000001  6.376289e-17 
 8498.15000000001  5.563823e-17 
 8500.10000000001  5.406388e-17 
          8502.05  6.058081e-17 
           8504.0  5.648775e-17 
          8505.95  4.977896e-17 
 8507.90000000001  4.927998e-17 
          8509.85  5.840371e-17 
           8511.8  5.637833e-17 
          8513.75  4.774282e-17 
           8515.7  4.929707e-17 
 8517.65000000001   5.01842e-17 
           8519.6  5.122634e-17 
          8521.55  4.786129e-17 
           8523.5  5.034467e-17 
          8525.45   5.45822e-17 
           8527.4  5.349569e-17 
          8529.35  5.131976e-17 
           8531.3  4.765528e-17 
          8533.25  4.613915e-17 
 8535.20000000001  4.725555e-17 
 8537.15000000001  5.184277e-17 
 8539.10000000001  5.249727e-17 
          8541.05  4.942896e-17 
           8543.0  5.201021e-17 
          8544.95  5.156506e-17 
           8546.9  4.964843e-17 
 8548.85000000001  5.553986e-17 
           8550.8  5.612437e-17 
          8552.75  5.792367e-17 
 8554.70000000001  5.042729e-17 
 8556.65000000001  4.476771e-17 
           8558.6  4.669219e-17 
          8560.55   5.12291e-17 
           8562.5  4.935181e-17 
          8564.45  4.809606e-17 
 8566.40000000001  4.723979e-17 
          8568.35  5.132353e-17 
           8570.3  5.287806e-17 
          8572.25  5.102771e-17 
 8574.20000000001  5.003972e-17 
          8576.15  4.427959e-17 
           8578.1  4.805024e-17 
