# STATUS =
# OBJECT = 2016wi
# TELESCOPE = P200
# INSTRUMENT = DBSP
# DATE-OBS = 2016-02-02 00:00:00.00
# MJD = 57420.0
# EXPTIME = 0
# AIRMASS = --
# SLIT = 0
# DISPERSER = --
# SOURCE = 2017ApJ...848....6Y
# FILTER =
# RESOLUTION =
# FLUX_STANDARD =
# EXTINCTION_CORRECTED = --
# PHOTOMETRY_CALIBRATED =
# TELLURIC_CORRECTED =
# FLUX_UNITS = Other
# WAVE_UNITS = Angstrom
# QUALITY = --
# MIN_WAVE = 3100.714
# MAX_WAVE = 10237.07
# COMMENT = [Marshal: lastmodified2016-02-02 15:25:22; specid8506]  [Prev. spec info - createdby: upload-marshalspec; modifiedby: upload-marshalspec]
 Wavelength        Flux      Error 
   3101.762   5.088e-16  2.766e-16 
    3102.81   6.776e-17  2.755e-16 
   3103.857  -1.914e-16  2.656e-16 
   3104.905   -1.04e-15  3.203e-16 
   3105.953  -2.281e-16  2.922e-16 
   3107.002  -1.544e-16  2.526e-16 
   3108.049   3.035e-16  2.248e-16 
   3109.098   4.391e-16  2.351e-16 
   3110.146  -5.647e-17  2.145e-16 
   3111.195  -5.411e-17  2.075e-16 
   3112.242  -9.875e-17  2.069e-16 
   3113.291  -3.195e-16  2.036e-16 
    3114.34  -8.214e-17  2.024e-16 
   3115.388  -2.585e-16  1.963e-16 
   3116.436  -6.898e-17  2.065e-16 
   3117.485  -1.861e-17  1.919e-16 
   3118.534  -1.925e-16  1.942e-16 
   3119.582   2.654e-16  1.815e-16 
   3120.631  -1.987e-16  1.814e-16 
   3121.681   9.649e-17  1.681e-16 
    3122.73  -1.114e-16  1.839e-16 
   3123.778   1.635e-16  1.854e-16 
   3124.827  -2.075e-16  1.778e-16 
   3125.877  -1.565e-16  1.767e-16 
   3126.926  -2.896e-16   1.64e-16 
   3127.975  -1.627e-16   1.59e-16 
   3129.024  -2.202e-16  1.588e-16 
   3130.074   -3.72e-16  1.719e-16 
   3131.123   -1.48e-16  1.621e-16 
   3132.172   2.301e-16  1.523e-16 
   3133.222   7.094e-17  1.578e-16 
   3134.272  -3.427e-17  1.401e-16 
   3135.321  -7.711e-17  1.416e-16 
   3136.371  -8.077e-17  1.405e-16 
   3137.421  -6.989e-18  1.499e-16 
   3138.471    2.35e-16  1.478e-16 
    3139.52    9.13e-18  1.553e-16 
   3140.571   1.548e-17  1.433e-16 
   3141.621  -3.564e-16  1.386e-16 
   3142.671   6.798e-18  1.441e-16 
   3143.721   1.713e-16  1.721e-16 
   3144.771  -5.197e-18  1.518e-16 
   3145.822  -1.926e-17  1.571e-16 
   3146.872   3.189e-16  1.725e-16 
   3147.922    6.01e-17   1.56e-16 
   3148.972  -2.437e-16  1.244e-16 
   3150.023  -2.988e-18  1.351e-16 
   3151.073   3.256e-17  1.418e-16 
   3152.124  -1.772e-16    1.3e-16 
   3153.175   1.611e-16  1.403e-16 
   3154.226  -2.355e-17  1.262e-16 
   3155.276   1.652e-16  1.414e-16 
   3156.327  -3.409e-17  1.212e-16 
   3157.378  -1.286e-16  1.087e-16 
   3158.429   1.084e-16  1.217e-16 
   3159.479  -1.744e-16  9.793e-17 
   3160.531  -7.704e-17  9.907e-17 
   3161.582   -1.45e-16  9.327e-17 
   3162.634  -1.114e-16  9.535e-17 
   3163.684   -2.04e-17  8.998e-17 
   3164.736   9.769e-17  1.079e-16 
   3165.787   7.333e-17  1.059e-16 
   3166.838  -1.354e-18  9.738e-17 
    3167.89  -7.697e-17  8.862e-17 
   3168.941    1.22e-16      1e-16 
   3169.993   4.083e-17  9.786e-17 
   3171.044   8.636e-17  1.013e-16 
   3172.096   9.732e-17  9.154e-17 
   3173.148  -3.545e-17  9.272e-17 
     3174.2   1.676e-16  1.112e-16 
   3175.251   6.157e-17  9.329e-17 
   3176.303   7.995e-17  7.947e-17 
   3177.356   7.684e-17  8.867e-17 
   3178.408   -3.71e-17  7.163e-17 
   3179.459  -9.446e-17  7.044e-17 
   3180.512   3.744e-18  7.022e-17 
   3181.564   2.021e-17  6.621e-17 
   3182.617  -1.618e-16  7.029e-17 
   3183.668  -5.707e-18   6.07e-17 
   3184.721  -3.436e-17  6.178e-17 
   3185.774   1.157e-16  8.121e-17 
   3186.825   1.822e-17  7.142e-17 
   3187.878   4.251e-17  7.354e-17 
   3188.931   6.665e-17  7.017e-17 
   3189.984   1.198e-16   7.34e-17 
   3191.036   1.407e-16   7.54e-17 
   3192.089  -1.057e-16  6.356e-17 
   3193.142   -1.65e-17   6.93e-17 
   3194.195   2.074e-16  7.995e-17 
   3195.247   1.412e-16   7.95e-17 
   3196.301  -1.392e-16    7.4e-17 
   3197.354   8.213e-17  7.703e-17 
   3198.407   4.627e-17  7.171e-17 
    3199.46  -2.491e-17  7.091e-17 
   3200.513  -5.138e-17  6.923e-17 
   3201.567   3.187e-17  7.547e-17 
   3202.619   1.009e-16  8.246e-17 
   3203.673   1.161e-16  7.927e-17 
   3204.727   1.278e-16  8.452e-17 
    3205.78   1.292e-16  8.194e-17 
   3206.833   -3.07e-16  7.422e-17 
   3207.887   8.454e-17  8.397e-17 
   3208.941  -1.861e-17  7.766e-17 
   3209.995   1.579e-16   9.64e-17 
   3211.048     2.4e-16  1.054e-16 
   3212.102  -4.117e-17  7.603e-17 
   3213.156   9.852e-17  8.395e-17 
    3214.21  -2.308e-17  7.896e-17 
   3215.263   4.188e-17  7.929e-17 
   3216.318  -7.566e-17  7.113e-17 
   3217.372  -6.364e-18  6.749e-17 
   3218.426   3.415e-17   7.29e-17 
    3219.48  -5.775e-17  7.005e-17 
   3220.535   6.991e-17  7.618e-17 
   3221.589   1.456e-16  7.337e-17 
   3222.643  -4.612e-17  6.672e-17 
   3223.697   8.455e-17  6.908e-17 
   3224.752  -1.105e-16  6.217e-17 
   3225.807  -1.282e-17  6.777e-17 
   3226.861  -7.011e-17  6.154e-17 
   3227.916   1.884e-16  7.812e-17 
   3228.971   6.519e-17   7.67e-17 
   3230.026   6.245e-17  6.969e-17 
    3231.08  -1.252e-16  5.969e-17 
   3232.135     2.6e-17  5.962e-17 
    3233.19   5.888e-17  6.496e-17 
   3234.244  -1.074e-16  5.508e-17 
     3235.3   2.432e-17   6.09e-17 
   3236.355   4.137e-17  5.369e-17 
    3237.41  -7.153e-17  5.309e-17 
   3238.465   1.245e-17  5.287e-17 
    3239.52   1.316e-16  6.363e-17 
   3240.576   8.146e-17  5.627e-17 
   3241.631  -1.167e-17  5.205e-17 
   3242.686  -2.059e-17  5.441e-17 
   3243.742   5.799e-17  5.623e-17 
   3244.798    7.85e-17  5.419e-17 
   3245.853  -5.661e-17  5.339e-17 
   3246.908   4.793e-17   5.87e-17 
   3247.964   5.628e-17  5.421e-17 
    3249.02   6.529e-17  5.555e-17 
   3250.075  -1.779e-17   5.45e-17 
   3251.131  -3.668e-17  5.797e-17 
   3252.188  -5.953e-17   5.27e-17 
   3253.244  -4.984e-17  5.466e-17 
   3254.299   1.077e-16  5.579e-17 
   3255.355   3.644e-17  5.802e-17 
   3256.412   4.595e-17  6.017e-17 
   3257.468   1.141e-16  6.703e-17 
   3258.524  -1.021e-16  5.653e-17 
    3259.58   7.773e-17  6.751e-17 
   3260.637  -4.005e-17  5.876e-17 
   3261.692   5.896e-17  6.086e-17 
   3262.749   7.176e-18  5.908e-17 
   3263.806   4.334e-18  5.395e-17 
   3264.863   6.755e-17  5.603e-17 
   3265.918  -5.504e-17  4.749e-17 
   3266.975   2.156e-17  5.018e-17 
   3268.032  -9.125e-17  4.758e-17 
   3269.089  -3.513e-18  5.257e-17 
   3270.145  -8.271e-17  3.942e-17 
   3271.202   6.779e-17  5.082e-17 
    3272.26  -7.639e-17   4.28e-17 
   3273.317   8.709e-17  5.393e-17 
   3274.373    -2.1e-17  4.467e-17 
    3275.43    9.28e-18  4.717e-17 
   3276.488  -4.365e-17  4.118e-17 
   3277.544   4.596e-17  4.875e-17 
   3278.602  -7.434e-18  3.893e-17 
   3279.659   1.843e-17  3.957e-17 
   3280.717   3.358e-17  4.117e-17 
   3281.773   7.862e-17  4.107e-17 
   3282.831   2.508e-17  3.983e-17 
   3283.889  -2.379e-17   3.46e-17 
   3284.947   -2.05e-17   3.52e-17 
   3286.004   8.438e-17  4.502e-17 
   3287.061  -7.341e-18  3.903e-17 
   3288.119  -3.163e-18  3.904e-17 
   3289.177   -6.45e-17  3.794e-17 
   3290.234   5.546e-18  4.086e-17 
   3291.293   -2.74e-17  4.097e-17 
   3292.351   1.014e-17  4.415e-17 
   3293.408  -6.226e-17  4.208e-17 
   3294.466  -6.046e-17  4.604e-17 
   3295.524  -5.388e-17  4.724e-17 
   3296.583   1.715e-17  4.956e-17 
    3297.64   1.019e-16  5.368e-17 
   3298.699  -3.923e-17  4.268e-17 
   3299.757   7.432e-17  5.205e-17 
   3300.816    6.07e-17  5.049e-17 
   3301.873   4.733e-17  4.681e-17 
   3302.932  -4.822e-17  4.232e-17 
   3303.991   3.495e-17  4.814e-17 
   3305.049  -1.335e-17    4.5e-17 
   3306.107  -3.913e-17  4.297e-17 
   3307.166   1.093e-19  4.305e-17 
   3308.225   6.679e-19  4.562e-17 
   3309.283   1.434e-17  4.507e-17 
   3310.342  -1.681e-17  3.809e-17 
   3311.401   9.067e-17  4.783e-17 
    3312.46   4.018e-17  4.666e-17 
   3313.519   3.124e-17  4.797e-17 
   3314.578  -2.847e-19  4.179e-17 
   3315.637  -7.544e-18  4.599e-17 
   3316.697   1.944e-18  5.106e-17 
   3317.755  -1.635e-17  4.537e-17 
   3318.814   1.286e-17  4.991e-17 
   3319.874  -2.062e-17  4.796e-17 
   3320.932  -1.318e-17  4.465e-17 
   3321.992   2.084e-17  4.879e-17 
   3323.052   8.115e-18  4.696e-17 
   3324.111   2.448e-17  4.386e-17 
    3325.17   3.311e-17   3.93e-17 
    3326.23   3.143e-17  3.934e-17 
    3327.29  -1.863e-17   3.98e-17 
    3328.35   1.636e-17  3.767e-17 
   3329.409   1.362e-17  3.632e-17 
   3330.469   1.735e-17  3.593e-17 
   3331.529  -6.227e-18  3.359e-17 
   3332.588   3.374e-18  3.371e-17 
   3333.648   7.417e-18  3.528e-17 
   3334.708   5.185e-17  3.393e-17 
   3335.768  -4.403e-17  3.109e-17 
   3336.828   -4.43e-18  3.254e-17 
   3337.888   7.894e-17  3.683e-17 
   3338.948  -2.313e-17  2.924e-17 
   3340.009   4.152e-18  3.271e-17 
   3341.068  -2.485e-17   3.23e-17 
   3342.129   -2.14e-17  2.915e-17 
    3343.19    3.22e-17  3.359e-17 
   3344.249  -3.387e-17  2.735e-17 
    3345.31  -2.503e-17  2.636e-17 
   3346.371   2.214e-17  2.694e-17 
   3347.431  -3.076e-17  2.327e-17 
   3348.491   6.687e-17  2.959e-17 
   3349.552   3.015e-17  2.602e-17 
   3350.613   3.674e-17  2.714e-17 
   3351.674  -1.086e-17  2.286e-17 
   3352.734  -7.888e-18  2.461e-17 
   3353.795  -4.809e-17  1.929e-17 
   3354.856   9.701e-18  2.464e-17 
   3355.918  -3.409e-20  2.566e-17 
   3356.978  -3.649e-17  2.257e-17 
   3358.039   3.909e-17  2.753e-17 
     3359.1   1.915e-17  2.337e-17 
   3360.161   8.237e-17  2.893e-17 
   3361.222  -2.683e-17  2.532e-17 
   3362.284   4.992e-17  2.933e-17 
   3363.345  -3.682e-18  2.481e-17 
   3364.406   4.242e-17  2.985e-17 
   3365.468   2.494e-17  3.034e-17 
   3366.529   2.528e-17  3.196e-17 
   3367.591   2.251e-17  3.715e-17 
   3368.652   5.232e-17  4.277e-17 
   3369.714   6.811e-18  4.584e-17 
   3370.775  -1.168e-17  4.371e-17 
   3371.836  -1.566e-17  4.595e-17 
   3372.898  -2.149e-17  4.302e-17 
    3373.96   4.701e-17   4.79e-17 
   3375.023   3.771e-17  4.433e-17 
   3376.084   4.971e-17  4.453e-17 
   3377.146   1.086e-17  4.039e-17 
   3378.208  -4.617e-17   3.82e-17 
    3379.27   3.153e-17  3.914e-17 
   3380.332   2.524e-17  3.656e-17 
   3381.394  -6.631e-19    3.5e-17 
   3382.456  -3.097e-17  3.081e-17 
   3383.518   1.659e-17  3.525e-17 
    3384.58  -2.259e-18  3.269e-17 
   3385.643   9.735e-18  3.425e-17 
   3386.706       1e-17  3.193e-17 
   3387.767   1.475e-17  3.148e-17 
    3388.83  -1.308e-17  3.066e-17 
   3389.893   3.268e-18  2.961e-17 
   3390.955  -6.191e-18  2.647e-17 
   3392.017  -7.371e-18  2.821e-17 
    3393.08   7.885e-17  3.264e-17 
   3394.143   -5.68e-18  2.716e-17 
   3395.205  -4.504e-18   2.64e-17 
   3396.268    4.02e-17  3.018e-17 
   3397.331   1.831e-17  2.746e-17 
   3398.394   5.571e-17   3.07e-17 
   3399.457   3.437e-17  2.945e-17 
    3400.52  -3.115e-17  2.332e-17 
   3401.583   4.152e-17  2.871e-17 
   3402.646  -1.783e-17  2.314e-17 
   3403.709   6.009e-18   2.31e-17 
   3404.772   3.282e-17  2.549e-17 
   3405.836   5.919e-17  2.737e-17 
   3406.898   1.954e-17  2.315e-17 
   3407.962  -2.835e-17   2.05e-17 
   3409.025    1.76e-17  2.333e-17 
   3410.089  -4.568e-18  1.948e-17 
   3411.152   1.289e-17  2.009e-17 
   3412.215   4.398e-17  2.299e-17 
   3413.279   1.878e-17  2.233e-17 
   3414.343  -1.078e-17  2.087e-17 
   3415.406   1.356e-17  2.062e-17 
    3416.47  -9.449e-19  2.134e-17 
   3417.534  -8.563e-18  2.428e-17 
   3418.597   1.948e-17  2.562e-17 
   3419.661    4.01e-18  2.571e-17 
   3420.725   2.584e-17  2.638e-17 
   3421.789  -5.887e-18   2.62e-17 
   3422.852   2.098e-17  2.666e-17 
   3423.917  -5.075e-17  2.452e-17 
   3424.981   1.563e-17  2.892e-17 
   3426.045  -1.366e-17  2.758e-17 
   3427.109   3.938e-17  2.759e-17 
   3428.173   2.546e-17  2.785e-17 
   3429.238   1.024e-17   2.66e-17 
   3430.301  -2.725e-18  2.498e-17 
   3431.366  -5.537e-18  2.563e-17 
    3432.43   2.302e-17  2.628e-17 
   3433.495   3.893e-17  2.793e-17 
   3434.559   3.469e-17  2.861e-17 
   3435.624  -2.631e-17  2.579e-17 
   3436.688  -1.184e-17  2.755e-17 
   3437.753  -2.353e-17  2.874e-17 
   3438.817  -2.032e-17  2.746e-17 
   3439.882   1.164e-17   2.81e-17 
   3440.947   -4.28e-18  2.411e-17 
   3442.011  -1.938e-17  2.517e-17 
   3443.076    7.21e-19  2.584e-17 
   3444.141   1.196e-17  2.452e-17 
   3445.207   3.277e-17  2.432e-17 
   3446.271  -3.828e-18  2.373e-17 
   3447.336  -1.319e-17  2.476e-17 
   3448.401  -4.972e-18  2.552e-17 
   3449.467   2.722e-17  2.845e-17 
   3450.531  -1.163e-17  2.761e-17 
   3451.597  -1.355e-17  2.868e-17 
   3452.662   1.068e-17  3.058e-17 
   3453.727   2.695e-17  3.225e-17 
   3454.792   3.112e-17  3.064e-17 
   3455.858   3.491e-17      3e-17 
   3456.924   2.411e-17  2.896e-17 
   3457.988  -6.082e-18  2.849e-17 
   3459.054  -5.487e-18  2.836e-17 
    3460.12    2.64e-17   2.82e-17 
   3461.186  -8.663e-18  2.536e-17 
   3462.251   6.821e-17   2.75e-17 
   3463.317   4.932e-18  2.335e-17 
   3464.383   4.313e-17  2.631e-17 
   3465.448  -9.072e-18  2.273e-17 
   3466.514   3.846e-17  2.414e-17 
    3467.58   9.867e-18  2.236e-17 
   3468.646   1.497e-17  2.304e-17 
   3469.711   2.817e-17  2.324e-17 
   3470.778   1.696e-17  2.195e-17 
   3471.844   2.326e-17  2.124e-17 
    3472.91   8.599e-18  2.044e-17 
   3473.976   2.111e-17   2.16e-17 
   3475.042   1.514e-17  2.143e-17 
   3476.109   1.076e-17  2.151e-17 
   3477.174  -1.278e-17  2.065e-17 
   3478.241  -5.664e-19   2.39e-17 
   3479.307   3.547e-17  2.638e-17 
   3480.374    1.96e-17  2.831e-17 
    3481.44    3.51e-17  3.016e-17 
   3482.506  -1.601e-17  2.939e-17 
   3483.573   1.278e-17  3.031e-17 
    3484.64  -1.155e-17  2.813e-17 
   3485.706   5.485e-17  3.036e-17 
   3486.773   5.082e-17  2.903e-17 
    3487.84   1.116e-17  2.803e-17 
   3488.906  -4.571e-17  2.361e-17 
   3489.973   3.924e-17  2.781e-17 
    3491.04  -5.313e-17  2.403e-17 
   3492.107   2.087e-17  2.607e-17 
   3493.173       1e-17  2.558e-17 
   3494.241   3.385e-17  2.589e-17 
   3495.308   2.778e-17  2.474e-17 
   3496.375   2.311e-17  2.444e-17 
   3497.442  -3.194e-17  2.189e-17 
   3498.509   5.214e-17  2.478e-17 
   3499.576    -2.5e-18  2.244e-17 
   3500.643   1.585e-17  2.347e-17 
    3501.71   4.326e-17  2.448e-17 
   3502.778   2.078e-17  2.311e-17 
   3503.846   5.616e-18  2.261e-17 
   3504.912  -2.099e-17  2.121e-17 
    3505.98    1.54e-17  2.037e-17 
   3507.048   5.131e-18  2.148e-17 
   3508.116   8.271e-18  2.153e-17 
   3509.182   3.448e-17  2.318e-17 
    3510.25   3.156e-17   2.32e-17 
   3511.318   4.406e-17   2.37e-17 
   3512.385    2.44e-19  2.299e-17 
   3513.453  -1.554e-17   2.08e-17 
   3514.521   1.791e-17  2.059e-17 
   3515.589  -1.746e-18  2.009e-17 
   3516.656  -1.106e-17   2.05e-17 
   3517.725   2.525e-17  2.045e-17 
   3518.793   2.845e-17  2.174e-17 
   3519.861     6.3e-18  2.016e-17 
   3520.928   1.917e-17  1.908e-17 
   3521.997   1.577e-17  1.983e-17 
   3523.065   3.077e-17  1.946e-17 
   3524.133   2.752e-17  1.953e-17 
   3525.201  -1.088e-17  1.762e-17 
    3526.27   1.645e-17   1.78e-17 
   3527.338   5.629e-18  1.611e-17 
   3528.406   4.025e-18  1.658e-17 
   3529.474   1.076e-17  1.631e-17 
   3530.543  -2.369e-18  1.734e-17 
   3531.611   2.355e-17  1.783e-17 
    3532.68   8.806e-18  1.774e-17 
   3533.748   3.222e-17  1.732e-17 
   3534.817   4.836e-17  1.802e-17 
   3535.885   1.927e-17  1.754e-17 
   3536.954   3.198e-17  1.791e-17 
   3538.023  -4.262e-18  1.607e-17 
   3539.092   3.894e-17  1.865e-17 
    3540.16   2.653e-17  1.917e-17 
   3541.229  -6.886e-18  1.946e-17 
   3542.298  -8.133e-18  2.114e-17 
   3543.367   3.502e-17   2.46e-17 
   3544.436  -3.291e-18  2.383e-17 
   3545.505  -1.667e-17  2.389e-17 
   3546.574  -1.067e-17  2.479e-17 
   3547.643   1.089e-17  2.452e-17 
   3548.712   3.928e-17  2.514e-17 
   3549.782    2.25e-17  2.455e-17 
   3550.851  -1.061e-17  2.256e-17 
    3551.92   2.542e-17  2.462e-17 
   3552.989   5.891e-18    2.5e-17 
   3554.059    5.69e-17  2.695e-17 
   3555.127   1.352e-17  2.671e-17 
   3556.197   4.519e-17   2.75e-17 
   3557.267  -1.385e-18  2.652e-17 
   3558.337   1.593e-17  2.677e-17 
   3559.405  -3.258e-17  2.369e-17 
   3560.475   1.147e-18  2.514e-17 
   3561.545    1.86e-17  2.429e-17 
   3562.615   3.085e-18  2.435e-17 
   3563.684  -1.843e-17   2.32e-17 
   3564.754   1.958e-17  2.309e-17 
   3565.824    2.06e-17  2.287e-17 
   3566.893  -3.478e-17  2.139e-17 
   3567.963  -2.725e-18  2.107e-17 
   3569.034   1.311e-17  2.077e-17 
   3570.104   3.054e-17  2.174e-17 
   3571.173   1.485e-17  2.123e-17 
   3572.243   3.621e-17  2.055e-17 
   3573.314  -6.005e-18  2.059e-17 
   3574.383   6.563e-18  2.157e-17 
   3575.453   1.351e-17  2.149e-17 
   3576.524   2.109e-17  2.026e-17 
   3577.594  -3.052e-18  1.965e-17 
   3578.664   1.644e-17   2.09e-17 
   3579.734   1.064e-17   1.97e-17 
   3580.805   2.769e-17  1.948e-17 
   3581.876   1.426e-17  1.874e-17 
   3582.945   1.485e-17  1.777e-17 
   3584.016   1.192e-17  1.809e-17 
   3585.087    1.86e-17  1.804e-17 
   3586.157   2.565e-17  1.738e-17 
   3587.228   2.206e-17   1.65e-17 
   3588.299   9.266e-18  1.579e-17 
   3589.369   1.704e-17  1.696e-17 
   3590.439   5.925e-18  1.732e-17 
    3591.51   1.875e-17  1.789e-17 
   3592.582  -1.552e-17  1.629e-17 
   3593.653   2.681e-17   1.83e-17 
   3594.723   2.227e-17  1.716e-17 
   3595.794    2.56e-17   1.71e-17 
   3596.865   7.717e-18  1.679e-17 
   3597.935   6.527e-18   1.56e-17 
   3599.007   4.364e-17  1.715e-17 
   3600.078  -1.196e-18  1.512e-17 
   3601.149   2.166e-17  1.545e-17 
    3602.22   2.928e-17  1.531e-17 
   3603.291   2.269e-17  1.608e-17 
   3604.363   5.216e-18  1.459e-17 
   3605.433   2.505e-17   1.55e-17 
   3606.505  -1.026e-17   1.38e-17 
   3607.576   1.815e-17  1.485e-17 
   3608.648   7.231e-18  1.403e-17 
   3609.719  -1.339e-18   1.36e-17 
    3610.79   1.344e-17  1.376e-17 
   3611.862   4.397e-17  1.574e-17 
   3612.934   5.625e-18  1.473e-17 
   3614.005   2.525e-17  1.636e-17 
   3615.077   1.255e-17   1.67e-17 
   3616.149   2.245e-17  1.792e-17 
    3617.22   -5.44e-18  1.872e-17 
   3618.292   -1.16e-17  1.758e-17 
   3619.364   2.891e-17  1.845e-17 
   3620.436   1.176e-17  1.728e-17 
   3621.507    -2.2e-17  1.616e-17 
   3622.579   3.455e-17  1.872e-17 
   3623.651   1.117e-17  1.709e-17 
   3624.722    3.02e-17  1.801e-17 
   3625.795   1.745e-17  1.708e-17 
   3626.867   2.485e-17  1.784e-17 
   3627.939   2.038e-17  1.785e-17 
   3629.011    1.76e-18  1.748e-17 
   3630.083   4.492e-17  1.987e-17 
   3631.155   7.235e-19  1.857e-17 
   3632.228   1.016e-17   1.96e-17 
   3633.299   4.954e-17  2.124e-17 
   3634.372   2.405e-17  2.008e-17 
   3635.445   1.194e-17  2.021e-17 
   3636.516   2.264e-18  1.983e-17 
   3637.589   4.572e-17  2.105e-17 
   3638.662   2.951e-17  2.127e-17 
   3639.734   1.422e-17  2.016e-17 
   3640.806   2.595e-17  2.109e-17 
   3641.879    1.31e-17  2.105e-17 
   3642.952   7.965e-18  2.068e-17 
   3644.024  -2.066e-17  2.044e-17 
   3645.097   3.699e-18  2.129e-17 
    3646.17    -7.4e-18  2.122e-17 
   3647.243     2.3e-17  2.214e-17 
   3648.315  -1.086e-17  2.449e-17 
   3649.388  -1.864e-18  3.074e-17 
   3650.461  -1.297e-17  3.597e-17 
   3651.534   -4.21e-17  3.615e-17 
   3652.606  -5.743e-17   3.51e-17 
   3653.679   1.927e-17  3.357e-17 
   3654.753   6.408e-17  3.249e-17 
   3655.825    1.36e-17      3e-17 
   3656.898   1.924e-17  2.815e-17 
   3657.972  -1.715e-17  2.381e-17 
   3659.045  -7.395e-18  2.216e-17 
   3660.118   4.605e-17    2.2e-17 
   3661.191   3.004e-17   2.19e-17 
   3662.265   1.707e-17  2.255e-17 
   3663.338   4.004e-18  2.473e-17 
   3664.411    1.01e-17  2.577e-17 
   3665.484   5.771e-17  2.527e-17 
   3666.558   -1.59e-17    2.1e-17 
   3667.631   4.339e-17  1.951e-17 
   3668.705   1.078e-17   1.69e-17 
   3669.778   2.006e-20  1.535e-17 
   3670.852   2.131e-17  1.518e-17 
   3671.925   2.843e-17  1.564e-17 
   3672.999   3.416e-18  1.479e-17 
   3674.073   2.923e-17  1.539e-17 
   3675.146   1.011e-17  1.466e-17 
    3676.22   4.646e-18   1.43e-17 
   3677.294   1.166e-17  1.427e-17 
   3678.368    7.76e-18   1.35e-17 
   3679.441   2.297e-17  1.445e-17 
   3680.515  -4.802e-18  1.222e-17 
   3681.589   6.127e-19  1.326e-17 
   3682.664   4.017e-17  1.399e-17 
   3683.737   2.887e-17  1.352e-17 
   3684.811   8.823e-18  1.305e-17 
   3685.886   2.836e-17  1.294e-17 
   3686.959  -4.592e-20  1.246e-17 
   3688.033   1.177e-17  1.266e-17 
   3689.108  -4.951e-18  1.205e-17 
   3690.182   3.572e-17  1.359e-17 
   3691.256   6.952e-18  1.276e-17 
    3692.33    4.14e-18  1.299e-17 
   3693.405   1.782e-17  1.356e-17 
   3694.478   2.428e-17  1.356e-17 
   3695.553   2.976e-18  1.265e-17 
   3696.628   1.235e-17   1.35e-17 
   3697.702   6.343e-18  1.372e-17 
   3698.776   5.109e-18  1.431e-17 
   3699.851   1.876e-17  1.517e-17 
   3700.926   1.199e-17  1.552e-17 
   3702.001   2.141e-17  1.602e-17 
   3703.075   2.225e-17  1.609e-17 
   3704.149   4.498e-17   1.65e-17 
   3705.224    2.77e-17   1.63e-17 
   3706.298   9.763e-18  1.531e-17 
   3707.373   5.018e-18  1.429e-17 
   3708.448    2.24e-18  1.437e-17 
   3709.524    1.12e-17  1.439e-17 
   3710.598   1.886e-17  1.474e-17 
   3711.673  -6.802e-18  1.426e-17 
   3712.748   1.707e-17  1.455e-17 
   3713.822   1.007e-17  1.526e-17 
   3714.898   2.219e-17  1.465e-17 
   3715.973   1.022e-17  1.433e-17 
   3717.048   2.957e-20  1.445e-17 
   3718.123   1.012e-17  1.454e-17 
   3719.198   2.359e-17  1.397e-17 
   3720.273   1.721e-17  1.491e-17 
   3721.348   4.177e-17  1.479e-17 
   3722.423   1.464e-18  1.408e-17 
   3723.499   4.107e-17  1.484e-17 
   3724.575  -2.487e-18  1.322e-17 
   3725.649   2.195e-17  1.478e-17 
   3726.725   1.308e-17  1.502e-17 
   3727.801   4.313e-18  1.479e-17 
   3728.876   6.565e-18  1.572e-17 
   3729.951   1.409e-17  1.575e-17 
   3731.027   1.772e-17  1.617e-17 
   3732.103   8.854e-18  1.615e-17 
   3733.177  -6.182e-18  1.553e-17 
   3734.253   7.585e-18  1.673e-17 
   3735.329   1.561e-17  1.606e-17 
   3736.405   3.211e-18  1.638e-17 
    3737.48   1.133e-17  1.602e-17 
   3738.556   1.643e-17  1.685e-17 
   3739.632   1.099e-17  1.692e-17 
   3740.707    4.76e-17  1.964e-17 
   3741.783     1.5e-17  1.783e-17 
    3742.86   4.786e-19  1.776e-17 
   3743.936  -1.719e-17  1.627e-17 
   3745.011   1.542e-17  1.577e-17 
   3746.087  -7.232e-18  1.549e-17 
   3747.164   3.275e-17  1.608e-17 
    3748.24   1.936e-17  1.553e-17 
   3749.315   9.316e-18  1.463e-17 
   3750.392   3.631e-18  1.426e-17 
   3751.468   1.912e-19  1.452e-17 
   3752.543   3.015e-17  1.521e-17 
    3753.62   2.613e-17  1.476e-17 
   3754.696   2.349e-17  1.502e-17 
   3755.773   4.214e-18  1.455e-17 
   3756.849   3.411e-18  1.451e-17 
   3757.925   1.155e-17  1.425e-17 
   3759.002   2.927e-17  1.437e-17 
   3760.078   7.171e-18  1.283e-17 
   3761.154   1.854e-17  1.341e-17 
   3762.231   8.278e-18  1.298e-17 
   3763.308   1.201e-17  1.272e-17 
   3764.384   2.374e-17  1.326e-17 
    3765.46   1.104e-17  1.288e-17 
   3766.537   8.529e-19  1.305e-17 
   3767.613   1.865e-17  1.311e-17 
    3768.69   3.118e-17  1.285e-17 
   3769.767   2.199e-17  1.241e-17 
   3770.844   1.389e-17  1.301e-17 
    3771.92   1.196e-17  1.268e-17 
   3772.997  -5.849e-18  1.257e-17 
   3774.074   1.243e-17  1.261e-17 
   3775.151   2.707e-18  1.292e-17 
   3776.228   2.499e-17   1.32e-17 
   3777.305   2.691e-17  1.267e-17 
   3778.382   2.124e-17  1.249e-17 
   3779.458   1.946e-17  1.279e-17 
   3780.536   2.458e-17  1.248e-17 
   3781.613  -2.723e-18   1.22e-17 
    3782.69   8.991e-18  1.244e-17 
   3783.767   3.842e-18  1.203e-17 
   3784.844   1.846e-17  1.244e-17 
   3785.922   1.223e-17  1.195e-17 
   3786.998   1.919e-17  1.226e-17 
   3788.076   2.835e-17  1.207e-17 
   3789.153   7.176e-18  1.137e-17 
   3790.231   1.135e-17  1.209e-17 
   3791.307   4.229e-17  1.281e-17 
   3792.385   2.253e-17  1.306e-17 
   3793.463   1.428e-18   1.22e-17 
    3794.54   2.942e-17  1.326e-17 
   3795.617   2.287e-17  1.234e-17 
   3796.695   1.588e-17   1.19e-17 
   3797.773   3.588e-17  1.237e-17 
   3798.849   1.745e-17  1.131e-17 
   3799.927   9.396e-18  1.111e-17 
   3801.005   8.216e-18  1.079e-17 
   3802.083   1.698e-17  1.176e-17 
    3803.16   1.969e-17  1.249e-17 
   3804.238   9.783e-18  1.191e-17 
   3805.316   1.604e-17  1.182e-17 
   3806.393   3.759e-17  1.214e-17 
   3807.471   5.456e-18  1.146e-17 
   3808.549   1.259e-17  1.147e-17 
   3809.627   1.091e-17  1.126e-17 
   3810.704   1.247e-17  1.196e-17 
   3811.783   3.296e-19  1.182e-17 
   3812.861   1.008e-17  1.175e-17 
   3813.938   2.305e-17  1.251e-17 
   3815.016   2.495e-17  1.291e-17 
   3816.095   2.746e-17  1.271e-17 
   3817.173   1.242e-18  1.221e-17 
    3818.25  -4.737e-18  1.165e-17 
   3819.329   2.312e-17  1.257e-17 
   3820.407   1.325e-17  1.224e-17 
   3821.486   8.564e-18  1.215e-17 
   3822.563   1.967e-17  1.216e-17 
   3823.642   9.531e-18  1.134e-17 
    3824.72   1.353e-17  1.138e-17 
   3825.798   1.032e-17  1.163e-17 
   3826.877   1.922e-17  1.213e-17 
   3827.955  -1.863e-18  1.158e-17 
   3829.034   3.488e-18  1.284e-17 
   3830.112  -3.462e-18  1.351e-17 
    3831.19     1.6e-17  1.446e-17 
   3832.269    4.46e-18  1.451e-17 
   3833.347   1.416e-17  1.438e-17 
   3834.426   1.181e-17  1.428e-17 
   3835.505  -2.811e-18  1.336e-17 
   3836.583   1.626e-17  1.379e-17 
   3837.661   2.893e-17  1.416e-17 
    3838.74   3.599e-18  1.331e-17 
   3839.819     1.7e-17  1.305e-17 
   3840.897   1.072e-17  1.336e-17 
   3841.976   1.608e-17  1.344e-17 
   3843.055   3.504e-17  1.434e-17 
   3844.135   2.209e-17  1.355e-17 
   3845.213   9.879e-18  1.365e-17 
   3846.292   1.995e-17  1.363e-17 
   3847.371   2.001e-18  1.253e-17 
   3848.449   3.158e-17  1.358e-17 
   3849.528   1.123e-17    1.3e-17 
   3850.608   3.965e-17  1.322e-17 
   3851.687   3.431e-17  1.307e-17 
   3852.765   6.988e-18  1.241e-17 
   3853.845   3.334e-17  1.244e-17 
   3854.924   2.182e-17  1.212e-17 
   3856.003   3.475e-18  1.167e-17 
   3857.082   2.029e-17  1.213e-17 
   3858.161   5.577e-18  1.143e-17 
   3859.241    3.26e-17  1.199e-17 
   3860.319   1.285e-17   1.11e-17 
   3861.399   1.308e-17  1.157e-17 
   3862.478   2.006e-17  1.164e-17 
   3863.558   3.534e-18  1.172e-17 
   3864.637   9.644e-18  1.165e-17 
   3865.716  -3.463e-19  1.156e-17 
   3866.796   8.894e-18  1.158e-17 
   3867.875   3.673e-18  1.076e-17 
   3868.955   1.941e-17  1.186e-17 
   3870.034   2.156e-17  1.131e-17 
   3871.114  -1.282e-18  1.045e-17 
   3872.193    1.32e-17  1.102e-17 
   3873.273   2.675e-17  1.166e-17 
   3874.353   1.889e-17  1.184e-17 
   3875.432   2.378e-17  1.299e-17 
   3876.512   1.167e-17  1.232e-17 
   3877.592   2.446e-17  1.265e-17 
   3878.672   9.021e-18  1.169e-17 
   3879.751   4.133e-18  1.102e-17 
   3880.831   1.102e-17  1.106e-17 
   3881.911   2.066e-17  1.138e-17 
    3882.99    3.49e-17  1.118e-17 
    3884.07   1.406e-17  1.061e-17 
    3885.15   1.144e-17  1.035e-17 
    3886.23   9.048e-18  1.053e-17 
    3887.31     1.8e-17  1.068e-17 
    3888.39   3.141e-17  1.063e-17 
    3889.47  -2.763e-18  9.721e-18 
    3890.55   2.521e-17  1.064e-17 
    3891.63    1.29e-17  1.016e-17 
    3892.71   3.928e-17  1.121e-17 
    3893.79   2.252e-17  1.119e-17 
    3894.87   1.937e-17  1.104e-17 
    3895.95   1.558e-17   1.09e-17 
   3897.031   1.489e-17  1.086e-17 
   3898.111    1.58e-17  1.122e-17 
   3899.191   1.513e-17  1.107e-17 
   3900.271   4.918e-18  1.097e-17 
   3901.352   1.942e-17  1.141e-17 
   3902.432   1.414e-17  1.156e-17 
   3903.512   3.788e-17  1.247e-17 
   3904.593   2.514e-17  1.199e-17 
   3905.673   1.684e-17  1.304e-17 
   3906.753   2.175e-17  1.413e-17 
   3907.834   3.943e-17  1.559e-17 
   3908.915   2.031e-17  1.569e-17 
   3909.994   1.014e-17  1.568e-17 
   3911.075   4.518e-17  1.645e-17 
   3912.156   6.981e-18  1.578e-17 
   3913.237   4.153e-18  1.548e-17 
   3914.317  -6.047e-18  1.534e-17 
   3915.398   2.592e-17  1.514e-17 
   3916.479   2.036e-17  1.392e-17 
   3917.559   1.455e-17  1.322e-17 
    3918.64   1.534e-17   1.29e-17 
   3919.721   1.432e-17  1.278e-17 
   3920.802   9.819e-18  1.241e-17 
   3921.882   1.811e-18  1.114e-17 
   3922.963   4.549e-18  1.102e-17 
   3924.044   2.566e-17  1.122e-17 
   3925.125   2.341e-17  1.139e-17 
   3926.205   2.357e-17  1.117e-17 
   3927.287   1.946e-17  1.098e-17 
   3928.368   2.455e-17  1.102e-17 
   3929.448   1.112e-17  1.068e-17 
   3930.529   1.489e-17  1.061e-17 
   3931.611   2.913e-17  1.106e-17 
   3932.692   3.393e-17  1.161e-17 
   3933.772   9.308e-18  1.144e-17 
   3934.854    1.84e-17  1.144e-17 
   3935.935   1.369e-17  1.124e-17 
   3937.016   2.474e-17   1.07e-17 
   3938.097   3.267e-17  1.128e-17 
   3939.179   1.902e-17  1.085e-17 
    3940.26   1.689e-17  1.104e-17 
   3941.341   1.915e-17  1.145e-17 
   3942.422   1.736e-17  1.198e-17 
   3943.504   9.457e-18  1.225e-17 
   3944.584  -4.899e-18  1.253e-17 
   3945.666   1.176e-17  1.279e-17 
   3946.748   3.442e-17  1.321e-17 
   3947.829   2.233e-17   1.25e-17 
    3948.91   2.756e-17  1.235e-17 
   3949.992   1.372e-17  1.172e-17 
   3951.074   4.134e-18  1.145e-17 
   3952.154   3.342e-17    1.2e-17 
   3953.236   1.432e-17  1.121e-17 
   3954.318   2.596e-17  1.164e-17 
     3955.4   7.566e-18  1.104e-17 
   3956.481    7.85e-18  1.082e-17 
   3957.563   7.038e-18  1.081e-17 
   3958.645   2.422e-17   1.12e-17 
   3959.726   1.807e-17  1.116e-17 
   3960.808   5.145e-18  1.147e-17 
    3961.89   2.525e-17  1.253e-17 
   3962.972   2.234e-17  1.246e-17 
   3964.053    2.95e-17  1.229e-17 
   3965.135   3.063e-17   1.14e-17 
   3966.217   1.467e-17  1.037e-17 
   3967.299   1.648e-17  1.007e-17 
    3968.38    1.13e-17  9.603e-18 
   3969.462   2.357e-17    9.8e-18 
   3970.545   2.135e-17  9.727e-18 
   3971.626   1.833e-17  9.517e-18 
   3972.708   3.149e-17  1.025e-17 
    3973.79   2.058e-17  1.066e-17 
   3974.873   1.512e-17  1.058e-17 
   3975.954   2.326e-17  1.112e-17 
   3977.036   2.094e-17  1.092e-17 
   3978.119   3.242e-17  1.122e-17 
     3979.2   2.571e-17  1.135e-17 
   3980.282   2.815e-17  1.106e-17 
   3981.365   2.516e-17  1.109e-17 
   3982.447   7.627e-18  1.089e-17 
   3983.529   2.589e-17  1.156e-17 
   3984.611   2.615e-17  1.102e-17 
   3985.694   2.653e-17  1.119e-17 
   3986.775   9.181e-18  1.046e-17 
   3987.858   1.515e-17  1.073e-17 
   3988.941   3.115e-17  1.128e-17 
   3990.023   1.136e-17  1.126e-17 
   3991.105   2.508e-17  1.144e-17 
   3992.188   3.293e-17  1.159e-17 
    3993.27   2.913e-18  1.076e-17 
   3994.352    2.53e-17  1.153e-17 
   3995.435   1.773e-17   1.16e-17 
   3996.517    8.02e-18   1.16e-17 
     3997.6   2.176e-17  1.253e-17 
   3998.682   1.574e-17  1.231e-17 
   3999.765   2.042e-17  1.261e-17 
   4000.848   3.255e-17  1.247e-17 
    4001.93    1.48e-17  1.185e-17 
   4003.013   8.041e-18  1.128e-17 
   4004.095   2.993e-17  1.203e-17 
   4005.178    5.41e-18  1.145e-17 
    4006.26   1.259e-17  1.108e-17 
   4007.343   7.809e-18   1.11e-17 
   4008.426   2.427e-17  1.238e-17 
   4009.508   2.278e-17   1.25e-17 
   4010.591   3.085e-17  1.279e-17 
   4011.675   2.578e-17  1.288e-17 
   4012.758   1.502e-17   1.24e-17 
    4013.84   3.571e-17  1.316e-17 
   4014.923   3.147e-17  1.258e-17 
   4016.006  -9.461e-20  1.184e-17 
   4017.089   1.403e-17  1.196e-17 
   4018.172   2.016e-17  1.263e-17 
   4019.255   6.829e-18   1.31e-17 
   4020.338   2.709e-17  1.456e-17 
    4021.42    3.52e-17  1.586e-17 
   4022.504    1.37e-17  1.617e-17 
   4023.587   2.639e-17  1.653e-17 
    4024.67   1.476e-17  1.621e-17 
   4025.753   2.682e-17  1.588e-17 
   4026.836   9.991e-18  1.472e-17 
   4027.919   1.836e-17  1.438e-17 
   4029.002   2.291e-17   1.37e-17 
   4030.085   1.883e-17  1.345e-17 
   4031.169   3.802e-17  1.412e-17 
   4032.252    1.87e-17  1.326e-17 
   4033.335   2.253e-17  1.321e-17 
   4034.418   2.834e-18  1.257e-17 
   4035.502    3.41e-17   1.35e-17 
   4036.585   1.255e-17  1.258e-17 
   4037.668   1.555e-17  1.311e-17 
   4038.752   1.986e-17  1.317e-17 
   4039.835   1.027e-17  1.282e-17 
   4040.918   2.757e-17  1.312e-17 
   4042.002   2.422e-17  1.339e-17 
   4043.085   6.061e-18  1.349e-17 
   4044.168   1.658e-17   1.55e-17 
   4045.252   8.618e-18  2.101e-17 
   4046.336   3.816e-17  2.971e-17 
    4047.42  -1.625e-17  3.423e-17 
   4048.502  -4.727e-17  3.409e-17 
   4049.586   1.905e-17   2.99e-17 
    4050.67   9.558e-18  2.297e-17 
   4051.753   2.693e-17  1.792e-17 
   4052.837   2.606e-17  1.504e-17 
   4053.921   1.311e-18  1.409e-17 
   4055.005   3.526e-17   1.49e-17 
   4056.088   7.833e-18  1.416e-17 
   4057.172   2.594e-17  1.403e-17 
   4058.256   1.689e-17  1.341e-17 
   4059.339   1.271e-17  1.254e-17 
   4060.423   4.694e-18  1.239e-17 
   4061.507   2.538e-17  1.274e-17 
   4062.591   2.416e-17   1.28e-17 
   4063.674   2.779e-17  1.274e-17 
   4064.758   3.119e-18  1.211e-17 
   4065.842   1.653e-17  1.262e-17 
   4066.925    1.73e-17  1.265e-17 
    4068.01    2.98e-17  1.297e-17 
   4069.094   3.585e-17  1.282e-17 
   4070.178   2.263e-17   1.22e-17 
   4071.261   2.415e-17  1.246e-17 
   4072.345   3.029e-17   1.23e-17 
    4073.43   4.006e-17  1.223e-17 
   4074.513   2.284e-17  1.205e-17 
   4075.597   3.217e-17  1.276e-17 
   4076.682   5.193e-18   1.36e-17 
   4077.766  -9.616e-18  1.494e-17 
   4078.849   1.935e-17  1.659e-17 
   4079.934   2.351e-17  1.662e-17 
   4081.018   9.265e-18  1.478e-17 
   4082.103   8.076e-18  1.442e-17 
   4083.186   1.782e-18  1.332e-17 
   4084.271   9.817e-18  1.348e-17 
   4085.355   2.345e-17  1.328e-17 
   4086.439   3.866e-17  1.352e-17 
   4087.523  -7.246e-18  1.258e-17 
   4088.608   1.908e-17    1.3e-17 
   4089.692    4.23e-17  1.298e-17 
   4090.776   2.358e-17  1.177e-17 
   4091.861   2.564e-17   1.18e-17 
   4092.945   2.818e-17  1.162e-17 
   4094.029    3.01e-17  1.162e-17 
   4095.114   2.078e-17  1.138e-17 
   4096.198   1.602e-17  1.106e-17 
   4097.283   2.093e-17  1.116e-17 
   4098.367   3.334e-17  1.166e-17 
   4099.451   2.262e-18  1.086e-17 
   4100.536   3.386e-17  1.151e-17 
    4101.62    1.51e-17  1.111e-17 
   4102.705   2.734e-17  1.109e-17 
    4103.79   1.347e-17  1.069e-17 
   4104.874   2.412e-17  1.056e-17 
   4105.958   3.172e-17  1.084e-17 
   4107.043   2.036e-17  1.098e-17 
   4108.128   2.859e-17  1.111e-17 
   4109.212   1.718e-17  1.138e-17 
   4110.297   2.948e-17   1.13e-17 
   4111.382   7.096e-18  1.102e-17 
   4112.467   2.018e-17  1.078e-17 
   4113.551   1.625e-17  1.078e-17 
   4114.636   3.491e-17   1.14e-17 
   4115.721   2.697e-17  1.139e-17 
   4116.805   1.419e-17  1.111e-17 
    4117.89   2.643e-17  1.127e-17 
   4118.975   1.072e-17  1.053e-17 
    4120.06   2.474e-17  1.119e-17 
   4121.144   1.853e-17  1.052e-17 
   4122.229   1.576e-17  1.078e-17 
   4123.315   1.577e-17  1.094e-17 
   4124.399   2.754e-17  1.109e-17 
   4125.484   1.669e-17  1.079e-17 
   4126.569   3.215e-17  1.153e-17 
   4127.654   2.018e-17  1.104e-17 
   4128.739   4.319e-17  1.162e-17 
   4129.824   2.302e-17   1.12e-17 
   4130.909   2.874e-17  1.147e-17 
   4131.993   2.401e-17  1.152e-17 
   4133.079   1.147e-17  1.214e-17 
   4134.164   1.798e-17  1.234e-17 
   4135.249   9.809e-18  1.238e-17 
   4136.334   2.454e-17  1.219e-17 
   4137.419   3.421e-17  1.218e-17 
   4138.504   4.583e-17  1.173e-17 
   4139.589   1.926e-17  1.185e-17 
   4140.674   2.988e-17  1.241e-17 
    4141.76   1.327e-17   1.22e-17 
   4142.845   1.699e-17  1.169e-17 
    4143.93   3.725e-17  1.169e-17 
   4145.015   2.619e-17  1.117e-17 
   4146.101   2.889e-17  1.094e-17 
   4147.185   2.006e-17  1.077e-17 
   4148.271   3.243e-17  1.138e-17 
   4149.356   7.508e-18  1.059e-17 
   4150.442    2.86e-17  1.104e-17 
   4151.526   7.581e-18  1.095e-17 
   4152.612    3.68e-18  1.148e-17 
   4153.698   3.018e-18  1.202e-17 
   4154.782    3.31e-18  1.225e-17 
   4155.868   1.751e-17  1.192e-17 
   4156.954   2.624e-17  1.172e-17 
   4158.039    1.66e-17   1.16e-17 
   4159.124    1.74e-17  1.151e-17 
    4160.21   1.744e-17   1.15e-17 
   4161.296   2.384e-17  1.158e-17 
    4162.38   2.182e-17  1.151e-17 
   4163.466   2.721e-17  1.223e-17 
   4164.552    1.02e-17  1.274e-17 
   4165.638   2.594e-17  1.356e-17 
   4166.723    2.47e-17  1.416e-17 
   4167.808   2.033e-17  1.338e-17 
   4168.894   3.059e-17  1.304e-17 
   4169.979   4.771e-17  1.272e-17 
   4171.065   8.214e-18  1.197e-17 
   4172.151   1.531e-17  1.203e-17 
   4173.237   2.212e-17  1.194e-17 
   4174.322   2.983e-17  1.176e-17 
   4175.408   1.638e-17  1.179e-17 
   4176.494   1.399e-17  1.135e-17 
   4177.579   2.706e-17  1.182e-17 
   4178.665   3.072e-17  1.206e-17 
   4179.751   6.463e-18  1.119e-17 
   4180.837   2.969e-17  1.218e-17 
   4181.922   1.087e-17   1.13e-17 
   4183.008   3.999e-18  1.091e-17 
   4184.094   2.717e-17  1.128e-17 
   4185.179   2.032e-17  1.112e-17 
   4186.265    1.83e-17   1.13e-17 
   4187.351   2.881e-17  1.144e-17 
   4188.437   1.734e-17  1.104e-17 
   4189.523   1.999e-17  1.122e-17 
   4190.609   1.778e-17  1.094e-17 
   4191.695    2.87e-17  1.128e-17 
    4192.78   2.765e-17  1.168e-17 
   4193.866   2.757e-17  1.151e-17 
   4194.953   1.677e-17  1.126e-17 
   4196.039   2.804e-17  1.144e-17 
   4197.124   3.858e-17  1.149e-17 
    4198.21    3.73e-17  1.121e-17 
   4199.297    3.02e-17   1.14e-17 
   4200.382   4.053e-17  1.144e-17 
   4201.468   4.207e-17  1.117e-17 
   4202.555   4.775e-17  1.156e-17 
   4203.641   2.428e-17  1.099e-17 
   4204.726   1.827e-17  1.137e-17 
   4205.813   2.608e-17  1.134e-17 
   4206.899   3.579e-17  1.184e-17 
   4207.985   4.914e-17  1.236e-17 
   4209.071    1.68e-17  1.214e-17 
   4210.157   3.403e-17  1.264e-17 
   4211.244   1.417e-17  1.229e-17 
   4212.329   2.586e-17  1.248e-17 
   4213.416   1.388e-17  1.218e-17 
   4214.502   3.075e-17  1.242e-17 
   4215.589   1.643e-17  1.178e-17 
   4216.674   2.792e-17  1.217e-17 
   4217.761   3.977e-17  1.257e-17 
   4218.847   2.887e-17  1.237e-17 
   4219.933   8.362e-18  1.171e-17 
   4221.019    7.13e-18  1.158e-17 
   4222.106   3.349e-17  1.169e-17 
   4223.192    5.44e-17  1.258e-17 
   4224.278   1.689e-17  1.163e-17 
   4225.365   1.972e-17  1.161e-17 
   4226.451   2.324e-17  1.176e-17 
   4227.537   2.469e-17  1.182e-17 
   4228.624     4.1e-17  1.194e-17 
    4229.71   3.262e-17  1.179e-17 
   4230.797   5.266e-17  1.226e-17 
   4231.883   3.187e-17  1.221e-17 
   4232.969   2.102e-17  1.208e-17 
   4234.056   2.522e-17  1.231e-17 
   4235.142   2.657e-17  1.261e-17 
   4236.229   2.491e-17  1.241e-17 
   4237.315   2.091e-17   1.27e-17 
   4238.402   2.362e-17  1.265e-17 
   4239.488   3.819e-17  1.296e-17 
   4240.575   3.674e-17  1.293e-17 
   4241.662   2.726e-17  1.221e-17 
   4242.748   4.096e-17  1.233e-17 
   4243.834   4.063e-17  1.218e-17 
   4244.921   2.557e-17  1.244e-17 
   4246.008   3.056e-17  1.408e-17 
   4247.094   2.815e-17  1.549e-17 
   4248.181   3.717e-17   1.64e-17 
   4249.268   3.491e-17  1.586e-17 
   4250.354   3.217e-17  1.433e-17 
   4251.441    3.71e-17  1.333e-17 
   4252.528   5.702e-17  1.313e-17 
   4253.615   2.291e-17  1.243e-17 
   4254.701   3.625e-17  1.285e-17 
   4255.788   2.964e-17  1.243e-17 
   4256.875   2.827e-17  1.246e-17 
   4257.961   2.906e-17  1.243e-17 
   4259.048   3.465e-17  1.278e-17 
   4260.135   2.479e-17   1.24e-17 
   4261.222   2.451e-17  1.198e-17 
   4262.308    2.05e-17  1.182e-17 
   4263.395   4.318e-17  1.211e-17 
   4264.482   3.309e-17  1.177e-17 
   4265.568   2.388e-17  1.173e-17 
   4266.655   3.811e-17  1.212e-17 
   4267.742   3.877e-17  1.172e-17 
   4268.829   4.225e-17  1.201e-17 
   4269.916   4.037e-17  1.181e-17 
   4271.003   2.392e-17  1.141e-17 
    4272.09   3.496e-17  1.184e-17 
   4273.176   2.308e-17  1.157e-17 
   4274.263   3.015e-17  1.145e-17 
   4275.351   4.429e-17  1.173e-17 
   4276.438   3.888e-17   1.18e-17 
   4277.524   3.792e-17    1.2e-17 
   4278.611   3.068e-17  1.176e-17 
   4279.698   3.362e-17  1.171e-17 
   4280.785   3.644e-17  1.194e-17 
   4281.872   3.292e-17  1.176e-17 
   4282.959   1.493e-17   1.14e-17 
   4284.047   2.383e-17   1.18e-17 
   4285.133    2.91e-17  1.184e-17 
    4286.22    2.71e-17  1.163e-17 
   4287.308   3.199e-17  1.167e-17 
   4288.394   3.323e-17  1.152e-17 
   4289.481   3.899e-17  1.147e-17 
   4290.569   3.113e-17   1.13e-17 
   4291.656   4.233e-17  1.141e-17 
   4292.742   2.749e-17  1.127e-17 
    4293.83   1.339e-17   1.12e-17 
   4294.917   2.483e-17  1.147e-17 
   4296.004   4.715e-17  1.179e-17 
   4297.091    3.48e-17  1.154e-17 
   4298.178   1.578e-17  1.103e-17 
   4299.266   3.246e-17  1.134e-17 
   4300.352   1.529e-17  1.089e-17 
    4301.44   2.876e-17  1.124e-17 
   4302.527   3.056e-17  1.097e-17 
   4303.614   3.887e-17  1.102e-17 
   4304.701   4.283e-17   1.12e-17 
   4305.789   3.533e-17  1.145e-17 
   4306.876   3.065e-17  1.138e-17 
   4307.963   3.499e-17  1.144e-17 
    4309.05   3.224e-17  1.156e-17 
   4310.138   3.661e-17  1.141e-17 
   4311.225   3.095e-17   1.14e-17 
   4312.312   2.943e-17  1.172e-17 
     4313.4   3.033e-17  1.268e-17 
   4314.487   2.005e-17  1.345e-17 
   4315.574   2.098e-17   1.39e-17 
   4316.662   3.094e-17   1.38e-17 
   4317.749   2.925e-17   1.28e-17 
   4318.836   2.279e-17  1.246e-17 
   4319.923   3.116e-17  1.312e-17 
   4321.011   5.151e-17  1.397e-17 
   4322.099   4.015e-17  1.389e-17 
   4323.185   3.685e-17  1.304e-17 
   4324.273   2.689e-17  1.294e-17 
   4325.361   2.645e-17  1.279e-17 
   4326.448   3.972e-17  1.289e-17 
   4327.535   2.345e-17  1.252e-17 
   4328.623     2.9e-17  1.248e-17 
   4329.711   2.257e-17  1.178e-17 
   4330.797   3.793e-17  1.201e-17 
   4331.885   2.905e-17   1.19e-17 
   4332.973   4.842e-17   1.22e-17 
    4334.06   2.114e-17  1.156e-17 
   4335.148    2.69e-17  1.207e-17 
   4336.235    3.67e-17  1.221e-17 
   4337.323   4.939e-17  1.253e-17 
    4338.41   3.984e-17  1.248e-17 
   4339.498   3.376e-17  1.284e-17 
   4340.586   3.731e-17  1.272e-17 
   4341.672    2.83e-17  1.276e-17 
    4342.76   5.233e-17  1.299e-17 
   4343.848    3.29e-17  1.282e-17 
   4344.935   3.305e-17  1.314e-17 
   4346.023   2.954e-17  1.363e-17 
   4347.111   1.425e-17  1.402e-17 
   4348.199   1.389e-17  1.473e-17 
   4349.285   1.816e-17  1.504e-17 
   4350.373    3.27e-17  1.448e-17 
   4351.461   2.281e-17  1.397e-17 
   4352.548    3.97e-17   1.38e-17 
   4353.636     3.4e-17  1.353e-17 
   4354.724   3.508e-17  1.406e-17 
   4355.812   2.709e-17  1.632e-17 
   4356.899   1.241e-17  2.496e-17 
   4357.987  -6.861e-18  3.673e-17 
   4359.075   3.598e-17  4.463e-17 
   4360.162    5.05e-17  4.499e-17 
    4361.25  -1.679e-17  3.789e-17 
   4362.338    2.46e-18  2.845e-17 
   4363.426   2.885e-17  2.096e-17 
   4364.513   3.159e-17  1.693e-17 
   4365.601   2.321e-17  1.556e-17 
   4366.689   2.835e-17  1.507e-17 
   4367.776   5.856e-18  1.454e-17 
   4368.864    2.26e-17  1.426e-17 
   4369.952   1.446e-17  1.392e-17 
    4371.04   1.716e-17  1.386e-17 
   4372.127   4.569e-17  1.442e-17 
   4373.215   7.269e-18  1.394e-17 
   4374.303   5.048e-17  1.508e-17 
    4375.39   2.633e-17  1.511e-17 
   4376.478   2.642e-17  1.479e-17 
   4377.567   4.827e-17  1.491e-17 
   4378.655    1.49e-17  1.352e-17 
   4379.742   3.303e-17  1.391e-17 
    4380.83   3.512e-17   1.34e-17 
   4381.918   1.167e-18  1.291e-17 
   4383.005   4.422e-17  1.345e-17 
   4384.093   2.851e-17  1.276e-17 
   4385.181   3.888e-17  1.298e-17 
    4386.27   2.091e-17  1.256e-17 
   4387.357   4.963e-17  1.304e-17 
   4388.445   5.481e-17    1.3e-17 
   4389.533   5.548e-17  1.316e-17 
    4390.62   3.223e-17   1.29e-17 
   4391.709   3.467e-17  1.298e-17 
   4392.797   3.027e-17  1.292e-17 
   4393.885   5.228e-17  1.328e-17 
   4394.972   1.135e-17  1.229e-17 
    4396.06   4.368e-17  1.298e-17 
   4397.149   4.692e-17  1.285e-17 
   4398.236   4.543e-17  1.298e-17 
   4399.324   4.376e-17   1.33e-17 
   4400.412   4.131e-17  1.355e-17 
   4401.501   4.737e-17  1.397e-17 
   4402.588   5.363e-17  1.401e-17 
   4403.676   2.007e-17  1.327e-17 
   4404.764   4.418e-17  1.352e-17 
   4405.852   2.647e-17  1.305e-17 
    4406.94   2.742e-17  1.287e-17 
   4408.028   6.093e-17  1.346e-17 
   4409.117   2.625e-17  1.301e-17 
   4410.204   6.371e-17  1.395e-17 
   4411.292   5.236e-17   1.35e-17 
   4412.381   3.481e-17  1.333e-17 
   4413.468   2.838e-17  1.313e-17 
   4414.556   3.701e-17  1.355e-17 
   4415.645   8.605e-18  1.342e-17 
   4416.733   3.819e-17  1.396e-17 
    4417.82    6.38e-17  1.429e-17 
   4418.909   4.303e-17   1.35e-17 
   4419.997   5.082e-17  1.331e-17 
   4421.084   2.892e-17  1.297e-17 
   4422.173   3.642e-17  1.327e-17 
   4423.261   3.988e-17  1.334e-17 
   4424.349   3.469e-17  1.298e-17 
   4425.437   5.321e-17  1.348e-17 
   4426.525   3.086e-17  1.321e-17 
   4427.614   2.816e-17  1.312e-17 
   4428.701   5.039e-17  1.329e-17 
   4429.789   4.392e-17  1.293e-17 
   4430.878   4.799e-17  1.323e-17 
   4431.966    5.22e-17   1.35e-17 
   4433.054   5.832e-17  1.354e-17 
   4434.142   3.766e-17  1.287e-17 
   4435.231   4.946e-17  1.294e-17 
   4436.318   4.291e-17  1.304e-17 
   4437.406   5.683e-17  1.318e-17 
   4438.495   5.403e-17  1.325e-17 
   4439.583   5.315e-17  1.322e-17 
   4440.671   4.524e-17  1.334e-17 
   4441.759   4.216e-17  1.323e-17 
   4442.848   1.954e-17  1.252e-17 
   4443.935   5.769e-17  1.291e-17 
   4445.024   4.044e-17   1.25e-17 
   4446.112   5.028e-17  1.331e-17 
   4447.201   5.837e-17  1.333e-17 
   4448.288   2.919e-17  1.258e-17 
   4449.377   4.485e-17  1.286e-17 
   4450.465   4.124e-17  1.293e-17 
   4451.553   4.213e-17  1.295e-17 
   4452.641   4.234e-17  1.302e-17 
    4453.73   4.862e-17   1.29e-17 
   4454.818   3.825e-17  1.254e-17 
   4455.906   5.479e-17  1.291e-17 
   4456.994   3.148e-17  1.252e-17 
   4458.083   3.764e-17  1.262e-17 
    4459.17   3.268e-17  1.283e-17 
   4460.259   4.753e-17    1.3e-17 
   4461.347   4.805e-17  1.295e-17 
   4462.436   4.556e-17  1.303e-17 
   4463.524   4.267e-17  1.266e-17 
   4464.612   5.172e-17  1.299e-17 
   4465.701    4.17e-17  1.275e-17 
   4466.788   3.293e-17  1.265e-17 
   4467.877   2.186e-17  1.276e-17 
   4468.965   3.983e-17   1.29e-17 
   4470.054   3.576e-17  1.269e-17 
   4471.142    4.55e-17  1.291e-17 
    4472.23   3.639e-17  1.262e-17 
   4473.319   5.299e-17  1.307e-17 
   4474.406   3.246e-17  1.261e-17 
   4475.495   6.089e-17  1.327e-17 
   4476.584   5.225e-17  1.309e-17 
   4477.672   4.609e-17  1.305e-17 
    4478.76   3.205e-17  1.282e-17 
   4479.848   3.988e-17  1.301e-17 
   4480.937   2.053e-17  1.274e-17 
   4482.025   5.236e-17  1.293e-17 
   4483.113   3.208e-17  1.263e-17 
   4484.202   4.234e-17  1.303e-17 
    4485.29   5.593e-17  1.321e-17 
   4486.378   5.013e-17  1.333e-17 
   4487.467   3.601e-17   1.31e-17 
   4488.555    3.91e-17  1.311e-17 
   4489.643   4.755e-17   1.33e-17 
   4490.732   5.409e-17  1.342e-17 
    4491.82   3.922e-17    1.3e-17 
   4492.908   3.216e-17  1.324e-17 
   4493.997   3.098e-17  1.336e-17 
   4495.085   2.094e-17  1.324e-17 
   4496.174   2.978e-17   1.33e-17 
   4497.261   3.459e-17  1.302e-17 
    4498.35   2.789e-17  1.309e-17 
   4499.439    3.05e-17  1.304e-17 
   4500.526   5.237e-17  1.368e-17 
   4501.615   6.103e-17  1.361e-17 
   4502.704   4.071e-17   1.32e-17 
   4503.792    3.93e-17  1.289e-17 
    4504.88   2.375e-17  1.268e-17 
   4505.969   3.644e-17  1.296e-17 
   4507.058   2.844e-17  1.282e-17 
   4508.145   3.456e-17  1.267e-17 
   4509.234   2.587e-17  1.296e-17 
   4510.323   5.452e-18  1.251e-17 
   4511.411   2.458e-17  1.268e-17 
   4512.499   5.326e-17  1.315e-17 
   4513.588   4.512e-17  1.299e-17 
   4514.676   4.492e-17  1.281e-17 
   4515.764   3.159e-17  1.264e-17 
   4516.853   2.528e-17  1.257e-17 
   4517.941   3.479e-17  1.247e-17 
    4519.03   3.412e-17  1.242e-17 
   4520.118   3.211e-17  1.238e-17 
   4521.207   3.892e-17  1.281e-17 
   4522.295   4.044e-17  1.254e-17 
   4523.383   3.614e-17  1.277e-17 
   4524.472   1.878e-17  1.258e-17 
    4525.56   3.855e-17  1.256e-17 
   4526.649   3.135e-17  1.277e-17 
   4527.737   3.934e-17  1.246e-17 
   4528.825   2.623e-17  1.218e-17 
   4529.914   3.227e-17  1.267e-17 
   4531.002   1.328e-17  1.223e-17 
   4532.091   2.526e-17   1.23e-17 
   4533.179   2.183e-17  1.246e-17 
   4534.268   2.986e-17  1.249e-17 
   4535.356   2.839e-17  1.242e-17 
   4536.445   3.509e-17  1.262e-17 
   4537.533    4.75e-17  1.278e-17 
   4538.621   1.997e-17  1.228e-17 
    4539.71   4.881e-17  1.279e-17 
   4540.798   3.561e-17  1.258e-17 
   4541.887   2.922e-17   1.27e-17 
   4542.975   2.293e-17  1.256e-17 
   4544.064    4.79e-17   1.32e-17 
   4545.152   3.518e-17  1.286e-17 
    4546.24   3.146e-17  1.289e-17 
   4547.329   5.066e-17  1.308e-17 
   4548.417   3.101e-17  1.251e-17 
   4549.506   4.512e-17  1.269e-17 
   4550.594   3.939e-17  1.243e-17 
   4551.683   3.517e-17   1.21e-17 
   4552.771   3.716e-17  1.233e-17 
   4553.859   3.931e-17  1.234e-17 
   4554.948   1.653e-17  1.187e-17 
   4556.037   2.267e-17  1.186e-17 
   4557.125   3.513e-17  1.241e-17 
   4558.213   4.262e-17   1.24e-17 
   4559.302   4.424e-17  1.247e-17 
   4560.391   5.236e-17  1.242e-17 
   4561.478   4.476e-17  1.218e-17 
   4562.567   4.674e-17  1.233e-17 
   4563.656   4.091e-17  1.216e-17 
   4564.744   7.052e-17  1.241e-17 
   4565.832   4.545e-17  1.202e-17 
   4566.921    4.69e-17  1.189e-17 
    4568.01   3.977e-17   1.18e-17 
   4569.097   1.781e-17  1.141e-17 
   4570.186   3.333e-17  1.159e-17 
   4571.275    3.48e-17  1.156e-17 
   4572.364   4.601e-17  1.189e-17 
   4573.451   1.953e-17  1.163e-17 
    4574.54   3.842e-17  1.201e-17 
   4575.629   4.395e-17   1.21e-17 
   4576.717   2.782e-17  1.181e-17 
   4577.805    2.25e-17  1.126e-17 
   4578.894   3.894e-17  1.176e-17 
   4579.982   3.017e-17  1.157e-17 
    4581.07   3.651e-17  1.171e-17 
   4582.159   3.085e-17  1.149e-17 
   4583.248   2.686e-17  1.123e-17 
   4584.336   3.308e-17  1.126e-17 
   4585.424   3.863e-17  1.132e-17 
   4586.513   3.577e-17   1.14e-17 
   4587.601    2.02e-17  1.098e-17 
   4588.689   4.111e-17  1.162e-17 
   4589.778    2.61e-17  1.131e-17 
   4590.867   3.861e-17  1.174e-17 
   4591.955   4.617e-17  1.151e-17 
   4593.043   3.707e-17  1.148e-17 
   4594.132   5.823e-17  1.198e-17 
    4595.22    4.22e-17  1.178e-17 
   4596.308   3.614e-17  1.159e-17 
   4597.397   3.373e-17  1.141e-17 
   4598.486    2.71e-17  1.121e-17 
   4599.574   3.251e-17  1.129e-17 
   4600.662   2.032e-17   1.09e-17 
   4601.751    1.25e-17  1.065e-17 
   4602.839   5.226e-17  1.149e-17 
   4603.927    2.56e-17  1.097e-17 
   4605.016   2.841e-17  1.118e-17 
   4606.105   2.211e-17  1.097e-17 
   4607.193   4.468e-17  1.137e-17 
   4608.281   3.099e-17  1.124e-17 
    4609.37   4.954e-17  1.174e-17 
   4610.458   4.338e-17  1.175e-17 
   4611.546   2.359e-17   1.12e-17 
   4612.635   4.843e-17  1.149e-17 
   4613.724   3.162e-17  1.118e-17 
   4614.811   3.515e-17    1.1e-17 
     4615.9   4.717e-17  1.123e-17 
   4616.989    3.21e-17  1.116e-17 
   4618.076   3.725e-17  1.101e-17 
   4619.165    3.72e-17  1.084e-17 
   4620.254   3.843e-17  1.099e-17 
   4621.342   2.912e-17    1.1e-17 
    4622.43   2.327e-17  1.101e-17 
   4623.519   4.693e-17  1.138e-17 
   4624.607   4.113e-17  1.119e-17 
   4625.695   2.826e-17  1.106e-17 
   4626.784   2.827e-17  1.082e-17 
   4627.872   3.364e-17  1.114e-17 
   4628.961   6.197e-17   1.18e-17 
   4630.049   5.127e-17  1.134e-17 
   4631.137   3.999e-17  1.109e-17 
   4632.226   4.197e-17  1.122e-17 
   4633.314   3.837e-17  1.115e-17 
   4634.402   3.293e-17  1.093e-17 
   4635.491   3.643e-17  1.106e-17 
   4636.579   4.261e-17  1.125e-17 
   4637.667   4.377e-17  1.103e-17 
   4638.756   2.787e-17  1.059e-17 
   4639.844   4.408e-17  1.107e-17 
   4640.932   5.648e-17  1.144e-17 
    4642.02   4.286e-17   1.14e-17 
   4643.109   4.689e-17  1.128e-17 
   4644.198   4.324e-17    1.1e-17 
   4645.285   5.978e-17  1.129e-17 
   4646.374   3.323e-17  1.081e-17 
   4647.463   1.847e-17  1.072e-17 
    4648.55   1.777e-17  1.054e-17 
   4649.639   2.219e-17  1.059e-17 
   4650.727   4.849e-17  1.139e-17 
   4651.815   3.147e-17  1.087e-17 
   4652.903   4.366e-17   1.14e-17 
   4653.992   2.543e-17  1.097e-17 
   4655.081   4.502e-17  1.099e-17 
   4656.168   2.746e-17  1.119e-17 
   4657.257   2.253e-17  1.119e-17 
   4658.345   5.294e-17  1.194e-17 
   4659.433   5.086e-17  1.183e-17 
   4660.521   4.373e-17  1.209e-17 
    4661.61   5.456e-17  1.229e-17 
   4662.698   3.276e-17  1.213e-17 
   4663.786   4.968e-17  1.246e-17 
   4664.875   2.595e-17  1.204e-17 
   4665.963   5.331e-17  1.293e-17 
   4667.051   5.163e-17  1.265e-17 
   4668.139   3.633e-17  1.244e-17 
   4669.228   3.843e-17   1.28e-17 
   4670.316   5.007e-17  1.319e-17 
   4671.404   3.765e-17  1.286e-17 
   4672.492   2.757e-17  1.288e-17 
   4673.581   4.378e-17  1.299e-17 
   4674.668    5.47e-17   1.33e-17 
   4675.757   2.931e-17   1.23e-17 
   4676.845   4.869e-17  1.276e-17 
   4677.934   4.291e-17  1.227e-17 
   4679.021   4.075e-17  1.217e-17 
    4680.11   4.742e-17  1.214e-17 
   4681.198   3.935e-17  1.188e-17 
   4682.285   6.514e-17  1.244e-17 
   4683.374    3.25e-17  1.171e-17 
   4684.462   4.271e-17  1.169e-17 
   4685.551   4.653e-17  1.173e-17 
   4686.638   5.411e-17  1.175e-17 
   4687.727   4.321e-17  1.175e-17 
   4688.815   2.793e-17  1.116e-17 
   4689.903   2.687e-17  1.119e-17 
   4690.991   2.959e-17  1.116e-17 
   4692.079   4.808e-17  1.165e-17 
   4693.168   4.784e-17  1.147e-17 
   4694.255   4.466e-17  1.167e-17 
   4695.344   3.951e-17  1.132e-17 
   4696.432   5.435e-17  1.173e-17 
   4697.519   4.982e-17  1.124e-17 
   4698.608    3.21e-17  1.083e-17 
   4699.696   5.097e-17  1.129e-17 
   4700.785   5.928e-17   1.13e-17 
   4701.872   2.621e-17  1.058e-17 
    4702.96   3.588e-17   1.11e-17 
   4704.049   3.694e-17  1.093e-17 
   4705.136   3.629e-17  1.131e-17 
   4706.224   3.678e-17  1.117e-17 
   4707.313   5.042e-17  1.167e-17 
   4708.401   3.768e-17  1.146e-17 
   4709.488   4.399e-17  1.171e-17 
   4710.577   4.794e-17  1.178e-17 
   4711.665   4.646e-17  1.156e-17 
   4712.752   3.384e-17  1.167e-17 
   4713.841   6.028e-17  1.212e-17 
   4714.929   5.015e-17  1.162e-17 
   4716.017   5.192e-17  1.155e-17 
   4717.104   5.401e-17  1.159e-17 
   4718.193   4.486e-17  1.131e-17 
   4719.281   3.569e-17  1.099e-17 
   4720.368   2.605e-17    1.1e-17 
   4721.456   3.323e-17  1.085e-17 
   4722.545   4.572e-17   1.14e-17 
   4723.632    5.48e-17  1.168e-17 
    4724.72   4.417e-17  1.146e-17 
   4725.808   5.033e-17   1.15e-17 
   4726.897    4.72e-17   1.14e-17 
   4727.984    4.82e-17   1.19e-17 
   4729.072   5.177e-17  1.272e-17 
    4730.16    5.71e-17  1.358e-17 
   4731.247   3.003e-17  1.273e-17 
   4732.336   5.739e-17  1.282e-17 
   4733.424   4.438e-17  1.249e-17 
   4734.512    5.64e-17  1.295e-17 
   4735.599   6.753e-17  1.354e-17 
   4736.687    4.13e-17  1.303e-17 
   4737.775   5.883e-17  1.328e-17 
   4738.863   5.231e-17  1.362e-17 
   4739.951   6.349e-17  1.401e-17 
   4741.039   5.487e-17  1.408e-17 
   4742.127   3.853e-17  1.441e-17 
   4743.214   3.117e-17  1.442e-17 
   4744.302   3.984e-17  1.484e-17 
    4745.39   7.547e-17  1.505e-17 
   4746.477    4.84e-17  1.363e-17 
   4747.566   3.822e-17  1.232e-17 
   4748.654   6.831e-17   1.21e-17 
   4749.742   5.655e-17   1.19e-17 
   4750.829   5.096e-17  1.182e-17 
   4751.917   5.871e-17   1.23e-17 
   4753.005   3.263e-17  1.189e-17 
   4754.092   5.078e-17  1.265e-17 
    4755.18   5.349e-17  1.246e-17 
   4756.268   5.841e-17  1.206e-17 
   4757.356   4.277e-17  1.134e-17 
   4758.443   3.917e-17  1.102e-17 
   4759.531    5.69e-17  1.115e-17 
   4760.619   4.129e-17  1.117e-17 
   4761.706    4.81e-17  1.088e-17 
   4762.794   3.383e-17  1.066e-17 
   4763.882   3.572e-17  1.065e-17 
    4764.97   3.886e-17  1.071e-17 
   4766.057   6.749e-17  1.119e-17 
   4767.145   5.138e-17  1.093e-17 
   4768.233   4.573e-17  1.074e-17 
    4769.32   4.334e-17  1.037e-17 
   4770.408   5.323e-17  1.074e-17 
   4771.495   4.469e-17   1.06e-17 
   4772.583   6.078e-17  1.115e-17 
    4773.67   4.927e-17  1.071e-17 
   4774.758   4.183e-17  1.072e-17 
   4775.846   5.359e-17  1.094e-17 
   4776.933    5.95e-17  1.112e-17 
   4778.021   4.038e-17  1.094e-17 
   4779.109    4.93e-17  1.172e-17 
   4780.195   5.513e-17  1.212e-17 
   4781.283   4.539e-17   1.19e-17 
   4782.371   6.296e-17  1.149e-17 
   4783.459     6.1e-17  1.139e-17 
   4784.546   5.727e-17  1.132e-17 
   4785.634   4.588e-17  1.091e-17 
   4786.721   4.155e-17  1.068e-17 
   4787.808   5.572e-17  1.097e-17 
   4788.896    5.02e-17  1.079e-17 
   4789.984   6.833e-17  1.137e-17 
   4791.071   6.437e-17   1.12e-17 
   4792.158   4.563e-17  1.127e-17 
   4793.246   4.725e-17  1.114e-17 
   4794.334     5.3e-17  1.123e-17 
    4795.42   4.444e-17  1.103e-17 
   4796.508   4.505e-17   1.08e-17 
   4797.596   6.095e-17  1.115e-17 
   4798.683   5.161e-17  1.081e-17 
    4799.77   5.103e-17  1.091e-17 
   4800.858   4.929e-17  1.077e-17 
   4801.945   3.722e-17  1.063e-17 
   4803.032   4.727e-17   1.11e-17 
    4804.12   6.234e-17  1.109e-17 
   4805.207    4.67e-17  1.076e-17 
   4806.295   3.846e-17  1.084e-17 
   4807.381   5.279e-17  1.123e-17 
   4808.469   4.989e-17  1.111e-17 
   4809.557   4.243e-17   1.12e-17 
   4810.643   5.389e-17  1.129e-17 
   4811.731   5.021e-17  1.109e-17 
   4812.818   3.551e-17  1.091e-17 
   4813.906   4.631e-17  1.127e-17 
   4814.992   3.988e-17  1.088e-17 
    4816.08   4.435e-17  1.114e-17 
   4817.167   5.708e-17  1.149e-17 
   4818.254   5.549e-17   1.15e-17 
   4819.341   4.534e-17  1.132e-17 
   4820.429   4.427e-17  1.133e-17 
   4821.516   4.091e-17   1.15e-17 
   4822.603   3.214e-17  1.138e-17 
    4823.69   5.545e-17  1.201e-17 
   4824.778   4.107e-17  1.144e-17 
   4825.864   4.733e-17  1.192e-17 
   4826.952   4.226e-17  1.186e-17 
   4828.039   4.616e-17  1.185e-17 
   4829.126   5.646e-17  1.223e-17 
   4830.213   6.443e-17  1.241e-17 
     4831.3   4.248e-17  1.199e-17 
   4832.388   3.668e-17  1.201e-17 
   4833.474   4.938e-17  1.241e-17 
   4834.561   5.026e-17  1.236e-17 
   4835.649   4.251e-17  1.207e-17 
   4836.736   6.333e-17  1.225e-17 
   4837.822   4.269e-17  1.201e-17 
    4838.91   4.456e-17  1.243e-17 
   4839.997   4.484e-17  1.267e-17 
   4841.083   2.585e-17  1.265e-17 
    4842.17   3.625e-17  1.241e-17 
   4843.258   4.201e-17  1.218e-17 
   4844.344   4.945e-17  1.217e-17 
   4845.431   3.415e-17  1.171e-17 
   4846.518   4.929e-17  1.194e-17 
   4847.605   5.625e-17  1.243e-17 
   4848.692   5.403e-17  1.219e-17 
   4849.779   5.485e-17  1.234e-17 
   4850.866   5.175e-17  1.227e-17 
   4851.952   4.422e-17    1.2e-17 
   4853.039    4.81e-17  1.221e-17 
   4854.126   5.594e-17  1.243e-17 
   4855.214   5.281e-17  1.242e-17 
     4856.3   4.648e-17  1.177e-17 
   4857.387   6.158e-17  1.202e-17 
   4858.474   2.694e-17  1.116e-17 
    4859.56   4.656e-17  1.162e-17 
   4860.647   5.251e-17  1.198e-17 
   4861.734   5.096e-17  1.212e-17 
   4862.821   3.933e-17  1.192e-17 
   4863.907   4.653e-17  1.219e-17 
   4864.994   5.325e-17  1.213e-17 
   4866.081   4.236e-17  1.198e-17 
   4867.167   6.547e-17  1.249e-17 
   4868.254   4.966e-17  1.201e-17 
   4869.341   4.933e-17  1.212e-17 
   4870.428   4.625e-17  1.184e-17 
   4871.514   6.476e-17  1.238e-17 
   4872.601   6.717e-17  1.225e-17 
   4873.688   3.553e-17  1.171e-17 
   4874.774   4.968e-17  1.201e-17 
   4875.861   2.262e-17  1.159e-17 
   4876.948   5.878e-17  1.217e-17 
   4878.034   3.291e-17   1.18e-17 
    4879.12   3.678e-17  1.203e-17 
   4880.207     5.8e-17  1.262e-17 
   4881.294   4.685e-17  1.251e-17 
    4882.38   5.477e-17  1.252e-17 
   4883.467   3.513e-17    1.2e-17 
   4884.553   7.777e-17  1.273e-17 
    4885.64   5.313e-17  1.213e-17 
   4886.726    4.11e-17  1.181e-17 
   4887.813   3.435e-17  1.157e-17 
   4888.899   5.321e-17  1.186e-17 
   4889.985   3.136e-17  1.167e-17 
   4891.072   4.595e-17  1.186e-17 
   4892.158   5.684e-17  1.207e-17 
   4893.245    3.22e-17  1.167e-17 
   4894.331   3.297e-17  1.182e-17 
   4895.417   4.728e-17  1.211e-17 
   4896.504   5.655e-17  1.201e-17 
    4897.59     5.2e-17  1.186e-17 
   4898.676   5.566e-17  1.177e-17 
   4899.763   4.272e-17   1.17e-17 
   4900.849   3.821e-17  1.156e-17 
   4901.935   5.564e-17   1.16e-17 
   4903.022   3.453e-17  1.145e-17 
   4904.108   4.837e-17  1.165e-17 
   4905.194   5.233e-17  1.189e-17 
    4906.28    6.94e-17  1.219e-17 
   4907.367    3.79e-17  1.169e-17 
   4908.452   2.585e-17  1.154e-17 
   4909.539   3.982e-17  1.187e-17 
   4910.625   7.055e-17   1.24e-17 
   4911.712    4.86e-17  1.201e-17 
   4912.797   3.443e-17  1.154e-17 
   4913.883   5.127e-17  1.174e-17 
    4914.97   7.127e-17   1.23e-17 
   4916.055   5.128e-17   1.18e-17 
   4917.142   4.978e-17  1.214e-17 
   4918.228   2.447e-17  1.132e-17 
   4919.314   5.221e-17  1.181e-17 
     4920.4   4.969e-17  1.152e-17 
   4921.486   4.386e-17  1.135e-17 
   4922.572   5.268e-17  1.174e-17 
   4923.658   3.574e-17  1.158e-17 
   4924.744   3.838e-17  1.162e-17 
    4925.83   4.659e-17  1.167e-17 
   4926.916   5.858e-17  1.172e-17 
   4928.002       5e-17  1.134e-17 
   4929.088   5.395e-17  1.151e-17 
   4930.174   5.389e-17  1.161e-17 
   4931.259   3.407e-17  1.104e-17 
   4932.345   6.033e-17  1.175e-17 
   4933.431   5.607e-17  1.119e-17 
   4934.518   5.363e-17  1.148e-17 
   4935.603   4.552e-17  1.145e-17 
   4936.689   4.553e-17  1.144e-17 
   4937.775   4.705e-17   1.16e-17 
    4938.86   3.847e-17  1.126e-17 
   4939.946   3.962e-17  1.126e-17 
   4941.032   3.563e-17  1.133e-17 
   4942.118   4.728e-17  1.161e-17 
   4943.203   5.263e-17  1.177e-17 
   4944.289   3.885e-17  1.139e-17 
   4945.375   4.239e-17  1.123e-17 
    4946.46   3.764e-17  1.106e-17 
   4947.546   4.976e-17   1.12e-17 
   4948.632   4.542e-17  1.114e-17 
   4949.718   3.717e-17  1.112e-17 
   4950.803    4.54e-17  1.118e-17 
   4951.889    3.11e-17   1.09e-17 
   4952.975   3.297e-17  1.146e-17 
   4954.059   5.222e-17  1.239e-17 
   4955.145    4.14e-17  1.193e-17 
   4956.231   3.035e-17   1.14e-17 
   4957.316   4.634e-17  1.155e-17 
   4958.402   5.067e-17  1.143e-17 
   4959.487   4.625e-17  1.138e-17 
   4960.573    4.57e-17  1.124e-17 
   4961.658   2.296e-17  1.077e-17 
   4962.744   5.774e-17  1.163e-17 
   4963.829   3.496e-17  1.119e-17 
   4964.914   4.401e-17  1.148e-17 
     4966.0   3.797e-17  1.156e-17 
   4967.085   1.725e-17  1.141e-17 
   4968.171   3.673e-17  1.163e-17 
   4969.256   2.791e-17  1.158e-17 
   4970.341   5.652e-17  1.207e-17 
   4971.427   4.049e-17  1.216e-17 
   4972.511   2.635e-17  1.232e-17 
   4973.597   5.502e-17  1.324e-17 
   4974.683   3.599e-17  1.333e-17 
   4975.768   2.358e-17  1.299e-17 
   4976.853   4.518e-17   1.38e-17 
   4977.938   5.813e-17  1.414e-17 
   4979.024   5.265e-17  1.473e-17 
   4980.108    4.55e-17  1.505e-17 
   4981.194   3.016e-17  1.553e-17 
   4982.279   3.951e-17  1.581e-17 
   4983.364   3.866e-17  1.585e-17 
   4984.449   3.178e-17  1.615e-17 
   4985.534   3.971e-17  1.633e-17 
   4986.619   5.959e-17  1.624e-17 
   4987.704   2.858e-17  1.516e-17 
   4988.789   5.728e-17   1.53e-17 
   4989.874   4.044e-17  1.434e-17 
    4990.96   5.305e-17  1.418e-17 
   4992.044   6.007e-17  1.426e-17 
   4993.129   2.725e-17  1.376e-17 
   4994.214   6.226e-17   1.38e-17 
   4995.299   3.439e-17  1.279e-17 
   4996.384   5.258e-17   1.28e-17 
   4997.469   4.399e-17  1.231e-17 
   4998.554   4.089e-17  1.203e-17 
   4999.638   4.871e-17  1.209e-17 
   5000.724    3.24e-17  1.173e-17 
   5001.809   4.764e-17  1.167e-17 
   5002.893   3.476e-17  1.154e-17 
   5003.978   2.596e-17  1.125e-17 
   5005.063   3.165e-17  1.134e-17 
   5006.148   2.804e-17  1.095e-17 
   5007.232   5.705e-17  1.153e-17 
   5008.317   4.078e-17  1.106e-17 
   5009.402   3.091e-17  1.072e-17 
   5010.486   5.049e-17   1.11e-17 
   5011.571   3.785e-17  1.099e-17 
   5012.656   4.767e-17  1.125e-17 
    5013.74    3.49e-17  1.094e-17 
   5014.825    4.91e-17  1.109e-17 
   5015.909   5.875e-17  1.117e-17 
   5016.994   4.473e-17    1.1e-17 
   5018.078   5.488e-17  1.173e-17 
   5019.163   4.313e-17  1.131e-17 
   5020.248   3.505e-17  1.101e-17 
   5021.332   5.245e-17  1.156e-17 
   5022.416   3.233e-17  1.127e-17 
   5023.501   3.643e-17  1.101e-17 
   5024.586   3.865e-17  1.088e-17 
    5025.67   5.443e-17    1.1e-17 
   5026.754   4.482e-17  1.084e-17 
   5027.839   3.999e-17  1.076e-17 
   5028.923   4.054e-17  1.086e-17 
   5030.007   4.331e-17  1.117e-17 
   5031.092   4.325e-17  1.177e-17 
   5032.176    3.95e-17  1.137e-17 
    5033.26   3.065e-17  1.116e-17 
   5034.345   2.994e-17  1.093e-17 
   5035.429   3.049e-17  1.062e-17 
   5036.513   3.504e-17   1.02e-17 
   5037.597   4.334e-17  1.055e-17 
   5038.682   5.387e-17  1.078e-17 
   5039.766   4.595e-17  1.068e-17 
   5040.849   3.419e-17  1.042e-17 
   5041.934   4.095e-17  1.051e-17 
   5043.018   5.564e-17   1.09e-17 
   5044.102   3.399e-17  1.049e-17 
   5045.186   3.866e-17  1.069e-17 
    5046.27   4.827e-17   1.11e-17 
   5047.355   6.363e-17  1.111e-17 
   5048.438    4.74e-17   1.08e-17 
   5049.522   5.609e-17  1.109e-17 
   5050.607   4.957e-17  1.097e-17 
    5051.69   4.701e-17  1.091e-17 
   5052.774   4.227e-17  1.074e-17 
   5053.858   3.818e-17  1.063e-17 
   5054.942   5.274e-17  1.087e-17 
   5056.026   3.196e-17  1.053e-17 
    5057.11   4.493e-17  1.086e-17 
   5058.194   5.212e-17  1.094e-17 
   5059.277   5.763e-17  1.108e-17 
   5060.361   5.659e-17  1.113e-17 
   5061.445   3.852e-17  1.045e-17 
   5062.529    3.59e-17  1.085e-17 
   5063.612   5.119e-17  1.148e-17 
   5064.696   4.513e-17  1.165e-17 
    5065.78   5.207e-17  1.191e-17 
   5066.863   4.264e-17  1.182e-17 
   5067.947   6.963e-17  1.214e-17 
   5069.031   3.216e-17   1.21e-17 
   5070.115   4.989e-17  1.299e-17 
   5071.198   2.829e-17  1.265e-17 
   5072.282   5.962e-17   1.33e-17 
   5073.365   3.753e-17  1.197e-17 
   5074.448   4.145e-17   1.17e-17 
   5075.532   5.316e-17  1.203e-17 
   5076.616   2.749e-17   1.16e-17 
   5077.699   3.662e-17  1.135e-17 
   5078.782   2.959e-17  1.117e-17 
   5079.866   4.198e-17  1.141e-17 
    5080.95   6.467e-17  1.332e-17 
   5082.032   3.055e-17  1.409e-17 
   5083.116   4.825e-17  1.574e-17 
     5084.2   5.034e-17  1.638e-17 
   5085.282   5.425e-17  1.669e-17 
   5086.366   3.843e-17   1.69e-17 
   5087.449   4.596e-17  1.694e-17 
   5088.533   4.532e-17  1.613e-17 
   5089.615   2.507e-17   1.46e-17 
   5090.699    3.79e-17   1.36e-17 
   5091.782   5.087e-17  1.323e-17 
   5092.865   4.144e-17  1.218e-17 
   5093.948   4.022e-17  1.168e-17 
   5095.032   1.564e-17  1.097e-17 
   5096.115   3.386e-17  1.152e-17 
   5097.197   3.683e-17  1.179e-17 
   5098.281   6.318e-17  1.302e-17 
   5099.364   4.196e-17  1.311e-17 
   5100.446   3.366e-17  1.323e-17 
    5101.53   3.908e-17   1.33e-17 
   5102.613   2.039e-17  1.256e-17 
   5103.696   4.508e-17  1.208e-17 
   5104.778   3.652e-17  1.176e-17 
   5105.862   5.611e-17  1.145e-17 
   5106.945   3.626e-17  1.111e-17 
   5108.027   4.101e-17  1.117e-17 
    5109.11   4.493e-17  1.125e-17 
   5110.193   4.404e-17  1.129e-17 
   5111.276   3.476e-17  1.108e-17 
   5112.358   5.685e-17  1.177e-17 
   5113.441   3.819e-17  1.128e-17 
   5114.524   3.145e-17  1.138e-17 
   5115.606   5.118e-17  1.161e-17 
   5116.689   1.771e-17  1.127e-17 
   5117.772   3.341e-17  1.193e-17 
   5118.855   3.713e-17   1.16e-17 
   5119.937   3.644e-17  1.126e-17 
    5121.02   3.786e-17  1.113e-17 
   5122.103   4.102e-17  1.073e-17 
   5123.185   4.772e-17  1.095e-17 
   5124.268   4.289e-17  1.102e-17 
    5125.35   4.324e-17  1.077e-17 
   5126.433   3.306e-17  1.082e-17 
   5127.515   4.922e-17  1.104e-17 
   5128.598   5.318e-17  1.123e-17 
    5129.68   3.661e-17  1.087e-17 
   5130.762   5.141e-17  1.112e-17 
   5131.845   4.542e-17  1.081e-17 
   5132.927    5.95e-17   1.13e-17 
    5134.01   6.029e-17  1.128e-17 
   5135.091   6.365e-17  1.155e-17 
   5136.174   2.555e-17  1.071e-17 
   5137.256   4.029e-17  1.112e-17 
   5138.338   4.427e-17  1.086e-17 
    5139.42    4.51e-17  1.096e-17 
   5140.503   5.912e-17  1.146e-17 
   5141.584   4.675e-17  1.132e-17 
   5142.667   5.032e-17  1.125e-17 
   5143.749   5.417e-17  1.145e-17 
   5144.832   4.887e-17   1.14e-17 
   5145.913   4.075e-17  1.133e-17 
   5146.995   3.973e-17  1.122e-17 
   5148.077   4.383e-17  1.164e-17 
   5149.159   4.098e-17  1.205e-17 
   5150.241   3.702e-17  1.229e-17 
   5151.323   5.787e-17  1.282e-17 
   5152.405   4.558e-17  1.261e-17 
   5153.487   2.371e-17  1.285e-17 
   5154.569   2.733e-17  1.328e-17 
   5155.651   3.382e-17  1.351e-17 
   5156.732   4.998e-17  1.353e-17 
   5157.814   4.266e-17  1.287e-17 
   5158.896   5.952e-17  1.265e-17 
   5159.978   5.304e-17  1.224e-17 
   5161.059   4.439e-17  1.204e-17 
   5162.141   4.593e-17  1.157e-17 
   5163.223    4.31e-17  1.156e-17 
   5164.304   5.646e-17  1.165e-17 
   5165.386   3.578e-17  1.115e-17 
   5166.468   4.342e-17  1.117e-17 
    5167.55   6.158e-17  1.133e-17 
   5168.631   3.804e-17  1.073e-17 
   5169.712   3.763e-17  1.072e-17 
   5170.794   3.211e-17  1.083e-17 
   5171.875    4.77e-17  1.113e-17 
   5172.957   2.384e-17  1.042e-17 
   5174.038   3.268e-17  1.057e-17 
    5175.12   3.368e-17  1.073e-17 
   5176.201    3.45e-17   1.11e-17 
   5177.282   4.158e-17  1.132e-17 
   5178.364   5.033e-17  1.146e-17 
   5179.445    5.32e-17  1.167e-17 
   5180.526   5.117e-17  1.133e-17 
   5181.608   5.221e-17  1.151e-17 
   5182.689   3.796e-17  1.092e-17 
    5183.77   5.183e-17  1.121e-17 
   5184.851   4.246e-17  1.087e-17 
   5185.933   4.315e-17  1.104e-17 
   5187.013   4.625e-17  1.166e-17 
   5188.094   4.862e-17  1.198e-17 
   5189.176   3.957e-17  1.163e-17 
   5190.257   3.999e-17  1.185e-17 
   5191.337   4.706e-17  1.172e-17 
   5192.419    4.51e-17  1.162e-17 
     5193.5   3.913e-17  1.145e-17 
    5194.58   7.135e-17  1.213e-17 
   5195.661   4.125e-17  1.161e-17 
   5196.742   3.705e-17  1.138e-17 
   5197.824   2.705e-17  1.132e-17 
   5198.904   5.427e-17  1.214e-17 
   5199.985   1.988e-17   1.17e-17 
   5201.066   5.154e-17  1.219e-17 
   5202.146   2.964e-17  1.183e-17 
   5203.227   4.021e-17  1.193e-17 
   5204.308   4.017e-17  1.198e-17 
   5205.388    1.73e-17  1.123e-17 
   5206.469   2.226e-17  1.108e-17 
    5207.55    3.13e-17  1.135e-17 
   5208.631   3.717e-17  1.147e-17 
   5209.711    3.36e-17  1.171e-17 
   5210.791   4.335e-17  1.263e-17 
   5211.872   3.663e-17   1.24e-17 
   5212.952   4.421e-17  1.263e-17 
   5214.033   4.081e-17  1.246e-17 
   5215.114   4.602e-17  1.185e-17 
   5216.194   3.964e-17  1.175e-17 
   5217.274   6.958e-18   1.08e-17 
   5218.355   4.769e-17  1.206e-17 
   5219.435   5.631e-17  1.249e-17 
   5220.515    4.46e-17  1.269e-17 
   5221.595   3.665e-17  1.237e-17 
   5222.676   3.797e-17  1.247e-17 
   5223.756   3.731e-17  1.201e-17 
   5224.836   2.143e-17  1.159e-17 
   5225.916   2.999e-17   1.16e-17 
   5226.997   4.042e-17  1.167e-17 
   5228.076   3.284e-17  1.115e-17 
   5229.157   3.843e-17  1.143e-17 
   5230.237    2.75e-17  1.126e-17 
   5231.317   5.131e-17  1.207e-17 
   5232.397   2.166e-17  1.147e-17 
   5233.477   3.725e-17   1.19e-17 
   5234.557   4.212e-17   1.18e-17 
   5235.636   6.357e-17  1.211e-17 
   5236.717   4.766e-17   1.17e-17 
   5237.797    3.88e-17  1.163e-17 
   5238.877   3.929e-17  1.228e-17 
   5239.956   4.696e-17  1.247e-17 
   5241.036   1.223e-17  1.185e-17 
   5242.116   4.684e-17  1.225e-17 
   5243.195   2.571e-17  1.149e-17 
   5244.275   4.335e-17  1.125e-17 
   5245.355       5e-17  1.162e-17 
   5246.435    4.17e-17  1.124e-17 
   5247.514   3.809e-17  1.133e-17 
   5248.594   3.834e-17  1.151e-17 
   5249.674   5.072e-17  1.172e-17 
   5250.753   2.172e-17  1.133e-17 
   5251.832   3.001e-17  1.143e-17 
   5252.912   4.426e-17  1.148e-17 
   5253.992   4.242e-17  1.151e-17 
   5255.071    3.95e-17  1.175e-17 
    5256.15   3.667e-17  1.211e-17 
    5257.23   3.637e-17  1.259e-17 
   5258.309   3.851e-17  1.259e-17 
   5259.388   4.242e-17  1.287e-17 
   5260.468   4.218e-17  1.275e-17 
   5261.547   3.305e-17  1.189e-17 
   5262.626   3.101e-17  1.127e-17 
   5263.705   3.998e-17  1.169e-17 
   5264.785   3.927e-17  1.119e-17 
   5265.863   3.416e-17  1.097e-17 
   5266.943    4.81e-17  1.184e-17 
   5268.022   4.113e-17  1.122e-17 
   5269.101   3.197e-17  1.124e-17 
    5270.18   3.593e-17  1.141e-17 
   5271.259   2.092e-17  1.078e-17 
   5272.338   4.547e-17  1.181e-17 
   5273.417   2.923e-17  1.137e-17 
   5274.496   2.773e-17  1.143e-17 
   5275.575    2.66e-17  1.155e-17 
   5276.654   3.727e-17  1.207e-17 
   5277.732   2.705e-17  1.191e-17 
   5278.811   3.494e-17  1.168e-17 
    5279.89    3.58e-17  1.159e-17 
   5280.968   3.938e-17   1.16e-17 
   5282.047   1.566e-17  1.092e-17 
   5283.126   5.455e-17  1.147e-17 
   5284.204   4.501e-17  1.138e-17 
   5285.283   3.842e-17  1.171e-17 
   5286.362   4.603e-17  1.254e-17 
   5287.441   4.753e-17  1.232e-17 
   5288.519    4.51e-17  1.218e-17 
   5289.598   2.615e-17  1.135e-17 
   5290.676   1.231e-17  1.081e-17 
   5291.754   2.115e-17   1.15e-17 
   5292.833   2.595e-17  1.111e-17 
   5293.911   3.715e-17  1.171e-17 
    5294.99   2.798e-17  1.142e-17 
   5296.068   5.142e-17  1.203e-17 
   5297.146   3.881e-17  1.192e-17 
   5298.225   5.302e-17  1.217e-17 
   5299.302   3.506e-17  1.174e-17 
   5300.381   3.578e-17  1.192e-17 
   5301.459   3.078e-17  1.169e-17 
   5302.538   2.892e-17   1.19e-17 
   5303.615   3.848e-17  1.238e-17 
   5304.694   5.137e-17  1.209e-17 
   5305.772   3.306e-17  1.181e-17 
   5306.849   4.278e-17  1.216e-17 
   5307.928   5.278e-17  1.188e-17 
   5309.006   4.851e-17  1.205e-17 
   5310.084   3.251e-17  1.167e-17 
   5311.161   3.551e-17  1.164e-17 
   5312.239   1.042e-17  1.169e-17 
   5313.318   4.467e-17  1.243e-17 
   5314.395   3.178e-17  1.211e-17 
   5315.473   3.697e-17  1.218e-17 
   5316.551   4.468e-17  1.209e-17 
   5317.629   4.556e-17  1.216e-17 
   5318.706    3.55e-17  1.156e-17 
   5319.784   4.432e-17   1.23e-17 
   5320.862   3.314e-17  1.178e-17 
   5321.938    3.63e-17  1.221e-17 
   5323.016   3.773e-17  1.188e-17 
   5324.094   1.221e-17  1.152e-17 
   5325.172   3.705e-17  1.223e-17 
   5326.249   3.578e-17  1.249e-17 
   5327.326   3.288e-17  1.216e-17 
   5328.404   4.302e-17  1.273e-17 
   5329.481   3.063e-17  1.219e-17 
   5330.558   3.674e-17   1.27e-17 
   5331.636   2.761e-17  1.251e-17 
   5332.714   3.147e-17  1.256e-17 
    5333.79   2.814e-17  1.251e-17 
   5334.868   4.482e-17  1.297e-17 
   5335.945   1.013e-17  1.199e-17 
   5337.022   3.744e-17  1.289e-17 
   5338.099   2.935e-17  1.272e-17 
   5339.176   4.051e-17   1.31e-17 
   5340.254   2.164e-17  1.317e-17 
    5341.33   5.226e-17  1.407e-17 
   5342.407   9.474e-18  1.349e-17 
   5343.485   2.415e-17   1.36e-17 
   5344.561   3.144e-17   1.38e-17 
   5345.638   4.805e-17  1.372e-17 
   5346.715   2.846e-17  1.277e-17 
   5347.792    3.67e-17   1.36e-17 
   5348.868   4.687e-17  1.745e-17 
   5349.946   3.128e-17  1.775e-17 
   5351.023   4.597e-17  1.827e-17 
   5352.099   4.467e-17  1.826e-17 
   5353.176   4.327e-17  1.742e-17 
   5354.252   1.353e-17  1.617e-17 
   5355.329   3.388e-17  1.747e-17 
   5356.405   4.156e-17  1.837e-17 
   5357.482   3.533e-17  1.845e-17 
   5358.559   5.341e-17  1.873e-17 
   5359.635    5.48e-17  1.755e-17 
   5360.711   3.716e-17  1.641e-17 
   5361.788   3.374e-17  1.603e-17 
   5362.865   4.034e-17  1.628e-17 
    5363.94   5.088e-17  1.634e-17 
   5365.017   3.407e-17  1.591e-17 
   5366.094   3.365e-17  1.565e-17 
   5367.169   3.228e-17  1.582e-17 
   5368.246   5.453e-17  1.625e-17 
   5369.322   5.854e-17  1.719e-17 
   5370.399   4.587e-17   1.62e-17 
   5371.474   3.645e-17  1.594e-17 
    5372.55   3.399e-17  1.585e-17 
   5373.627   5.974e-17   1.71e-17 
   5374.702   4.352e-17  1.725e-17 
   5375.778   2.548e-17  1.706e-17 
   5376.855   2.815e-17  1.728e-17 
    5377.93   4.095e-17  1.745e-17 
   5379.006   4.762e-17  1.712e-17 
   5380.082   4.098e-17  1.684e-17 
   5381.158   3.753e-17  1.699e-17 
   5382.233   2.649e-17  1.648e-17 
   5383.309   3.052e-17   1.61e-17 
   5384.386   4.219e-17  1.693e-17 
    5385.46   6.731e-17  1.743e-17 
   5386.536   4.124e-17   1.73e-17 
   5387.612   3.633e-17  1.698e-17 
   5388.688   4.288e-17  1.726e-17 
   5389.763   5.469e-17  1.708e-17 
   5390.839   6.931e-17  1.777e-17 
   5391.915    5.32e-17  1.828e-17 
   5392.989   4.339e-17    1.8e-17 
   5394.065   4.593e-17   1.79e-17 
   5395.141   4.093e-17   1.78e-17 
   5396.216    5.42e-17  1.818e-17 
   5397.291   4.577e-17  1.761e-17 
   5398.367   3.745e-17  1.729e-17 
   5399.442   3.889e-17  1.761e-17 
   5400.517   3.479e-17  1.741e-17 
   5401.592   6.868e-17  1.817e-17 
   5402.668   6.277e-17  1.832e-17 
   5403.743   5.757e-17  1.853e-17 
   5404.817   4.313e-17   1.81e-17 
   5405.893   3.434e-17  1.767e-17 
   5406.968   4.653e-17   1.81e-17 
   5408.042   4.946e-17  1.856e-17 
   5409.118    5.94e-17   1.88e-17 
   5410.193   3.556e-17  1.865e-17 
   5411.268   3.778e-17  1.894e-17 
   5412.342   3.508e-17  1.927e-17 
   5413.417   5.514e-17  2.031e-17 
   5414.492   5.911e-17  2.052e-17 
   5415.566   6.208e-17  2.103e-17 
   5416.641   4.245e-17  2.085e-17 
   5417.716   4.107e-17  2.093e-17 
   5418.791   4.535e-17  2.098e-17 
   5419.865   6.102e-17  2.108e-17 
    5420.94   6.225e-17  2.099e-17 
   5422.015   3.667e-17  2.054e-17 
   5423.088   2.779e-17  2.018e-17 
   5424.163   2.843e-17  1.993e-17 
   5425.238   4.571e-17  1.995e-17 
   5426.313   5.093e-17   2.02e-17 
   5427.386   4.733e-17  2.026e-17 
   5428.461   3.615e-17  2.013e-17 
   5429.535   4.071e-17  1.985e-17 
   5430.609   5.506e-17      2e-17 
   5431.683   8.206e-17  2.058e-17 
   5432.758   4.725e-17  1.997e-17 
   5433.832   4.138e-17   1.98e-17 
   5434.906   4.387e-17  2.008e-17 
    5435.98   5.247e-17  2.016e-17 
   5437.054   4.691e-17      2e-17 
   5438.128   5.668e-17  2.033e-17 
   5439.202   3.769e-17      2e-17 
   5440.276    4.03e-17  2.007e-17 
    5441.35   5.393e-17  2.013e-17 
   5442.424   5.329e-17  2.033e-17 
   5443.498   4.458e-17  1.996e-17 
   5444.572   4.288e-17  2.045e-17 
   5445.645   3.508e-17   2.03e-17 
   5446.719   3.378e-17  2.052e-17 
   5447.793   4.046e-17  2.041e-17 
   5448.867   3.853e-17  2.049e-17 
    5449.94   3.441e-17  2.029e-17 
   5451.013   4.794e-17   2.09e-17 
   5452.087   2.936e-17  2.082e-17 
    5453.16   3.751e-17  2.189e-17 
   5454.234   5.146e-17  2.307e-17 
   5455.307   6.773e-17  2.433e-17 
   5456.381   5.414e-17  2.474e-17 
   5457.454   4.316e-17  2.593e-17 
   5458.527   6.329e-17  2.767e-17 
   5459.601   5.428e-17  3.383e-17 
   5460.673   6.822e-17  3.672e-17 
   5461.747   7.422e-17    3.6e-17 
    5462.82   3.924e-17  3.382e-17 
   5463.894   3.461e-18  3.105e-17 
   5464.966   4.905e-17  2.861e-17 
    5466.04   5.097e-17  2.588e-17 
   5467.113    5.79e-17  2.451e-17 
   5468.185     4.7e-17  2.311e-17 
   5469.258   3.474e-17  2.189e-17 
   5470.332   5.929e-17  2.154e-17 
   5471.405     7.1e-17  2.162e-17 
   5472.477   4.073e-17  2.102e-17 
    5473.55   5.533e-17   2.08e-17 
   5474.623   7.016e-17  2.073e-17 
   5475.695   4.466e-17  2.023e-17 
   5476.768   5.914e-17   2.01e-17 
   5477.841   4.324e-17   1.98e-17 
   5478.914   6.623e-17  2.056e-17 
   5479.986   5.521e-17  2.053e-17 
   5481.059   5.083e-17  2.092e-17 
   5482.131   5.832e-17  2.097e-17 
   5483.203   5.924e-17  2.097e-17 
   5484.276   7.321e-17  2.168e-17 
   5485.348     5.7e-17  2.098e-17 
   5486.421   6.001e-17  2.042e-17 
   5487.493   6.638e-17  2.019e-17 
   5488.565   5.667e-17  1.967e-17 
   5489.638   5.017e-17  1.915e-17 
   5490.709    4.99e-17  1.905e-17 
   5491.782   4.515e-17  1.887e-17 
   5492.854   5.295e-17  1.861e-17 
   5493.926   7.151e-17  1.853e-17 
   5494.998   7.122e-17   1.83e-17 
    5496.07   6.327e-17  1.855e-17 
   5497.142   6.132e-17  1.889e-17 
   5498.214     5.9e-17  1.841e-17 
   5499.286   4.117e-17  1.788e-17 
   5500.358   3.129e-17  1.792e-17 
    5501.43   5.411e-17  1.811e-17 
   5502.501   8.012e-17  1.869e-17 
   5503.573   5.508e-17  1.807e-17 
   5504.645   5.319e-17  1.782e-17 
   5505.716   4.873e-17  1.763e-17 
   5506.788   6.039e-17  1.766e-17 
    5507.86   4.332e-17  1.767e-17 
   5508.932   6.139e-17  1.807e-17 
   5510.002   4.886e-17  1.778e-17 
   5511.074   4.976e-17   1.78e-17 
   5512.146   5.291e-17  1.797e-17 
   5513.217   4.792e-17  1.793e-17 
   5514.288   5.327e-17  1.836e-17 
    5515.36   5.462e-17   1.84e-17 
   5516.431   3.725e-17  1.788e-17 
   5517.502   4.479e-17   1.79e-17 
   5518.573   5.554e-17  1.831e-17 
   5519.645   7.385e-17   1.87e-17 
   5520.715   6.684e-17  1.849e-17 
   5521.787   4.848e-17  1.793e-17 
   5522.858   5.024e-17  1.765e-17 
   5523.929   5.567e-17  1.765e-17 
     5525.0   6.239e-17  1.748e-17 
   5526.071   5.895e-17  1.749e-17 
   5527.142   5.723e-17  1.725e-17 
   5528.212    5.44e-17  1.684e-17 
   5529.283   5.493e-17  1.651e-17 
   5530.354   5.176e-17  1.615e-17 
   5531.689   5.749e-17  1.378e-17 
   5533.206   6.139e-17  1.364e-17 
   5534.723    3.99e-17  1.335e-17 
   5536.239   6.317e-17  1.358e-17 
   5537.756   5.219e-17  1.352e-17 
   5539.272   5.796e-17   1.36e-17 
   5540.789   4.353e-17  1.318e-17 
   5542.306   6.064e-17  1.347e-17 
   5543.822   7.336e-17  1.363e-17 
    5545.34   5.671e-17  1.341e-17 
   5546.856   5.991e-17  1.309e-17 
   5548.373   5.948e-17  1.291e-17 
    5549.89   4.368e-17  1.277e-17 
   5551.406   7.242e-17  1.284e-17 
   5552.924   6.036e-17  1.252e-17 
    5554.44   7.075e-17  1.265e-17 
   5555.957   6.535e-17  1.291e-17 
   5557.475   3.863e-17  1.249e-17 
   5558.991    7.16e-17  1.287e-17 
   5560.509   6.285e-17  1.272e-17 
   5562.025   5.985e-17  1.283e-17 
   5563.543   4.831e-17  1.254e-17 
    5565.06   6.499e-17  1.268e-17 
   5566.577   7.767e-17   1.28e-17 
   5568.094    3.71e-17  1.284e-17 
   5569.611   2.728e-17  1.762e-17 
   5571.128   2.103e-17  2.392e-17 
   5572.646   3.101e-17  2.884e-17 
   5574.163   6.723e-17  3.153e-17 
    5575.68   5.713e-17   3.17e-17 
   5577.197   7.487e-17  2.935e-17 
   5578.715   4.323e-17  2.571e-17 
   5580.232   3.927e-17  2.271e-17 
    5581.75   6.491e-17  2.045e-17 
   5583.267   6.732e-17  1.808e-17 
   5584.784   4.736e-17  1.621e-17 
   5586.302   5.335e-17  1.502e-17 
   5587.819   5.001e-17  1.337e-17 
   5589.337   3.918e-17  1.272e-17 
   5590.855   3.885e-17   1.24e-17 
   5592.372    3.18e-17  1.186e-17 
    5593.89   5.799e-17   1.21e-17 
   5595.407   5.562e-17  1.196e-17 
   5596.925   4.678e-17  1.206e-17 
   5598.443   4.373e-17  1.203e-17 
   5599.961   4.082e-17  1.178e-17 
   5601.479    7.46e-17  1.251e-17 
   5602.996   4.485e-17  1.209e-17 
   5604.514   3.796e-17  1.211e-17 
   5606.033   5.085e-17  1.204e-17 
    5607.55   7.464e-17  1.237e-17 
   5609.068   4.132e-17  1.205e-17 
   5610.586    3.26e-17  1.197e-17 
   5612.104   4.399e-17  1.186e-17 
   5613.622   5.467e-17  1.207e-17 
    5615.14   4.017e-17  1.182e-17 
   5616.658   3.569e-17  1.181e-17 
   5618.176   3.968e-17  1.173e-17 
   5619.694   6.595e-17  1.255e-17 
   5621.213   5.308e-17  1.227e-17 
    5622.73   3.527e-17  1.173e-17 
   5624.249   5.998e-17  1.192e-17 
   5625.767   5.498e-17  1.216e-17 
   5627.285   4.378e-17  1.158e-17 
   5628.803   3.001e-17  1.143e-17 
   5630.322   4.306e-17  1.162e-17 
    5631.84   6.094e-17  1.195e-17 
   5633.358   4.082e-17  1.162e-17 
   5634.877   4.339e-17  1.173e-17 
   5636.395   6.148e-17   1.21e-17 
   5637.913   5.377e-17  1.215e-17 
   5639.432   3.738e-17  1.182e-17 
    5640.95   4.953e-17  1.162e-17 
   5642.469   5.456e-17  1.203e-17 
   5643.987   6.295e-17  1.227e-17 
   5645.506    3.27e-17  1.192e-17 
   5647.025   6.278e-17  1.217e-17 
   5648.543    5.19e-17  1.188e-17 
   5650.062   4.557e-17  1.202e-17 
    5651.58   4.327e-17  1.168e-17 
   5653.099   5.111e-17  1.195e-17 
   5654.619   4.602e-17  1.186e-17 
   5656.137   2.565e-17  1.143e-17 
   5657.656   2.865e-17  1.129e-17 
   5659.174   5.804e-17  1.205e-17 
   5660.693   4.625e-17  1.224e-17 
   5662.213   5.456e-17  1.253e-17 
   5663.731   4.694e-17  1.235e-17 
    5665.25   3.405e-17  1.268e-17 
   5666.769    4.89e-17  1.358e-17 
   5668.288   4.757e-17  1.393e-17 
   5669.807   4.247e-17  1.403e-17 
   5671.326   6.411e-17  1.412e-17 
   5672.845   2.656e-17  1.354e-17 
   5674.364   3.885e-17  1.383e-17 
   5675.883   5.246e-17  1.443e-17 
   5677.402   6.926e-17  1.506e-17 
   5678.922   6.163e-17  1.598e-17 
   5680.441   5.486e-17  1.683e-17 
    5681.96   3.754e-17  1.758e-17 
   5683.479   3.948e-17  1.847e-17 
   5684.998   4.633e-17  1.884e-17 
   5686.518   4.856e-17  1.877e-17 
   5688.038   3.525e-17   1.85e-17 
   5689.556   4.533e-17   1.77e-17 
   5691.076   5.775e-17  1.717e-17 
   5692.595   3.447e-17  1.615e-17 
   5694.115   4.951e-17  1.576e-17 
   5695.635   3.151e-17  1.479e-17 
   5697.154   4.101e-17  1.434e-17 
   5698.673   2.456e-17  1.345e-17 
   5700.192   4.177e-17  1.287e-17 
   5701.712   3.289e-17  1.267e-17 
   5703.232   4.477e-17  1.244e-17 
   5704.751   2.651e-17   1.22e-17 
   5706.271   3.852e-17  1.237e-17 
   5707.791   4.132e-17  1.258e-17 
   5709.311   3.411e-17  1.243e-17 
   5710.831   2.893e-17  1.197e-17 
    5712.35   4.167e-17  1.195e-17 
    5713.87     3.8e-17  1.207e-17 
   5715.389   3.139e-17  1.163e-17 
    5716.91   3.299e-17  1.149e-17 
    5718.43   4.608e-17  1.153e-17 
   5719.949    4.84e-17  1.179e-17 
    5721.47   2.843e-17  1.133e-17 
   5722.989   4.187e-17  1.121e-17 
   5724.509   5.112e-17  1.141e-17 
   5726.029   4.897e-17  1.118e-17 
   5727.549   2.931e-17  1.079e-17 
    5729.07   4.143e-17  1.082e-17 
   5730.589   5.154e-17  1.096e-17 
    5732.11   4.761e-17  1.087e-17 
   5733.629   4.574e-17  1.087e-17 
    5735.15   4.695e-17   1.06e-17 
    5736.67   4.812e-17  1.061e-17 
    5738.19    3.66e-17  1.055e-17 
    5739.71    2.14e-17  1.044e-17 
    5741.23   3.642e-17  1.054e-17 
   5742.751   4.446e-17  1.079e-17 
   5744.272   3.525e-17  1.071e-17 
   5745.791   3.939e-17  1.066e-17 
   5747.312   4.198e-17  1.082e-17 
   5748.832   4.679e-17  1.114e-17 
   5750.353   2.891e-17  1.066e-17 
   5751.874   5.186e-17  1.091e-17 
   5753.393   4.297e-17  1.083e-17 
   5754.914   4.191e-17  1.105e-17 
   5756.434   4.086e-17  1.124e-17 
   5757.955   1.658e-17  1.082e-17 
   5759.476   5.982e-17  1.182e-17 
   5760.996   4.476e-17  1.212e-17 
   5762.517   4.552e-17  1.317e-17 
   5764.037   3.715e-17  1.409e-17 
   5765.558   4.698e-17  1.499e-17 
    5767.08   4.604e-17  1.507e-17 
     5768.6   1.255e-17  1.446e-17 
   5770.121   4.169e-17  1.425e-17 
   5771.641   3.187e-17  1.352e-17 
   5773.162   4.739e-17  1.317e-17 
   5774.683   2.394e-17  1.232e-17 
   5776.204   3.965e-17  1.205e-17 
   5777.725   2.513e-17  1.166e-17 
   5779.245   5.025e-17  1.194e-17 
   5780.767   4.013e-17   1.19e-17 
   5782.287   3.689e-17  1.227e-17 
   5783.809   4.396e-17  1.356e-17 
    5785.33   3.002e-17  1.413e-17 
   5786.851   4.471e-17  1.497e-17 
   5788.372   4.064e-17  1.511e-17 
   5789.893   4.191e-17  1.483e-17 
   5791.414   2.641e-17  1.396e-17 
   5792.936   3.602e-17  1.353e-17 
   5794.456   3.339e-17  1.308e-17 
   5795.978    4.02e-17   1.29e-17 
   5797.498   3.532e-17  1.241e-17 
    5799.02   3.406e-17  1.224e-17 
   5800.542   2.772e-17  1.196e-17 
   5802.063   3.221e-17  1.201e-17 
   5803.584   4.493e-17  1.206e-17 
   5805.105   2.168e-17  1.175e-17 
   5806.627   4.917e-17  1.191e-17 
   5808.149   3.086e-17  1.199e-17 
    5809.67   4.115e-17  1.192e-17 
   5811.191    3.25e-17  1.174e-17 
   5812.712   4.565e-17   1.18e-17 
   5814.234   3.842e-17    1.2e-17 
   5815.755    3.15e-17  1.176e-17 
   5817.277   3.086e-17  1.188e-17 
   5818.799   4.406e-17  1.229e-17 
    5820.32   3.114e-17  1.219e-17 
   5821.842   2.718e-17  1.205e-17 
   5823.363   4.326e-17  1.232e-17 
   5824.885   4.937e-17  1.237e-17 
   5826.408    2.99e-17  1.226e-17 
   5827.929   1.834e-17  1.217e-17 
   5829.451   1.797e-17  1.225e-17 
   5830.972   5.424e-17   1.28e-17 
   5832.494   3.051e-17  1.264e-17 
   5834.017   1.499e-17  1.252e-17 
   5835.538   4.101e-17   1.27e-17 
    5837.06   4.108e-17  1.288e-17 
   5838.582   4.603e-17  1.301e-17 
   5840.104   3.319e-17  1.298e-17 
   5841.626    5.54e-17  1.306e-17 
   5843.148   6.074e-17  1.338e-17 
    5844.67    2.99e-17  1.332e-17 
   5846.192   3.895e-17  1.334e-17 
   5847.714   3.699e-17  1.329e-17 
   5849.237   3.962e-17  1.338e-17 
   5850.758   3.277e-17   1.36e-17 
   5852.281   3.123e-17  1.353e-17 
   5853.802   4.789e-17  1.376e-17 
   5855.325   4.105e-17   1.37e-17 
   5856.847   4.701e-17  1.376e-17 
   5858.369   3.045e-17  1.385e-17 
   5859.892   4.131e-17  1.436e-17 
   5861.414   3.221e-17  1.462e-17 
   5862.936   2.935e-17  1.485e-17 
   5864.458   3.149e-17  1.517e-17 
   5865.981   3.985e-17  1.511e-17 
   5867.504   3.785e-17   1.52e-17 
   5869.026   5.361e-17  1.529e-17 
   5870.549   2.949e-17  1.474e-17 
   5872.071   5.727e-17  1.479e-17 
   5873.593   3.308e-17  1.422e-17 
   5875.116    4.18e-17  1.415e-17 
   5876.638    3.65e-17   1.38e-17 
   5878.161   5.251e-17  1.382e-17 
   5879.683   5.002e-17  1.433e-17 
   5881.206   4.183e-18  1.582e-17 
    5882.73   3.496e-17  2.121e-17 
   5884.252   3.166e-17  2.589e-17 
   5885.775    5.14e-17  2.925e-17 
   5887.297   3.563e-17  3.125e-17 
    5888.82   2.138e-17  3.241e-17 
   5890.342   3.704e-17  3.247e-17 
   5891.866   4.854e-17  3.217e-17 
   5893.389   3.822e-17  3.158e-17 
   5894.911   7.142e-17  2.926e-17 
   5896.434   1.088e-17  2.556e-17 
   5897.957   6.131e-17  2.263e-17 
    5899.48   3.915e-17  1.963e-17 
   5901.003   5.251e-17  1.807e-17 
   5902.526   6.471e-17  1.655e-17 
   5904.049   2.852e-17  1.514e-17 
   5905.572   3.802e-17  1.439e-17 
   5907.095     4.8e-17  1.443e-17 
   5908.619   5.025e-17  1.469e-17 
   5910.141   4.109e-17  1.457e-17 
   5911.665   2.782e-17  1.462e-17 
   5913.187   5.679e-17  1.503e-17 
   5914.711   2.879e-17  1.471e-17 
   5916.235    4.38e-17  1.467e-17 
   5917.757   4.003e-17  1.463e-17 
   5919.281   5.098e-17  1.472e-17 
   5920.804   3.365e-17  1.472e-17 
   5922.327   4.121e-17  1.477e-17 
   5923.851   3.945e-17  1.463e-17 
   5925.374   4.947e-17  1.498e-17 
   5926.898   3.349e-17  1.511e-17 
   5928.421   5.545e-17  1.523e-17 
   5929.944   5.316e-17  1.521e-17 
   5931.467   3.529e-17  1.518e-17 
   5932.991   2.549e-17  1.466e-17 
   5934.515   3.002e-17   1.45e-17 
   5936.038   3.023e-17   1.43e-17 
   5937.562   2.567e-17   1.43e-17 
   5939.085   4.181e-17  1.431e-17 
   5940.609   3.794e-17  1.418e-17 
   5942.133   4.011e-17  1.418e-17 
   5943.656   4.446e-17    1.4e-17 
    5945.18   5.042e-17  1.404e-17 
   5946.704   4.188e-17  1.413e-17 
   5948.228   3.435e-17  1.406e-17 
   5949.752   4.183e-17  1.469e-17 
   5951.275   3.892e-17  1.452e-17 
   5952.799   4.183e-17  1.433e-17 
   5954.323   4.234e-17  1.422e-17 
   5955.847   4.482e-17  1.394e-17 
   5957.371   2.836e-17  1.365e-17 
   5958.894   4.307e-17  1.349e-17 
   5960.419   6.077e-17  1.375e-17 
   5961.942   2.908e-17  1.342e-17 
   5963.467   4.283e-17  1.338e-17 
    5964.99   2.113e-17   1.34e-17 
   5966.514   4.113e-17  1.371e-17 
   5968.039   4.374e-17  1.356e-17 
   5969.562   4.507e-17  1.354e-17 
   5971.087    3.55e-17  1.354e-17 
   5972.611   4.832e-17  1.358e-17 
   5974.135   2.816e-17  1.329e-17 
    5975.66   1.189e-17  1.319e-17 
   5977.183   3.379e-17  1.337e-17 
   5978.708   2.851e-17  1.319e-17 
   5980.232   3.164e-17  1.291e-17 
   5981.756   4.472e-17  1.282e-17 
   5983.281   4.156e-17  1.274e-17 
   5984.805   2.677e-17  1.278e-17 
    5986.33   2.892e-17  1.257e-17 
   5987.853   3.779e-17   1.27e-17 
   5989.378   4.606e-17  1.271e-17 
   5990.903   4.077e-17  1.272e-17 
   5992.427   2.568e-17  1.252e-17 
   5993.952   4.086e-17  1.248e-17 
   5995.476   3.721e-17  1.257e-17 
   5997.001   2.687e-17  1.249e-17 
   5998.526   5.318e-17  1.259e-17 
    6000.05    4.32e-17  1.238e-17 
   6001.575   4.031e-17  1.244e-17 
   6003.099   2.144e-17  1.211e-17 
   6004.624   3.584e-17  1.209e-17 
   6006.148   3.526e-17  1.205e-17 
   6007.673   4.923e-17  1.217e-17 
   6009.198    1.56e-17  1.153e-17 
   6010.722   3.828e-17  1.154e-17 
   6012.247   4.056e-17  1.156e-17 
   6013.772   5.744e-17  1.188e-17 
   6015.297   3.083e-17  1.147e-17 
   6016.822   3.536e-17  1.143e-17 
   6018.346   5.032e-17  1.169e-17 
   6019.872   3.896e-17  1.156e-17 
   6021.396   2.173e-17  1.129e-17 
   6022.921   3.239e-17   1.14e-17 
   6024.447   2.931e-17  1.139e-17 
   6025.971   4.544e-17  1.159e-17 
   6027.497   3.407e-17  1.143e-17 
   6029.021    2.55e-17  1.136e-17 
   6030.547   4.448e-17   1.15e-17 
   6032.072   4.055e-17  1.156e-17 
   6033.597   4.452e-17  1.143e-17 
   6035.122   4.167e-17  1.143e-17 
   6036.647    4.41e-17  1.131e-17 
   6038.172   5.181e-17   1.15e-17 
   6039.697   3.701e-17  1.106e-17 
   6041.223   4.366e-17  1.116e-17 
   6042.748   4.465e-17  1.108e-17 
   6044.273   4.486e-17   1.11e-17 
   6045.799   3.717e-17  1.086e-17 
   6047.323   3.764e-17  1.103e-17 
   6048.849   3.871e-17  1.102e-17 
   6050.375   2.823e-17  1.095e-17 
     6051.9   4.774e-17  1.118e-17 
   6053.426   3.693e-17  1.087e-17 
    6054.95   4.409e-17  1.098e-17 
   6056.476   2.701e-17   1.09e-17 
   6058.002   3.246e-17  1.079e-17 
   6059.527   3.054e-17  1.087e-17 
   6061.053    4.16e-17  1.089e-17 
   6062.578   2.723e-17  1.088e-17 
   6064.104   3.546e-17  1.095e-17 
    6065.63   3.787e-17   1.09e-17 
   6067.155   4.473e-17    1.1e-17 
   6068.681   3.356e-17  1.084e-17 
   6070.206   3.894e-17  1.077e-17 
   6071.732   4.645e-17  1.088e-17 
   6073.258   4.353e-17  1.084e-17 
   6074.784   3.881e-17  1.074e-17 
    6076.31   2.969e-17  1.055e-17 
   6077.835   3.149e-17  1.065e-17 
   6079.361   4.265e-17  1.079e-17 
   6080.887   4.692e-17  1.088e-17 
   6082.413    3.29e-17  1.063e-17 
   6083.939   4.781e-17  1.076e-17 
   6085.465   2.786e-17  1.072e-17 
   6086.991   2.699e-17  1.058e-17 
   6088.516   3.661e-17   1.09e-17 
   6090.043   4.203e-17  1.109e-17 
   6091.569   3.018e-17  1.109e-17 
   6093.095   2.856e-17  1.103e-17 
   6094.621   3.329e-17  1.124e-17 
   6096.147   3.086e-17  1.143e-17 
   6097.673   2.995e-17  1.146e-17 
     6099.2   3.475e-17  1.173e-17 
   6100.725   4.677e-17  1.195e-17 
   6102.252   4.154e-17  1.231e-17 
   6103.778   1.853e-17  1.256e-17 
   6105.304   2.533e-17   1.32e-17 
    6106.83   2.724e-17  1.393e-17 
   6108.357   4.458e-17  1.463e-17 
   6109.883   3.192e-17  1.497e-17 
   6111.409   4.767e-17  1.504e-17 
   6112.936   4.465e-17  1.472e-17 
   6114.462   3.681e-17  1.429e-17 
   6115.988   3.011e-17  1.364e-17 
   6117.515   4.535e-17  1.312e-17 
   6119.041   5.085e-17  1.274e-17 
   6120.568   4.421e-17  1.225e-17 
   6122.094   4.379e-17  1.198e-17 
   6123.621   5.732e-17  1.201e-17 
   6125.148   3.813e-17  1.154e-17 
   6126.674   4.966e-17  1.169e-17 
   6128.201   3.238e-17  1.121e-17 
   6129.727   5.272e-17  1.144e-17 
   6131.254   4.357e-17  1.154e-17 
   6132.781   4.369e-17  1.162e-17 
   6134.307   2.494e-17  1.137e-17 
   6135.834   3.836e-17   1.15e-17 
    6137.36   3.848e-17  1.155e-17 
   6138.887     3.5e-17  1.159e-17 
   6140.413    4.03e-17  1.161e-17 
   6141.941   3.351e-17  1.147e-17 
   6143.468   3.589e-17  1.132e-17 
   6144.994   3.571e-17  1.131e-17 
   6146.521   4.093e-17  1.121e-17 
   6148.048   5.571e-17  1.159e-17 
   6149.575   3.911e-17  1.169e-17 
   6151.102   3.893e-17  1.189e-17 
   6152.629   3.674e-17  1.174e-17 
   6154.156   3.295e-17  1.186e-17 
   6155.682   4.878e-17  1.228e-17 
    6157.21   2.663e-17   1.21e-17 
   6158.737     3.1e-17  1.207e-17 
   6160.264   4.214e-17  1.181e-17 
   6161.791   3.439e-17  1.137e-17 
   6163.318   3.364e-17  1.098e-17 
   6164.845   3.721e-17  1.071e-17 
   6166.372   4.298e-17  1.078e-17 
     6167.9   3.757e-17  1.065e-17 
   6169.427   3.977e-17  1.049e-17 
   6170.954   3.509e-17  1.037e-17 
   6172.482   4.642e-17  1.041e-17 
   6174.008   4.196e-17  1.016e-17 
   6175.536   3.175e-17  9.856e-18 
   6177.064   4.764e-17   9.91e-18 
    6178.59   4.365e-17  9.924e-18 
   6180.118   4.236e-17  9.968e-18 
   6181.645   4.209e-17  9.694e-18 
   6183.173   4.433e-17   9.87e-18 
   6184.701   4.091e-17  9.872e-18 
   6186.228   3.474e-17  9.638e-18 
   6187.755   4.565e-17  9.889e-18 
   6189.282   3.482e-17  9.746e-18 
    6190.81   4.102e-17  9.879e-18 
   6192.338   4.161e-17  9.901e-18 
   6193.865   3.459e-17  9.667e-18 
   6195.393   4.254e-17  9.863e-18 
    6196.92   3.943e-17  9.933e-18 
   6198.448   3.444e-17   9.95e-18 
   6199.975   3.802e-17  1.003e-17 
   6201.503   4.595e-17  1.003e-17 
   6203.032    3.68e-17  9.979e-18 
   6204.559   4.777e-17  1.015e-17 
   6206.087   4.092e-17  1.012e-17 
   6207.614   3.644e-17  1.017e-17 
   6209.142   4.317e-17  1.023e-17 
   6210.671   5.154e-17  1.022e-17 
   6212.198   3.338e-17  9.804e-18 
   6213.726    4.33e-17  9.885e-18 
   6215.253   4.873e-17  1.007e-17 
   6216.782   3.815e-17  9.818e-18 
    6218.31   4.487e-17  9.853e-18 
   6219.837    5.61e-17  1.004e-17 
   6221.366   4.371e-17  9.925e-18 
   6222.893   4.896e-17  9.834e-18 
   6224.422   5.012e-17  9.653e-18 
    6225.95   4.529e-17  9.648e-18 
   6227.478   3.287e-17  9.803e-18 
   6229.006   3.571e-17  1.047e-17 
   6230.534   4.732e-17  1.124e-17 
   6232.062   5.117e-17    1.2e-17 
    6233.59   3.805e-17  1.222e-17 
   6235.118   3.775e-17    1.2e-17 
   6236.647   4.474e-17  1.195e-17 
   6238.175   4.892e-17   1.17e-17 
   6239.703   4.247e-17  1.129e-17 
   6241.231   5.031e-17   1.08e-17 
    6242.76   3.298e-17  1.026e-17 
   6244.288   5.666e-17  1.033e-17 
   6245.816   3.838e-17  9.915e-18 
   6247.345   3.534e-17  9.643e-18 
   6248.873   4.586e-17  9.831e-18 
   6250.402   4.448e-17  1.025e-17 
    6251.93   4.632e-17  1.084e-17 
   6253.458   4.252e-17  1.116e-17 
   6254.987   4.508e-17  1.157e-17 
   6256.515   4.352e-17  1.172e-17 
   6258.044   2.437e-17  1.104e-17 
   6259.572   5.825e-17  1.106e-17 
   6261.101   4.613e-17  1.088e-17 
    6262.63   4.557e-17   1.07e-17 
   6264.158   3.062e-17  1.026e-17 
   6265.687   6.099e-17  1.045e-17 
   6267.215   5.698e-17  1.021e-17 
   6268.744   5.004e-17  1.018e-17 
   6270.273   4.626e-17  9.924e-18 
   6271.801   4.146e-17   1.02e-17 
    6273.33   2.745e-17  9.978e-18 
   6274.859   4.851e-17  1.016e-17 
   6276.388   4.293e-17  9.877e-18 
   6277.917    5.83e-17  9.979e-18 
   6279.445   5.031e-17  9.889e-18 
   6280.975   4.801e-17  1.031e-17 
   6282.503   4.187e-17  1.036e-17 
   6284.032   4.469e-17   1.07e-17 
   6285.562   5.615e-17  1.104e-17 
    6287.09   5.304e-17  1.066e-17 
   6288.619   5.117e-17  9.945e-18 
   6290.148   5.288e-17  1.002e-17 
   6291.677   4.548e-17  1.036e-17 
   6293.205   3.979e-17  1.127e-17 
   6294.735   5.754e-17   1.26e-17 
   6296.264   6.064e-17  1.296e-17 
   6297.793   4.861e-17  1.329e-17 
   6299.322   4.504e-17  1.321e-17 
   6300.851   6.133e-17   1.29e-17 
   6302.381   6.122e-17  1.295e-17 
    6303.91   4.425e-17   1.24e-17 
   6305.439   4.213e-17  1.183e-17 
   6306.968    5.98e-17   1.13e-17 
   6308.497   5.334e-17  1.057e-17 
   6310.027   4.719e-17   1.01e-17 
   6311.556    3.14e-17  9.462e-18 
   6313.085   6.006e-17  9.577e-18 
   6314.615   5.138e-17  9.559e-18 
   6316.144   4.237e-17  9.642e-18 
   6317.673   5.729e-17   9.82e-18 
   6319.202   5.251e-17  9.885e-18 
   6320.732    4.13e-17  9.615e-18 
   6322.262   5.089e-17  9.747e-18 
   6323.791    6.02e-17  1.023e-17 
   6325.321   5.189e-17  1.044e-17 
    6326.85   4.367e-17  1.057e-17 
    6328.38   4.225e-17  1.043e-17 
    6329.91   4.464e-17  9.787e-18 
   6331.439   5.169e-17  9.615e-18 
   6332.969   4.843e-17  9.121e-18 
   6334.498   4.741e-17  9.026e-18 
   6336.028   5.572e-17  8.848e-18 
   6337.558   5.523e-17  8.896e-18 
   6339.087   4.911e-17  8.889e-18 
   6340.617   5.488e-17  9.007e-18 
   6342.146   5.076e-17  8.945e-18 
   6343.676   5.107e-17  9.148e-18 
   6345.205   5.334e-17  9.355e-18 
   6346.736   4.539e-17  9.248e-18 
   6348.266   4.787e-17  9.276e-18 
   6349.795   4.902e-17  9.569e-18 
   6351.325   4.338e-17  9.761e-18 
   6352.855   5.884e-17  9.987e-18 
   6354.385   4.505e-17  9.695e-18 
   6355.915   4.918e-17  9.693e-18 
   6357.445   5.572e-17  9.941e-18 
   6358.975   3.718e-17  9.786e-18 
   6360.504    3.75e-17    9.7e-18 
   6362.035   5.421e-17  9.878e-18 
   6363.565   5.581e-17  9.596e-18 
   6365.095   3.814e-17  8.908e-18 
   6366.625   5.662e-17  8.774e-18 
   6368.155   5.247e-17  8.605e-18 
   6369.685   4.997e-17  8.656e-18 
   6371.216   4.008e-17   8.47e-18 
   6372.745    5.26e-17  8.746e-18 
   6374.276   5.359e-17  9.064e-18 
   6375.805   4.678e-17  8.996e-18 
   6377.336   4.554e-17  9.029e-18 
   6378.866   7.436e-17  9.446e-18 
   6380.396   4.286e-17  9.178e-18 
   6381.927    4.44e-17  9.233e-18 
   6383.457   4.418e-17  9.219e-18 
   6384.988   5.455e-17  9.153e-18 
   6386.517   5.526e-17  9.001e-18 
   6388.048   4.681e-17  8.728e-18 
   6389.579   6.034e-17  8.574e-18 
   6391.109   5.781e-17  8.609e-18 
    6392.64   5.223e-17  8.525e-18 
   6394.169   5.573e-17  8.561e-18 
     6395.7   5.765e-17  8.694e-18 
   6397.231   6.051e-17  9.031e-18 
   6398.761   5.447e-17  9.003e-18 
   6400.292   3.658e-17  8.583e-18 
   6401.822   5.272e-17  8.624e-18 
   6403.353   5.417e-17  8.693e-18 
   6404.883   4.563e-17  8.497e-18 
   6406.414   4.828e-17  8.544e-18 
   6407.945   5.656e-17  8.732e-18 
   6409.475   5.675e-17  8.921e-18 
   6411.006   4.983e-17  8.814e-18 
   6412.536   5.082e-17  8.735e-18 
   6414.068   5.351e-17  8.859e-18 
   6415.599   7.105e-17  9.093e-18 
   6417.129   3.859e-17  8.597e-18 
    6418.66    4.44e-17  8.495e-18 
    6420.19   4.818e-17   8.61e-18 
   6421.722   5.745e-17  8.645e-18 
   6423.253   3.607e-17  8.195e-18 
   6424.783   4.892e-17  8.268e-18 
   6426.314   5.197e-17  8.344e-18 
   6427.845   5.344e-17  8.452e-18 
   6429.376   4.996e-17  8.281e-18 
   6430.906   4.692e-17  8.193e-18 
   6432.438   5.835e-17  8.508e-18 
   6433.969   5.594e-17  8.395e-18 
     6435.5   4.595e-17  8.189e-18 
   6437.031    5.26e-17  8.223e-18 
   6438.562   5.852e-17  8.445e-18 
   6440.093   5.658e-17  8.467e-18 
   6441.625   4.212e-17  8.149e-18 
   6443.155   5.457e-17  8.383e-18 
   6444.687   4.767e-17  8.551e-18 
   6446.217   5.342e-17  8.542e-18 
   6447.749   3.399e-17  8.168e-18 
    6449.28   6.007e-17  8.733e-18 
   6450.811   5.949e-17   8.74e-18 
   6452.343   4.655e-17  8.445e-18 
   6453.873   4.166e-17  8.441e-18 
   6455.405   5.127e-17  8.734e-18 
   6456.936   4.914e-17  8.925e-18 
   6458.468   4.553e-17  8.986e-18 
   6459.999   4.637e-17  9.671e-18 
    6461.53   5.012e-17  1.021e-17 
   6463.062   4.671e-17  1.023e-17 
   6464.593   4.244e-17  1.018e-17 
   6466.125   4.931e-17  9.935e-18 
   6467.656   5.341e-17  9.813e-18 
   6469.187   4.557e-17  9.574e-18 
   6470.719   4.668e-17  9.132e-18 
    6472.25   4.642e-17  8.746e-18 
   6473.782   6.238e-17  8.811e-18 
   6475.314   5.268e-17  8.435e-18 
   6476.845   4.915e-17  8.441e-18 
   6478.377   5.636e-17   8.39e-18 
   6479.908   5.426e-17  8.265e-18 
    6481.44   3.811e-17  7.896e-18 
   6482.971   5.529e-17  8.067e-18 
   6484.503   4.807e-17  8.098e-18 
   6486.035    6.28e-17  8.478e-18 
   6487.567   5.995e-17  8.569e-18 
   6489.099   4.757e-17  8.428e-18 
    6490.63   3.878e-17  8.621e-18 
   6492.162   5.609e-17  9.453e-18 
   6493.694   5.279e-17  9.924e-18 
   6495.225   5.396e-17  1.038e-17 
   6496.758   5.733e-17  1.048e-17 
   6498.289   6.291e-17  1.017e-17 
   6499.821   6.129e-17  9.881e-18 
   6501.354   5.703e-17  9.473e-18 
   6502.885   5.423e-17  9.225e-18 
   6504.417   5.082e-17  8.921e-18 
   6505.949   4.272e-17  8.652e-18 
   6507.481   4.489e-17  8.295e-18 
   6509.012   6.117e-17  8.569e-18 
   6510.545   6.368e-17  8.481e-18 
   6512.077   4.231e-17  8.068e-18 
   6513.609   4.509e-17  7.998e-18 
   6515.141   5.382e-17  8.114e-18 
   6516.673     4.6e-17  8.227e-18 
   6518.205    3.81e-17  8.167e-18 
   6519.738   5.337e-17  8.453e-18 
    6521.27   4.688e-17  8.506e-18 
   6522.802   3.976e-17  8.401e-18 
   6524.334   4.235e-17  8.105e-18 
   6525.866    6.13e-17  8.863e-18 
   6527.399   5.043e-17  9.276e-18 
   6528.931    4.47e-17   9.51e-18 
   6530.463   4.541e-17  9.642e-18 
   6531.995   4.417e-17  9.338e-18 
   6533.528   5.337e-17  8.895e-18 
    6535.06   4.487e-17  8.311e-18 
   6536.592   4.581e-17  8.143e-18 
   6538.125   5.409e-17  8.438e-18 
   6539.657    5.96e-17  8.746e-18 
    6541.19   5.006e-17   8.76e-18 
   6542.722   3.922e-17  8.359e-18 
   6544.255   5.556e-17  8.294e-18 
   6545.787   5.905e-17  8.502e-18 
   6547.319   5.255e-17  8.992e-18 
   6548.852   5.282e-17  9.326e-18 
   6550.384   6.255e-17  9.705e-18 
   6551.917   4.997e-17  9.617e-18 
    6553.45   4.445e-17   8.94e-18 
   6554.982    4.69e-17  8.235e-18 
   6556.515   5.504e-17  8.158e-18 
   6558.047   4.976e-17  7.973e-18 
    6559.58   4.054e-17  7.784e-18 
   6561.113   5.129e-17  7.929e-18 
   6562.646   5.695e-17  8.169e-18 
   6564.179   4.498e-17  8.077e-18 
   6565.711   4.829e-17  8.157e-18 
   6567.244   5.137e-17  8.093e-18 
   6568.776   5.093e-17  8.067e-18 
   6570.309   3.386e-17  8.066e-18 
   6571.843   4.475e-17  8.618e-18 
   6573.375   5.166e-17  8.931e-18 
   6574.908   5.622e-17  9.211e-18 
   6576.441   4.393e-17  8.686e-18 
   6577.974   4.137e-17   8.03e-18 
   6579.507   5.635e-17    7.8e-18 
    6581.04   5.202e-17  7.649e-18 
   6582.573   4.389e-17  7.243e-18 
   6584.105   5.011e-17  7.316e-18 
   6585.639   5.388e-17  7.405e-18 
   6587.171   5.393e-17  7.496e-18 
   6588.705   4.126e-17  7.254e-18 
   6590.238   4.594e-17  7.441e-18 
   6591.771   4.867e-17  7.769e-18 
   6593.304   5.135e-17   7.85e-18 
   6594.837   5.357e-17   7.82e-18 
    6596.37   4.737e-17  7.687e-18 
   6597.904    6.12e-17  8.162e-18 
   6599.436   4.528e-17  8.134e-18 
    6600.97    5.09e-17  8.303e-18 
   6602.502   4.535e-17  8.146e-18 
   6604.036   6.079e-17  8.078e-18 
    6605.57    4.57e-17  7.452e-18 
   6607.102   3.716e-17  7.105e-18 
   6608.636   5.252e-17  7.175e-18 
   6610.169    5.32e-17  7.185e-18 
   6611.703   5.213e-17  7.132e-18 
   6613.235   5.292e-17   7.09e-18 
   6614.769   4.386e-17  6.993e-18 
   6616.303   5.465e-17  7.269e-18 
   6617.836   5.789e-17  7.389e-18 
    6619.37   5.979e-17  7.506e-18 
   6620.902    5.21e-17  7.542e-18 
   6622.436    5.25e-17  7.641e-18 
    6623.97   4.496e-17  7.639e-18 
   6625.503   4.197e-17  7.585e-18 
   6627.037   4.428e-17   7.55e-18 
    6628.57   6.303e-17  7.842e-18 
   6630.104   4.084e-17  7.679e-18 
   6631.638   4.067e-17  7.674e-18 
   6633.171   4.872e-17   7.68e-18 
   6634.705   5.531e-17  7.598e-18 
   6636.238   4.288e-17  7.231e-18 
   6637.772   4.489e-17  7.104e-18 
   6639.305   6.582e-17  7.302e-18 
   6640.839   4.479e-17  7.106e-18 
   6642.374   4.742e-17  7.055e-18 
   6643.907   3.816e-17   6.88e-18 
   6645.441   4.981e-17  7.083e-18 
   6646.974   5.189e-17  7.202e-18 
   6648.508   4.082e-17  7.033e-18 
   6650.042   5.158e-17  7.076e-18 
   6651.576   5.151e-17  7.159e-18 
    6653.11   5.093e-17  7.143e-18 
   6654.643   3.776e-17  7.003e-18 
   6656.178   4.315e-17  7.033e-18 
   6657.712   5.884e-17  7.423e-18 
   6659.245   3.998e-17  7.286e-18 
    6660.78   4.004e-17  7.243e-18 
   6662.313   5.123e-17  7.361e-18 
   6663.847   5.418e-17  7.541e-18 
   6665.381   4.771e-17  7.521e-18 
   6666.915   3.749e-17  7.226e-18 
    6668.45   5.307e-17   7.24e-18 
   6669.983   6.143e-17  7.462e-18 
   6671.518   4.193e-17  7.125e-18 
   6673.051   3.881e-17  6.993e-18 
   6674.586   4.756e-17  7.228e-18 
    6676.12   5.315e-17  7.331e-18 
   6677.654   4.642e-17  7.212e-18 
   6679.188   3.918e-17  6.954e-18 
   6680.722   4.671e-17   7.25e-18 
   6682.256   5.019e-17  7.421e-18 
    6683.79   3.788e-17  7.252e-18 
   6685.325   4.129e-17  7.187e-18 
   6686.859   5.657e-17  7.513e-18 
   6688.393   4.433e-17  7.326e-18 
   6689.928   4.393e-17  7.222e-18 
   6691.462   5.122e-17  7.213e-18 
   6692.996   5.453e-17  7.265e-18 
   6694.531    4.66e-17  7.372e-18 
   6696.065   4.362e-17  7.328e-18 
     6697.6   3.517e-17  7.148e-18 
   6699.134   5.232e-17  7.564e-18 
   6700.668   4.009e-17  7.487e-18 
   6702.203   3.864e-17  7.625e-18 
   6703.737   5.044e-17  7.891e-18 
   6705.272   4.717e-17  7.952e-18 
   6706.806   3.746e-17  7.788e-18 
   6708.341   3.635e-17  7.312e-18 
   6709.875   3.954e-17  7.414e-18 
    6711.41   4.997e-17  7.425e-18 
   6712.945   3.491e-17  7.274e-18 
   6714.479   5.289e-17   7.36e-18 
   6716.014   4.511e-17  7.286e-18 
   6717.548   4.375e-17  7.151e-18 
   6719.083   4.692e-17  7.235e-18 
   6720.618   4.129e-17  7.055e-18 
   6722.152   4.501e-17  7.188e-18 
   6723.687   5.253e-17  7.361e-18 
   6725.221   4.015e-17  7.146e-18 
   6726.757    4.68e-17  7.279e-18 
   6728.292   5.208e-17  7.334e-18 
   6729.826   4.439e-17  7.155e-18 
   6731.361    4.61e-17  7.104e-18 
   6732.895   4.811e-17  7.254e-18 
   6734.431   4.691e-17  7.161e-18 
   6735.965   5.001e-17  7.372e-18 
     6737.5   4.447e-17  7.181e-18 
   6739.036   4.604e-17  7.239e-18 
    6740.57   4.755e-17  7.279e-18 
   6742.105   3.744e-17  7.102e-18 
    6743.64    4.17e-17  7.126e-18 
   6745.175   4.854e-17  7.162e-18 
    6746.71   4.348e-17   7.02e-18 
   6748.245   4.907e-17  7.041e-18 
    6749.78   4.207e-17  6.977e-18 
   6751.315   5.069e-17  7.019e-18 
    6752.85   5.173e-17  7.067e-18 
   6754.385   3.136e-17  6.762e-18 
    6755.92   4.664e-17  6.965e-18 
   6757.456    4.47e-17  6.911e-18 
    6758.99   5.027e-17  7.037e-18 
   6760.526   4.503e-17  6.895e-18 
    6762.06   3.407e-17  6.692e-18 
   6763.596   5.403e-17   7.02e-18 
   6765.132   3.455e-17  6.765e-18 
   6766.666   4.657e-17  6.953e-18 
   6768.202   4.405e-17  6.979e-18 
   6769.737   4.626e-17  7.118e-18 
   6771.272   4.759e-17  7.158e-18 
   6772.808   4.847e-17  7.038e-18 
   6774.343   4.138e-17  6.864e-18 
   6775.878   4.584e-17  6.946e-18 
   6777.413   4.834e-17   7.01e-18 
   6778.949    3.66e-17  6.715e-18 
   6780.484   4.736e-17   6.91e-18 
    6782.02   4.742e-17  6.912e-18 
   6783.555   3.859e-17  6.794e-18 
    6785.09   3.734e-17  6.826e-18 
   6786.626   4.218e-17  6.834e-18 
   6788.161   4.749e-17  6.798e-18 
   6789.697   4.418e-17  6.761e-18 
   6791.233    4.06e-17  6.647e-18 
   6792.768   4.189e-17  6.613e-18 
   6794.304   5.204e-17  6.881e-18 
   6795.839   4.102e-17   6.66e-18 
   6797.375   3.623e-17  6.541e-18 
   6798.911   4.508e-17  6.613e-18 
   6800.446   4.705e-17  6.754e-18 
   6801.982   2.738e-17  6.348e-18 
   6803.517   3.366e-17  6.404e-18 
   6805.053   4.977e-17  6.768e-18 
   6806.588   4.705e-17   6.73e-18 
   6808.124    3.39e-17  6.466e-18 
    6809.66   4.434e-17  6.634e-18 
   6811.195   3.342e-17  6.613e-18 
   6812.732   4.002e-17  6.663e-18 
   6814.267   2.962e-17  6.508e-18 
   6815.803   4.388e-17  6.655e-18 
   6817.339   4.358e-17  6.751e-18 
   6818.875   3.934e-17  6.852e-18 
   6820.411   3.252e-17  7.051e-18 
   6821.946   4.352e-17  8.355e-18 
   6823.482    3.02e-17  9.723e-18 
   6825.018   4.475e-17   1.09e-17 
   6826.554   2.833e-17  1.127e-17 
    6828.09   4.534e-17  1.168e-17 
   6829.626   3.979e-17  1.116e-17 
   6831.162     2.8e-17  1.043e-17 
   6832.698   2.277e-17  9.737e-18 
   6834.234   3.549e-17  8.778e-18 
    6835.77   3.623e-17  8.088e-18 
   6837.306   3.428e-17  7.703e-18 
   6838.842   4.577e-17  7.661e-18 
   6840.378   4.351e-17  7.511e-18 
   6841.914   4.166e-17  7.264e-18 
   6843.451   3.448e-17  6.678e-18 
   6844.986   3.294e-17  6.417e-18 
   6846.523   4.042e-17  6.631e-18 
   6848.059   3.951e-17  6.669e-18 
   6849.595   3.171e-17  6.423e-18 
   6851.131   4.831e-17  6.637e-18 
   6852.667   4.581e-17   6.67e-18 
   6854.204   3.201e-17  6.491e-18 
    6855.74   2.953e-17  7.096e-18 
   6857.276   4.946e-17  9.235e-18 
   6858.812   3.862e-17  1.099e-17 
   6860.349   4.694e-17  1.248e-17 
   6861.886   3.871e-17  1.338e-17 
   6863.421   3.195e-17  1.339e-17 
   6864.958   5.251e-17  1.236e-17 
   6866.494   4.562e-17  1.091e-17 
   6868.031   3.181e-17  9.605e-18 
   6869.568   4.598e-17  9.309e-18 
   6871.103    3.49e-17  8.494e-18 
    6872.64    2.98e-17  7.747e-18 
   6874.176   3.429e-17  7.543e-18 
   6875.713   4.939e-17  7.982e-18 
   6877.249   4.639e-17  8.107e-18 
   6878.786    3.62e-17   7.96e-18 
   6880.323   3.499e-17  8.026e-18 
   6881.859   4.791e-17  8.154e-18 
   6883.396   4.458e-17  8.859e-18 
   6884.932   3.585e-17  9.149e-18 
   6886.469   3.573e-17  9.174e-18 
   6888.006   3.557e-17  9.039e-18 
   6889.542   4.214e-17  8.548e-18 
   6891.079   2.642e-17  7.601e-18 
   6892.615   3.391e-17   7.41e-18 
   6894.152   3.575e-17  7.816e-18 
   6895.688    3.82e-17  8.227e-18 
   6897.225   4.231e-17  8.201e-18 
   6898.762   2.647e-17   8.03e-18 
   6900.299   3.404e-17  7.748e-18 
   6901.836   3.621e-17  7.156e-18 
   6903.372   3.825e-17  6.955e-18 
   6904.909   3.249e-17  7.085e-18 
   6906.446   4.085e-17  8.131e-18 
   6907.983   3.512e-17  8.805e-18 
    6909.52   3.452e-17  8.994e-18 
   6911.056   3.446e-17  8.811e-18 
   6912.594   4.333e-17  8.203e-18 
   6914.131   2.674e-17  7.143e-18 
   6915.667   2.155e-17  7.326e-18 
   6917.205    2.68e-17  8.784e-18 
   6918.741   4.541e-17  9.825e-18 
   6920.278   3.895e-17  1.015e-17 
   6921.815   3.584e-17  9.835e-18 
   6923.352   2.962e-17  8.486e-18 
    6924.89     3.8e-17  7.373e-18 
   6926.426   2.778e-17  6.751e-18 
   6927.963   2.368e-17   6.52e-18 
     6929.5   3.489e-17  6.708e-18 
   6931.037   3.007e-17  6.803e-18 
   6932.575    3.09e-17  7.638e-18 
   6934.112   3.277e-17  8.395e-18 
   6935.649   4.033e-17  8.996e-18 
   6937.186   3.923e-17  9.001e-18 
   6938.723   1.902e-17  8.206e-18 
    6940.26   2.286e-17  7.441e-18 
   6941.797   2.874e-17  7.828e-18 
   6943.335   4.665e-17  9.676e-18 
   6944.872   3.437e-17   1.05e-17 
   6946.409   4.007e-17  1.076e-17 
   6947.946   4.909e-17  1.032e-17 
   6949.484   3.394e-17  8.681e-18 
   6951.022   2.279e-17  7.086e-18 
   6952.558   2.997e-17  6.689e-18 
   6954.096   3.127e-17  6.742e-18 
   6955.633   3.477e-17  6.633e-18 
   6957.171    3.52e-17  6.531e-18 
   6958.708   3.852e-17  6.675e-18 
   6960.245   3.865e-17  6.811e-18 
   6961.783   2.649e-17  6.763e-18 
    6963.32   2.574e-17  7.205e-18 
   6964.858   3.207e-17  7.802e-18 
   6966.395   4.335e-17  8.319e-18 
   6967.933   2.368e-17  8.016e-18 
   6969.471   2.967e-17  7.468e-18 
   6971.007   3.404e-17  7.545e-18 
   6972.545   2.606e-17  8.445e-18 
   6974.082   4.138e-17  9.224e-18 
    6975.62   1.837e-17  9.315e-18 
   6977.158   3.934e-17  9.245e-18 
   6978.695   2.601e-17  8.037e-18 
   6980.233   2.773e-17  7.053e-18 
   6981.771   3.578e-17  6.749e-18 
   6983.309   4.024e-17  6.862e-18 
   6984.846   3.261e-17  6.779e-18 
   6986.384     3.1e-17  6.709e-18 
   6987.922   3.304e-17   6.62e-18 
   6989.459   2.792e-17  6.441e-18 
   6990.997   2.294e-17  6.508e-18 
   6992.534   2.665e-17  6.467e-18 
   6994.073   3.668e-17  6.688e-18 
   6995.611   3.004e-17   6.59e-18 
   6997.148   2.837e-17  6.946e-18 
   6998.686   2.995e-17  7.346e-18 
   7000.223   3.295e-17  7.308e-18 
   7001.762   3.786e-17  7.483e-18 
   7003.299   3.108e-17  7.247e-18 
   7004.837   2.533e-17   7.33e-18 
   7006.376   4.978e-17  7.998e-18 
   7007.913    3.67e-17  8.153e-18 
   7009.451   3.588e-17  8.193e-18 
   7010.989   3.455e-17  7.616e-18 
   7012.527   2.934e-17   6.73e-18 
   7014.065   3.501e-17  6.523e-18 
   7015.603   3.341e-17  6.369e-18 
   7017.141   2.437e-17  6.095e-18 
   7018.679   3.933e-17   6.38e-18 
   7020.217   2.418e-17  6.242e-18 
   7021.756   3.463e-17  6.432e-18 
   7023.293   2.194e-17  6.177e-18 
   7024.832   3.059e-17  6.427e-18 
   7026.369   3.375e-17  6.694e-18 
   7027.908   2.967e-17   6.63e-18 
   7029.445   3.884e-17  6.753e-18 
   7030.984   4.574e-17  6.808e-18 
   7032.522   3.403e-17  6.638e-18 
    7034.06   3.277e-17  6.521e-18 
   7035.599   2.608e-17  6.585e-18 
   7037.136   3.335e-17  6.891e-18 
   7038.675    3.54e-17  6.984e-18 
   7040.214   2.484e-17  6.978e-18 
   7041.751   2.396e-17  7.281e-18 
    7043.29   4.115e-17  7.828e-18 
   7044.828   2.856e-17   7.84e-18 
   7046.366   2.644e-17   7.69e-18 
   7047.904   3.284e-17   7.33e-18 
   7049.443   3.887e-17  7.096e-18 
   7050.982    2.38e-17  6.715e-18 
    7052.52   2.526e-17  6.528e-18 
   7054.058   3.351e-17  6.483e-18 
   7055.596   3.907e-17  6.628e-18 
   7057.135    3.14e-17   6.62e-18 
   7058.674    2.82e-17  6.493e-18 
   7060.212   2.675e-17  6.682e-18 
   7061.751   3.226e-17  6.831e-18 
   7063.289   4.022e-17  7.013e-18 
   7064.827   3.103e-17   6.88e-18 
   7066.366   3.378e-17  6.912e-18 
   7067.904    4.15e-17  7.025e-18 
   7069.443   2.514e-17  6.588e-18 
   7070.981   2.959e-17  6.565e-18 
    7072.52   2.605e-17  6.677e-18 
   7074.058    3.01e-17  6.672e-18 
   7075.597   2.483e-17  6.714e-18 
   7077.136   2.611e-17   6.66e-18 
   7078.674   2.923e-17  6.865e-18 
   7080.214   3.459e-17  7.007e-18 
   7081.752   1.971e-17  6.786e-18 
   7083.291   2.997e-17  6.936e-18 
    7084.83   3.607e-17  7.062e-18 
   7086.368   3.112e-17  7.094e-18 
   7087.907   1.752e-17  6.765e-18 
   7089.445   3.554e-17  6.815e-18 
   7090.984   3.789e-17  6.628e-18 
   7092.523     3.3e-17   6.38e-18 
   7094.062   2.387e-17  6.177e-18 
   7095.601   3.609e-17  6.243e-18 
   7097.139   3.798e-17  6.321e-18 
   7098.679   3.424e-17  6.182e-18 
   7100.217   2.468e-17  5.843e-18 
   7101.756   3.486e-17  6.009e-18 
   7103.296   2.884e-17  6.081e-18 
   7104.834   2.215e-17      6e-18 
   7106.373   3.409e-17  6.147e-18 
   7107.912   3.613e-17  6.124e-18 
   7109.451   3.454e-17  6.268e-18 
   7110.989    2.19e-17  5.975e-18 
   7112.529   2.872e-17  6.079e-18 
   7114.068   3.472e-17  6.219e-18 
   7115.607   3.915e-17  6.434e-18 
   7117.146   2.641e-17  6.256e-18 
   7118.684   2.584e-17    6.2e-18 
   7120.224   2.918e-17  6.307e-18 
   7121.763   2.556e-17  6.392e-18 
   7123.302   2.977e-17  6.513e-18 
   7124.842   3.693e-17  6.566e-18 
    7126.38   4.087e-17  6.623e-18 
    7127.92   3.561e-17  6.608e-18 
   7129.459   2.866e-17  6.306e-18 
   7130.998   3.057e-17  6.363e-18 
   7132.537   3.079e-17  6.217e-18 
   7134.076   3.042e-17  6.038e-18 
   7135.616   3.237e-17  6.142e-18 
   7137.154   3.301e-17  6.387e-18 
   7138.694   3.554e-17  6.739e-18 
   7140.234   2.772e-17  6.658e-18 
   7141.772   2.655e-17  6.794e-18 
   7143.312   3.237e-17  6.727e-18 
   7144.851   4.127e-17  6.786e-18 
    7146.39   2.727e-17  6.352e-18 
    7147.93   3.212e-17  6.246e-18 
   7149.469   3.249e-17  6.119e-18 
   7151.009    3.83e-17  6.309e-18 
   7152.548   2.911e-17  6.183e-18 
   7154.087   2.799e-17   6.23e-18 
   7155.626   3.259e-17  6.411e-18 
   7157.166    3.76e-17  6.379e-18 
   7158.706   3.972e-17  6.498e-18 
   7160.245   3.248e-17  6.301e-18 
   7161.785   2.982e-17  6.437e-18 
   7163.324   2.993e-17  6.328e-18 
   7164.863   2.889e-17  6.358e-18 
   7166.403   2.794e-17  6.427e-18 
   7167.942   3.528e-17  6.539e-18 
   7169.482    2.97e-17  6.674e-18 
   7171.021   3.184e-17  6.615e-18 
   7172.561   2.771e-17  6.567e-18 
     7174.1   3.986e-17  6.792e-18 
    7175.64   3.364e-17  6.703e-18 
    7177.18   3.215e-17  6.727e-18 
   7178.719   3.074e-17  6.585e-18 
   7180.259   3.869e-17  6.752e-18 
   7181.799   3.167e-17  6.577e-18 
   7183.339   2.771e-17  6.308e-18 
   7184.879   3.281e-17  6.303e-18 
   7186.418   3.734e-17  6.443e-18 
   7187.958   4.392e-17  6.476e-18 
   7189.497   3.155e-17   6.36e-18 
   7191.037   3.317e-17  6.213e-18 
   7192.577   3.926e-17  6.421e-18 
   7194.117   3.029e-17  6.375e-18 
   7195.657    2.91e-17  6.275e-18 
   7197.196   3.665e-17  6.509e-18 
   7198.736   3.819e-17  6.547e-18 
   7200.276   2.684e-17  6.227e-18 
   7201.816   2.559e-17  6.252e-18 
   7203.356   2.924e-17  6.347e-18 
   7204.896   3.836e-17  6.399e-18 
   7206.436   2.919e-17   6.48e-18 
   7207.975   3.279e-17  6.438e-18 
   7209.515   3.949e-17  6.424e-18 
   7211.056   3.476e-17   6.14e-18 
   7212.595   2.822e-17  6.294e-18 
   7214.136   3.729e-17  6.292e-18 
   7215.675   3.536e-17   6.43e-18 
   7217.215   3.188e-17  6.679e-18 
   7218.755   2.158e-17  6.508e-18 
   7220.295   3.583e-17  6.625e-18 
   7221.836   4.042e-17  6.744e-18 
   7223.375   3.686e-17  6.704e-18 
   7224.916    2.44e-17  6.398e-18 
   7226.455   2.725e-17  6.488e-18 
   7227.996   3.785e-17  7.031e-18 
   7229.536   3.435e-17  6.912e-18 
   7231.076   2.304e-17  7.085e-18 
   7232.616   2.469e-17  9.352e-18 
   7234.156    2.03e-17  1.249e-17 
   7235.697   3.246e-17  1.491e-17 
   7237.236    3.57e-17  1.634e-17 
   7238.777   4.056e-17  1.768e-17 
   7240.317   4.738e-17  1.693e-17 
   7241.857   3.578e-17  1.522e-17 
   7243.398    3.66e-17  1.397e-17 
   7244.937    2.31e-17  1.161e-17 
   7246.478   3.625e-17  9.607e-18 
   7248.019   3.091e-17  9.075e-18 
   7249.559   2.805e-17  9.334e-18 
   7251.099   3.267e-17  9.368e-18 
   7252.639   4.289e-17  8.866e-18 
    7254.18   2.774e-17  7.652e-18 
    7255.72   1.866e-17  6.892e-18 
    7257.26   3.466e-17  6.933e-18 
   7258.801   2.812e-17  6.836e-18 
   7260.341     2.4e-17  6.781e-18 
   7261.882   2.862e-17  6.943e-18 
   7263.422   2.882e-17  7.111e-18 
   7264.963   2.568e-17  7.221e-18 
   7266.503   2.781e-17  7.247e-18 
   7268.043    1.45e-17  7.888e-18 
   7269.584   1.614e-17  1.174e-17 
   7271.124   3.917e-17  1.567e-17 
   7272.665   2.291e-17  1.693e-17 
   7274.205   3.445e-17  1.662e-17 
   7275.746   4.317e-17  1.418e-17 
   7277.287   2.522e-17   1.05e-17 
   7278.827   2.853e-17  1.072e-17 
   7280.368   3.459e-17  1.133e-17 
   7281.908   1.994e-17  1.117e-17 
   7283.449   2.116e-17   1.05e-17 
    7284.99   2.214e-17  8.565e-18 
    7286.53     2.3e-17  7.297e-18 
   7288.071   2.962e-17   7.07e-18 
   7289.611   2.601e-17   7.59e-18 
   7291.152   2.997e-17  8.227e-18 
   7292.693    2.72e-17  8.173e-18 
   7294.234   3.182e-17  8.044e-18 
   7295.775   3.063e-17   7.53e-18 
   7297.315   2.333e-17  8.285e-18 
   7298.856    3.34e-17   9.39e-18 
   7300.396   2.751e-17  9.789e-18 
   7301.937   2.854e-17  9.421e-18 
   7303.479   3.081e-17  8.494e-18 
   7305.019   2.878e-17  7.462e-18 
    7306.56   3.301e-17  7.207e-18 
     7308.1   2.011e-17  7.446e-18 
   7309.642   3.068e-17  1.029e-17 
   7311.183   4.068e-17  1.312e-17 
   7312.723   4.702e-17  1.385e-17 
   7314.264   3.952e-17  1.356e-17 
   7315.805   2.064e-17  1.151e-17 
   7317.346   1.501e-17  7.941e-18 
   7318.886   1.781e-17  6.312e-18 
   7320.428   3.035e-17  6.343e-18 
   7321.969   2.119e-17  7.294e-18 
    7323.51   3.507e-17  9.541e-18 
   7325.051   2.098e-17  1.037e-17 
   7326.591   1.387e-17  1.054e-17 
   7328.133   3.196e-17  9.846e-18 
   7329.674       3e-17  8.111e-18 
   7331.215   2.135e-17  6.645e-18 
   7332.756   1.337e-17  6.692e-18 
   7334.297   2.218e-17  1.055e-17 
   7335.838   3.221e-17  1.382e-17 
   7337.379   2.125e-17  1.475e-17 
    7338.92   3.301e-17  1.465e-17 
   7340.462   2.133e-17   1.22e-17 
   7342.002    1.82e-17  8.211e-18 
   7343.544   1.905e-17  6.765e-18 
   7345.084   2.275e-17  6.521e-18 
   7346.626    3.67e-17  6.551e-18 
   7348.168   3.693e-17   6.57e-18 
   7349.708   2.098e-17  6.516e-18 
    7351.25     2.1e-17  6.902e-18 
   7352.791   2.654e-17  8.887e-18 
   7354.332    3.16e-17  1.033e-17 
   7355.873   1.902e-17  1.008e-17 
   7357.415   3.065e-17  9.514e-18 
   7358.956   2.297e-17  7.956e-18 
   7360.497   2.138e-17  6.785e-18 
   7362.039   1.642e-17  7.899e-18 
   7363.579    3.37e-17  1.159e-17 
   7365.121   2.989e-17  1.332e-17 
   7366.663   1.072e-17  1.333e-17 
   7368.204   2.523e-17  1.229e-17 
   7369.745   2.157e-17   9.16e-18 
   7371.286   2.709e-17  6.926e-18 
   7372.828   2.439e-17  6.239e-18 
   7374.369   2.203e-17  5.938e-18 
   7375.911   2.726e-17  6.057e-18 
   7377.453   2.634e-17  6.003e-18 
   7378.994   1.903e-17  5.795e-18 
   7380.535   2.842e-17  5.979e-18 
   7382.076    3.51e-17  6.189e-18 
   7383.618   3.194e-17  6.321e-18 
    7385.16   3.282e-17  7.072e-18 
   7386.701   3.798e-17  8.527e-18 
   7388.243   2.715e-17  9.198e-18 
   7389.784   2.958e-17  9.179e-18 
   7391.326    1.67e-17  8.196e-18 
   7392.868   2.159e-17  6.853e-18 
   7394.409   1.716e-17  7.008e-18 
   7395.951   2.645e-17  9.575e-18 
   7397.492   4.047e-17  1.119e-17 
   7399.034   2.313e-17  1.104e-17 
   7400.575   3.109e-17  1.078e-17 
   7402.117   1.694e-17  8.065e-18 
   7403.659   1.724e-17  6.077e-18 
     7405.2   2.888e-17  5.723e-18 
   7406.742   2.825e-17  5.903e-18 
   7408.284   2.969e-17  6.092e-18 
   7409.826   3.094e-17  5.998e-18 
   7411.368   3.467e-17  6.208e-18 
   7412.909   2.654e-17  5.919e-18 
   7414.451   2.702e-17  5.934e-18 
   7415.992   2.252e-17  5.718e-18 
   7417.535   2.958e-17  5.844e-18 
   7419.076   2.764e-17  5.709e-18 
   7420.618   2.935e-17  5.686e-18 
    7422.16   2.814e-17  5.958e-18 
   7423.701   3.386e-17  7.075e-18 
   7425.244   3.144e-17  7.592e-18 
   7426.785   3.339e-17  7.835e-18 
   7428.327   2.018e-17    7.5e-18 
    7429.87   3.088e-17  6.801e-18 
   7431.411   1.845e-17  6.936e-18 
   7432.953   2.905e-17  8.568e-18 
   7434.495   2.818e-17  9.251e-18 
   7436.037   2.396e-17  9.223e-18 
   7437.578   2.502e-17  8.533e-18 
   7439.121   2.387e-17  6.863e-18 
   7440.663   2.754e-17  5.908e-18 
   7442.204   3.206e-17  5.739e-18 
   7443.747   3.345e-17  5.806e-18 
   7445.288   3.339e-17  5.654e-18 
   7446.831   2.767e-17  5.645e-18 
   7448.373   2.331e-17  5.595e-18 
   7449.915   2.756e-17  5.636e-18 
   7451.457   2.827e-17  5.723e-18 
   7452.999   2.892e-17   5.67e-18 
   7454.541   2.917e-17  5.869e-18 
   7456.083   3.308e-17    6.3e-18 
   7457.625   2.845e-17  6.509e-18 
   7459.168   3.024e-17  6.875e-18 
   7460.709    2.48e-17  7.274e-18 
   7462.252   3.095e-17  7.444e-18 
   7463.793   1.652e-17  7.325e-18 
   7465.336   2.977e-17  7.968e-18 
   7466.879   3.436e-17  8.405e-18 
    7468.42   1.804e-17  8.862e-18 
   7469.963   2.609e-17  8.937e-18 
   7471.504   2.088e-17  8.303e-18 
   7473.047   2.489e-17  8.458e-18 
   7474.589   2.375e-17  8.607e-18 
   7476.131    1.87e-17   8.88e-18 
   7477.674   2.588e-17  9.602e-18 
   7479.216   4.172e-17  9.558e-18 
   7480.759   2.129e-17  8.425e-18 
     7482.3   2.371e-17  7.906e-18 
   7483.843   3.356e-17  7.001e-18 
   7485.386   2.455e-17  6.229e-18 
   7486.928   2.012e-17  6.202e-18 
    7488.47   2.415e-17  6.547e-18 
   7490.012   2.978e-17  6.671e-18 
   7491.555   2.767e-17  6.648e-18 
   7493.097   2.359e-17  6.334e-18 
    7494.64   2.496e-17  5.954e-18 
   7496.182   4.009e-17  6.073e-18 
   7497.724   2.265e-17  5.823e-18 
   7499.267   2.415e-17  5.922e-18 
   7500.809   2.831e-17  5.876e-18 
   7502.352   2.989e-17  5.926e-18 
   7503.895   2.378e-17  5.739e-18 
   7505.437   1.933e-17  5.623e-18 
    7506.98   2.631e-17  5.841e-18 
   7508.522   3.587e-17  6.008e-18 
   7510.064   2.964e-17  6.213e-18 
   7511.606   3.168e-17  6.634e-18 
   7513.149   3.327e-17  6.911e-18 
   7514.692   2.438e-17  6.559e-18 
   7516.234    1.15e-17  6.958e-18 
   7517.777   1.771e-17  9.237e-18 
   7519.319     5.4e-17  1.294e-17 
   7520.862   2.417e-17  1.144e-17 
   7522.406    2.73e-17  1.104e-17 
   7523.948    1.56e-17  9.438e-18 
   7525.491    1.87e-17  8.332e-18 
   7527.033   2.558e-17  8.196e-18 
   7528.576   2.757e-17  8.059e-18 
   7530.118   1.581e-17   7.32e-18 
   7531.661    2.42e-17  6.659e-18 
   7533.204   1.017e-17  6.193e-18 
   7534.746    2.57e-17  6.717e-18 
   7536.289   2.375e-17  6.858e-18 
   7537.832    3.23e-17  6.967e-18 
   7539.375   2.468e-17  6.802e-18 
   7540.918   2.496e-17   6.41e-18 
    7542.46   3.925e-17    6.5e-18 
   7544.003   2.491e-17  6.275e-18 
   7545.546    2.59e-17  6.232e-18 
   7547.089   2.052e-17  6.188e-18 
   7548.631    3.16e-17  6.494e-18 
   7550.174   2.802e-17   6.69e-18 
   7551.718    2.45e-17  7.396e-18 
    7553.26   1.905e-17  7.739e-18 
   7554.803   3.535e-17  7.973e-18 
   7556.346   3.801e-17  7.992e-18 
   7557.889   2.138e-17  7.348e-18 
   7559.432   2.676e-17  6.726e-18 
   7560.975   1.995e-17  6.772e-18 
   7562.518   2.003e-17  7.166e-18 
    7564.06   3.069e-17  7.792e-18 
   7565.604   2.472e-17   9.52e-18 
   7567.146   3.462e-17  1.078e-17 
   7568.689   2.143e-17  1.086e-17 
   7570.233   2.396e-17   1.07e-17 
   7571.775   2.272e-17  9.096e-18 
   7573.319   2.578e-17  7.423e-18 
   7574.861   2.565e-17  6.495e-18 
   7576.405   2.186e-17  6.225e-18 
   7577.948   3.288e-17  6.451e-18 
   7579.491   3.401e-17  7.145e-18 
   7581.034   2.121e-17  8.026e-18 
   7582.577   1.806e-17  8.457e-18 
    7584.12   3.355e-17  8.557e-18 
   7585.663   2.887e-17  7.779e-18 
   7587.206   2.716e-17  7.229e-18 
    7588.75   1.687e-17  7.464e-18 
   7590.292   3.278e-17  9.274e-18 
   7591.836   2.476e-17    1.3e-17 
   7593.378   3.886e-17  1.918e-17 
   7594.922   3.841e-17  2.454e-17 
   7596.466   3.022e-17  2.847e-17 
   7598.008   6.833e-17  3.109e-17 
   7599.552  -1.288e-18  2.963e-17 
   7601.094  -1.247e-17  2.693e-17 
   7602.638    4.98e-17  2.706e-17 
   7604.181   5.852e-17  2.527e-17 
   7605.724  -9.713e-18  2.016e-17 
   7607.268   4.855e-17   1.78e-17 
   7608.811   3.804e-17  1.492e-17 
   7610.355   1.492e-17  1.164e-17 
   7611.897   1.497e-17  1.074e-17 
   7613.441   1.733e-17  1.017e-17 
   7614.985   3.506e-17  1.038e-17 
   7616.528   3.255e-17   1.13e-17 
   7618.071   1.442e-17  1.187e-17 
   7619.614   1.407e-17  1.204e-17 
   7621.158   3.328e-17  1.399e-17 
   7622.701   3.921e-17  1.627e-17 
   7624.244   4.622e-18  1.676e-17 
   7625.788   5.724e-17  1.794e-17 
   7627.331   3.912e-17  1.601e-17 
   7628.875   1.385e-17   1.43e-17 
   7630.418   1.193e-17  1.195e-17 
   7631.962   3.523e-17  1.113e-17 
   7633.506   3.021e-17  1.141e-17 
   7635.048   2.877e-17  1.093e-17 
   7636.592   3.138e-17  1.058e-17 
   7638.135   2.376e-17  1.074e-17 
   7639.679   4.082e-17  1.031e-17 
   7641.222   2.463e-17  9.601e-18 
   7642.766   8.777e-18  8.886e-18 
    7644.31   3.987e-17   8.84e-18 
   7645.853   3.487e-17  8.535e-18 
   7647.397   2.471e-17  9.474e-18 
    7648.94   2.281e-17   9.49e-18 
   7650.484   3.178e-17  9.196e-18 
   7652.028   3.647e-17  8.996e-18 
   7653.571   7.449e-18  7.691e-18 
   7655.115   3.018e-17  7.788e-18 
   7656.658   3.526e-17  9.122e-18 
   7658.202   2.782e-17  9.821e-18 
   7659.746   3.306e-17  9.637e-18 
   7661.289   3.601e-17  8.935e-18 
   7662.833   4.077e-17  8.027e-18 
   7664.376   2.092e-17  6.795e-18 
   7665.921   2.395e-17  6.505e-18 
   7667.464   3.906e-17  6.672e-18 
   7669.008   3.269e-17  6.603e-18 
   7670.552   2.521e-17  6.446e-18 
   7672.095   2.708e-17  6.192e-18 
   7673.639   2.986e-17  6.326e-18 
   7675.182    2.92e-17  6.646e-18 
   7676.727   2.968e-17  6.636e-18 
   7678.271   2.941e-17  6.692e-18 
   7679.814   2.776e-17  6.767e-18 
   7681.358   3.451e-17  6.938e-18 
   7682.902   2.119e-17   6.73e-18 
   7684.446    3.14e-17  6.928e-18 
   7685.989   3.858e-17  7.489e-18 
   7687.533   3.124e-17   7.31e-18 
   7689.078   3.665e-17  6.931e-18 
   7690.621   2.889e-17  6.939e-18 
   7692.165     3.2e-17  7.173e-18 
   7693.708   2.911e-17  7.671e-18 
   7695.253   2.769e-17  7.903e-18 
   7696.797   3.305e-17  8.101e-18 
    7698.34   2.538e-17  7.831e-18 
   7699.885   3.232e-17   6.98e-18 
   7701.428   2.824e-17  6.371e-18 
   7702.972   2.475e-17  6.375e-18 
   7704.516   1.499e-17  7.064e-18 
    7706.06   3.275e-17  1.096e-17 
   7707.605   3.465e-17  1.434e-17 
   7709.148   2.027e-17  1.626e-17 
   7710.692   3.015e-17  1.826e-17 
   7712.236   4.799e-17  1.834e-17 
    7713.78   2.575e-17  1.681e-17 
   7715.324   3.146e-17  1.519e-17 
   7716.868   1.928e-17  1.213e-17 
   7718.413   2.708e-17   9.96e-18 
   7719.956   2.074e-17  9.944e-18 
   7721.501   3.911e-17   1.03e-17 
   7723.044   2.294e-17  9.852e-18 
   7724.589   2.856e-17  9.214e-18 
   7726.133   2.694e-17  7.643e-18 
   7727.677   2.646e-17   6.87e-18 
   7729.221   3.596e-17  7.201e-18 
   7730.765   2.603e-17  7.252e-18 
   7732.309   1.922e-17  7.214e-18 
   7733.853   3.731e-17  7.536e-18 
   7735.398   3.444e-17  7.102e-18 
   7736.942   2.721e-17  6.715e-18 
   7738.486   2.713e-17  6.564e-18 
    7740.03    3.21e-17  6.753e-18 
   7741.574   2.799e-17  6.719e-18 
   7743.119   1.454e-17  8.998e-18 
   7744.663   4.332e-17  1.409e-17 
   7746.207   3.998e-17  1.663e-17 
   7747.752   2.143e-17   1.71e-17 
   7749.295   4.616e-17   1.58e-17 
    7750.84   1.212e-17  1.124e-17 
   7752.384    2.35e-17  8.404e-18 
   7753.929   3.476e-17  9.987e-18 
   7755.473   3.585e-17  1.111e-17 
   7757.017   3.738e-17  1.114e-17 
   7758.562   4.064e-17  1.076e-17 
   7760.105   1.742e-17  8.454e-18 
    7761.65   1.774e-17  6.588e-18 
   7763.195     2.8e-17  6.426e-18 
   7764.739   3.896e-17  6.691e-18 
   7766.284   4.347e-17  7.357e-18 
   7767.827   2.861e-17  8.152e-18 
   7769.372   3.766e-17  8.638e-18 
   7770.916     3.9e-17  8.634e-18 
   7772.461   2.717e-17  8.146e-18 
   7774.006   2.032e-17   8.38e-18 
    7775.55    4.51e-17  9.514e-18 
   7777.094   3.947e-17  9.781e-18 
   7778.638   2.208e-17  9.455e-18 
   7780.183   2.522e-17  8.299e-18 
   7781.728   3.437e-17  6.996e-18 
   7783.272   3.347e-17  6.803e-18 
   7784.817   1.597e-17  6.801e-18 
   7786.361   2.676e-17   8.13e-18 
   7787.906   4.041e-17  1.196e-17 
    7789.45   3.152e-17  1.431e-17 
   7790.995   3.455e-17  1.455e-17 
    7792.54   3.929e-17  1.389e-17 
   7794.084   2.739e-17   1.07e-17 
   7795.629   2.517e-17    7.3e-18 
   7797.173   2.754e-17  6.277e-18 
   7798.718   3.164e-17  6.244e-18 
   7800.263   2.856e-17  6.491e-18 
   7801.807   2.229e-17   8.18e-18 
   7803.352    3.81e-17  1.043e-17 
   7804.896    3.31e-17  1.089e-17 
   7806.441   3.434e-17  1.088e-17 
   7807.985   3.098e-17  9.661e-18 
    7809.53   2.521e-17  7.497e-18 
   7811.075   3.788e-17  6.984e-18 
   7812.619   2.959e-17  7.037e-18 
   7814.164   1.334e-17  8.988e-18 
   7815.708    4.33e-17  1.402e-17 
   7817.253   3.172e-17   1.59e-17 
   7818.798   4.196e-17  1.608e-17 
   7820.343    4.84e-17  1.496e-17 
   7821.888   1.624e-17  1.025e-17 
   7823.432   2.698e-17  7.403e-18 
   7824.977    2.94e-17  6.675e-18 
   7826.521   2.535e-17  6.501e-18 
   7828.066   3.072e-17   6.55e-18 
   7829.612   3.696e-17  6.561e-18 
   7831.156   4.032e-17  7.483e-18 
   7832.701   1.525e-17   5.65e-18 
   7834.245   1.885e-17  7.038e-18 
    7835.79   5.174e-17   1.16e-17 
   7837.336   1.623e-17  9.955e-18 
    7838.88   2.234e-17  1.008e-17 
   7840.425    2.63e-17    9.4e-18 
   7841.969   1.493e-17  7.504e-18 
   7843.515   2.777e-17  7.812e-18 
   7845.059   1.566e-17  8.798e-18 
   7846.604   9.914e-18  1.303e-17 
    7848.15   5.179e-17  1.742e-17 
   7849.694   4.982e-17  1.783e-17 
   7851.239   2.897e-17  1.731e-17 
   7852.784   2.674e-17   1.55e-17 
   7854.329   1.262e-17  1.276e-17 
   7855.874     3.4e-17  1.304e-17 
   7857.419   4.247e-17  1.276e-17 
   7858.964   2.824e-17  1.171e-17 
   7860.508   2.567e-17  1.002e-17 
   7862.054   3.348e-17  9.359e-18 
   7863.598   2.226e-17   1.05e-17 
   7865.144   4.305e-17  1.283e-17 
   7866.689   5.019e-17  1.335e-17 
   7868.234   2.028e-17  1.259e-17 
   7869.779   2.687e-17  1.124e-17 
   7871.323   1.908e-17  9.072e-18 
   7872.869   3.403e-17  9.575e-18 
   7874.414   2.865e-17  1.083e-17 
   7875.959   3.217e-17  1.187e-17 
   7877.504   3.933e-17  1.201e-17 
   7879.049   2.161e-17  1.083e-17 
   7880.594   2.585e-17  9.567e-18 
   7882.139    1.53e-17  8.854e-18 
   7883.684   4.195e-17  1.183e-17 
    7885.23   2.801e-17  1.377e-17 
   7886.774   1.446e-17  1.392e-17 
    7888.32   2.976e-17  1.372e-17 
   7889.864   5.133e-17  1.114e-17 
    7891.41   2.934e-17  8.367e-18 
   7892.956   1.603e-17   7.39e-18 
     7894.5   2.975e-17   7.28e-18 
   7896.046   3.881e-17  7.253e-18 
    7897.59   3.232e-17   7.14e-18 
   7899.136    2.47e-17  6.935e-18 
   7900.681   2.325e-17  6.951e-18 
   7902.226   3.549e-17  7.245e-18 
   7903.772   2.352e-17    7.2e-18 
   7905.317   8.462e-18   8.03e-18 
   7906.862   1.747e-17  1.256e-17 
   7908.407   6.079e-17  1.734e-17 
   7909.953   3.432e-17  1.857e-17 
   7911.498    4.05e-17  1.826e-17 
   7913.043   4.373e-17  1.605e-17 
   7914.589   1.847e-17  1.341e-17 
   7916.133   2.398e-17  1.395e-17 
   7917.679   1.241e-17  1.375e-17 
   7919.224   3.346e-17   1.36e-17 
    7920.77    3.94e-17  1.155e-17 
   7922.315   1.594e-17  8.225e-18 
    7923.86    2.43e-17  8.394e-18 
   7925.406   3.005e-17  1.099e-17 
   7926.951   2.876e-17  1.264e-17 
   7928.496   2.729e-17  1.257e-17 
   7930.042   4.153e-17  1.197e-17 
   7931.587   4.473e-17  9.495e-18 
   7933.133   3.475e-17  7.394e-18 
   7934.678   2.607e-17  6.573e-18 
   7936.223   3.984e-17  6.802e-18 
   7937.768   3.705e-17  7.189e-18 
   7939.314   3.221e-17  7.218e-18 
    7940.86   1.691e-17  7.227e-18 
   7942.405   3.356e-17  8.828e-18 
   7943.951   3.739e-17  1.047e-17 
   7945.496   3.344e-17  1.091e-17 
   7947.041   4.021e-17  1.079e-17 
   7948.587   4.832e-17  9.614e-18 
   7950.132   2.956e-17   7.43e-18 
   7951.678   2.823e-17  6.769e-18 
   7953.223   3.255e-17  6.646e-18 
   7954.769   4.256e-17  6.901e-18 
   7956.314   3.792e-17  7.183e-18 
    7957.86   2.693e-17  1.058e-17 
   7959.406   5.383e-17   1.51e-17 
   7960.951   3.912e-17  1.614e-17 
   7962.497    4.16e-17  1.646e-17 
   7964.042   5.017e-17  1.471e-17 
   7965.588   2.653e-17  1.026e-17 
   7967.134    3.01e-17  8.538e-18 
   7968.679   3.641e-17  7.498e-18 
   7970.225   3.428e-17  7.688e-18 
    7971.77   4.382e-17  9.368e-18 
   7973.316   3.561e-17  1.149e-17 
   7974.861   7.063e-17  1.332e-17 
   7976.407   3.477e-17  1.311e-17 
   7977.953   3.834e-17  1.197e-17 
   7979.498   3.945e-17  9.947e-18 
   7981.044    2.94e-17  7.574e-18 
   7982.589   3.495e-17  7.126e-18 
   7984.135   3.507e-17  7.347e-18 
    7985.68   2.214e-17  8.779e-18 
   7987.226   3.426e-17  1.429e-17 
   7988.773   2.318e-17  1.714e-17 
   7990.318   1.965e-17  1.704e-17 
   7991.864    4.32e-17  1.654e-17 
   7993.409   2.502e-17  1.242e-17 
   7994.955   1.507e-17  8.301e-18 
   7996.501   4.348e-17   7.63e-18 
   7998.046   3.478e-17  7.084e-18 
   7999.593   2.622e-17  6.929e-18 
   8001.138     2.9e-17  6.695e-18 
   8002.684   3.389e-17  6.727e-18 
   8004.229   3.934e-17   6.71e-18 
   8005.775   2.624e-17  6.673e-18 
   8007.322   3.387e-17  8.653e-18 
   8008.867   3.821e-17  1.099e-17 
   8010.413   4.702e-17  1.162e-17 
   8011.958   1.388e-17  1.122e-17 
   8013.505   3.276e-17  1.054e-17 
   8015.051   4.196e-17  8.559e-18 
   8016.596   2.717e-17  7.731e-18 
   8018.142   1.344e-17  8.679e-18 
   8019.688   1.151e-17  1.273e-17 
   8021.234   4.033e-17  1.516e-17 
   8022.779   2.446e-17  1.539e-17 
   8024.325   3.915e-17  1.524e-17 
   8025.872   2.996e-17  1.217e-17 
   8027.417    4.78e-17  9.188e-18 
   8028.963   3.943e-17  7.766e-18 
   8030.509   2.634e-17  6.953e-18 
   8032.055   4.489e-17   6.94e-18 
   8033.601   4.394e-17  6.785e-18 
   8035.147    4.31e-17  6.654e-18 
   8036.693   3.103e-17  6.475e-18 
   8038.239   3.933e-17  6.537e-18 
   8039.785   3.689e-17   6.53e-18 
    8041.33   2.577e-17  6.284e-18 
   8042.877   4.182e-17  6.555e-18 
   8044.423   2.765e-17  6.891e-18 
   8045.969   3.012e-17  8.722e-18 
   8047.515   3.679e-17  9.737e-18 
    8049.06   3.491e-17  9.702e-18 
   8050.607   3.956e-17  9.368e-18 
   8052.153   3.459e-17  7.776e-18 
   8053.699    2.52e-17  6.782e-18 
   8055.245   1.994e-17  8.474e-18 
   8056.791   3.996e-17   1.11e-17 
   8058.337   4.174e-17  1.208e-17 
   8059.883   2.296e-17  1.174e-17 
   8061.429   3.774e-17  1.085e-17 
   8062.976   2.985e-17  7.831e-18 
   8064.521   2.741e-17   6.57e-18 
   8066.068   3.164e-17  6.043e-18 
   8067.613    2.59e-17  6.059e-18 
    8069.16   3.121e-17  6.224e-18 
   8070.706   2.713e-17  6.217e-18 
   8072.252   2.464e-17   6.48e-18 
   8073.798   2.961e-17  6.593e-18 
   8075.344   3.247e-17  6.547e-18 
    8076.89   2.117e-17  6.225e-18 
   8078.436   2.599e-17  6.257e-18 
   8079.983   3.491e-17  6.786e-18 
   8081.529   3.053e-17  6.904e-18 
   8083.075   2.386e-17  6.628e-18 
   8084.621   1.875e-17  6.265e-18 
   8086.167   2.912e-17   6.37e-18 
   8087.714   2.869e-17  7.265e-18 
    8089.26   2.792e-17  7.661e-18 
   8090.806   3.311e-17   8.06e-18 
   8092.353   3.483e-17  7.712e-18 
   8093.898   1.734e-17  6.829e-18 
   8095.445   2.213e-17  7.026e-18 
    8096.99   3.171e-17  8.619e-18 
   8098.537   3.818e-17  9.393e-18 
   8100.084   3.243e-17   9.49e-18 
    8101.63    4.23e-17  8.734e-18 
   8103.176   3.247e-17  7.224e-18 
   8104.722   3.192e-17  6.509e-18 
   8106.269   2.846e-17   6.29e-18 
   8107.815   2.711e-17  6.381e-18 
   8109.361   3.045e-17  6.648e-18 
   8110.908   3.925e-17   6.83e-18 
   8112.454   2.808e-17  6.671e-18 
     8114.0   3.055e-17  6.392e-18 
   8115.546   2.673e-17  5.971e-18 
   8117.093   3.011e-17  5.864e-18 
    8118.64   3.472e-17  5.969e-18 
   8120.185   3.002e-17  5.882e-18 
   8121.732   2.708e-17  6.077e-18 
   8123.278   3.343e-17  6.179e-18 
   8124.825   2.776e-17  6.081e-18 
    8126.37   2.112e-17   6.07e-18 
   8127.917   3.981e-17  6.349e-18 
   8129.464   2.953e-17  6.309e-18 
    8131.01   2.451e-17  6.258e-18 
   8132.557   2.187e-17  6.517e-18 
   8134.103   3.037e-17  7.253e-18 
   8135.649   2.788e-17  7.324e-18 
   8137.196   2.475e-17  7.275e-18 
   8138.742   2.544e-17  6.897e-18 
   8140.289   2.717e-17  7.042e-18 
   8141.835   2.358e-17  7.597e-18 
   8143.382   1.615e-17  7.663e-18 
   8144.928   3.316e-17  7.997e-18 
   8146.475   2.779e-17  7.328e-18 
   8148.021    2.88e-17  6.554e-18 
   8149.567   1.898e-17  6.028e-18 
   8151.114   2.296e-17  6.193e-18 
    8152.66   2.885e-17  6.198e-18 
   8154.207   2.926e-17  6.048e-18 
   8155.754   2.269e-17  6.221e-18 
     8157.3   1.977e-17  6.342e-18 
   8158.847   3.137e-17  6.587e-18 
   8160.393   2.177e-17  6.082e-18 
    8161.94    1.56e-17  5.197e-18 
   8163.486   2.544e-17  5.617e-18 
   8165.033   3.833e-17  6.594e-18 
    8166.58   1.601e-17  6.602e-18 
   8168.126   1.599e-17  6.531e-18 
   8169.673    2.85e-17  6.897e-18 
   8171.219   2.571e-17  7.377e-18 
   8172.766   1.232e-17  7.241e-18 
   8174.313   2.493e-17  8.163e-18 
   8175.859   2.373e-17  8.922e-18 
   8177.406   2.975e-17  9.885e-18 
   8178.952   1.072e-17  1.066e-17 
   8180.499   2.705e-17  1.112e-17 
   8182.045   3.438e-17  1.141e-17 
   8183.592   2.601e-17  1.062e-17 
   8185.139   1.951e-17  1.027e-17 
   8186.685   2.644e-17  1.023e-17 
   8188.232   1.965e-17  1.054e-17 
   8189.778   4.073e-17  1.166e-17 
   8191.326    2.42e-17   1.22e-17 
   8192.873   2.185e-17  1.209e-17 
   8194.419   2.754e-17  1.138e-17 
   8195.966   2.991e-17  1.012e-17 
   8197.512   2.637e-17  9.253e-18 
   8199.059   3.762e-17  8.852e-18 
   8200.605   4.531e-17  8.943e-18 
   8202.152   2.634e-17  8.407e-18 
     8203.7   2.872e-17  8.025e-18 
   8205.246   2.873e-17   7.77e-18 
   8206.793   3.212e-17  7.716e-18 
   8208.339   2.091e-17  7.186e-18 
   8209.886   1.942e-17  7.004e-18 
   8211.433   2.212e-17  7.199e-18 
    8212.98   3.253e-17  7.001e-18 
   8214.527   1.992e-17  6.719e-18 
   8216.073   2.275e-17  6.664e-18 
    8217.62   3.195e-17   6.95e-18 
   8219.166   3.167e-17  6.802e-18 
   8220.714   2.528e-17  6.808e-18 
   8222.261     2.5e-17  6.746e-18 
   8223.807   2.767e-17  6.911e-18 
   8225.354     2.9e-17  6.941e-18 
   8226.901   1.999e-17  6.464e-18 
   8228.448   2.505e-17  6.359e-18 
   8229.994   2.733e-17  6.299e-18 
   8231.541   1.879e-17  6.054e-18 
   8233.089   2.255e-17   5.92e-18 
   8234.635   2.527e-17  6.261e-18 
   8236.182   4.207e-17  6.811e-18 
   8237.728   2.229e-17  6.638e-18 
   8239.276    2.52e-17  6.524e-18 
   8240.823   2.441e-17  6.577e-18 
   8242.369   2.339e-17  6.586e-18 
   8243.917   2.312e-17  6.563e-18 
   8245.463   2.554e-17  6.353e-18 
    8247.01   2.946e-17  6.342e-18 
   8248.557   2.192e-17  6.305e-18 
   8250.104   3.046e-17  6.322e-18 
   8251.651   1.379e-17  6.198e-18 
   8253.198   2.375e-17  6.371e-18 
   8254.745   3.354e-17  6.495e-18 
   8256.291   3.323e-17  6.154e-18 
   8257.839   2.038e-17  6.047e-18 
   8259.386   3.518e-17  6.459e-18 
   8260.932   2.611e-17  6.148e-18 
    8262.48   3.064e-17  6.293e-18 
   8264.026   1.919e-17  6.066e-18 
   8265.574   3.017e-17  6.347e-18 
    8267.12   3.063e-17  6.369e-18 
   8268.667   2.988e-17  6.441e-18 
   8270.215   2.112e-17  6.894e-18 
   8271.761   3.177e-17  8.844e-18 
   8273.309   1.862e-17  1.103e-17 
   8274.855   3.512e-17   1.38e-17 
   8276.403   4.264e-17  1.676e-17 
    8277.95   2.816e-17  1.684e-17 
   8279.497   2.743e-17  1.552e-17 
   8281.044   2.301e-17  1.521e-17 
    8282.59   2.038e-17  1.626e-17 
   8284.138   3.502e-17  1.761e-17 
   8285.684   8.181e-18  1.699e-17 
   8287.232   3.335e-17  1.563e-17 
   8288.779   8.795e-18  1.188e-17 
   8290.326   1.659e-17  1.067e-17 
   8291.873   3.982e-18  1.309e-17 
    8293.42   5.141e-17  1.738e-17 
   8294.967   3.793e-17  1.828e-17 
   8296.515   2.817e-17  1.691e-17 
   8298.061   2.091e-17  1.463e-17 
   8299.609   9.783e-18  9.909e-18 
   8301.156   2.767e-17  7.705e-18 
   8302.703   2.741e-17  7.475e-18 
    8304.25   2.069e-17  8.914e-18 
   8305.797   2.207e-17  1.063e-17 
   8307.345   3.241e-17  1.107e-17 
   8308.891   2.723e-17  1.046e-17 
   8310.439   9.526e-18  8.907e-18 
   8311.985   2.168e-17  7.168e-18 
   8313.533   2.487e-17  6.831e-18 
    8315.08   3.173e-17  7.064e-18 
   8316.627   1.822e-17  6.836e-18 
   8318.175   2.852e-17  6.668e-18 
   8319.721   3.566e-17  6.356e-18 
   8321.269   2.189e-17  6.094e-18 
   8322.816   1.818e-17  5.848e-18 
   8324.363     2.1e-17  5.808e-18 
   8325.911    3.49e-17  6.352e-18 
   8327.457   2.271e-17  6.147e-18 
   8329.005   1.999e-17  6.091e-18 
   8330.552   2.869e-17  6.282e-18 
   8332.099   3.163e-17  6.829e-18 
   8333.646   2.502e-17  6.816e-18 
   8335.194   5.891e-18  7.033e-18 
   8336.741   1.997e-18  1.053e-17 
   8338.288   4.177e-17  1.909e-17 
   8339.836   4.504e-17  2.366e-17 
   8341.382   3.304e-17  2.395e-17 
    8342.93   5.629e-17  2.306e-17 
   8344.478  -1.854e-18  1.732e-17 
   8346.025  -1.189e-17  1.235e-17 
   8347.572   2.466e-17  1.427e-17 
   8349.119   1.514e-17  1.487e-17 
   8350.667    3.03e-17  1.508e-17 
   8352.213   2.102e-17  1.277e-17 
   8353.761    1.32e-17  8.507e-18 
   8355.309   2.368e-17  7.357e-18 
   8356.856   2.735e-17   7.96e-18 
   8358.403   1.568e-17  9.403e-18 
    8359.95   1.788e-17  1.066e-17 
   8361.498    2.19e-17  1.068e-17 
   8363.046   3.146e-17  1.026e-17 
   8364.592   1.744e-17  8.348e-18 
    8366.14   1.497e-17  6.589e-18 
   8367.687   2.941e-17  6.286e-18 
   8369.235   1.723e-17  6.023e-18 
   8370.781   2.204e-17  6.056e-18 
   8372.329   2.536e-17  6.362e-18 
   8373.877   1.633e-17  7.113e-18 
   8375.424   7.724e-18  9.163e-18 
   8376.972   3.832e-17  1.227e-17 
   8378.518   3.249e-17  1.321e-17 
   8380.066   3.119e-17  1.322e-17 
   8381.613   3.256e-17  1.116e-17 
   8383.161   1.102e-17  7.635e-18 
   8384.709   2.549e-17  6.661e-18 
   8386.256   2.608e-17  6.741e-18 
   8387.803   2.549e-17  6.621e-18 
    8389.35   1.948e-17  6.283e-18 
   8390.898   8.872e-18  7.261e-18 
   8392.446  -1.013e-17  1.349e-17 
   8393.993   2.511e-17  1.892e-17 
   8395.541   4.345e-17  2.018e-17 
   8397.088   4.331e-17  2.003e-17 
   8398.635   3.774e-17  1.619e-17 
   8400.182  -8.322e-19  8.988e-18 
    8401.73   1.429e-17  6.544e-18 
   8403.278   3.059e-17  6.369e-18 
   8404.825   3.105e-17  6.195e-18 
   8406.373   1.816e-17  6.281e-18 
    8407.92    9.46e-18    8.1e-18 
   8409.468   1.932e-17   1.23e-17 
   8411.016   3.144e-17  1.396e-17 
   8412.562   1.402e-17  1.385e-17 
    8414.11    9.26e-18  1.269e-17 
   8415.657   1.115e-17  8.913e-18 
   8417.205   1.623e-17  6.808e-18 
   8418.752   2.091e-17  6.752e-18 
     8420.3   1.924e-17   7.02e-18 
   8421.848   1.071e-17  8.045e-18 
   8423.395  -7.289e-18  1.441e-17 
   8424.943   5.268e-17   2.04e-17 
    8426.49    3.45e-17  2.154e-17 
   8428.038   5.646e-17  2.149e-17 
   8429.586   3.275e-17   1.75e-17 
   8431.133  -1.541e-17  9.658e-18 
   8432.681   1.729e-17  6.877e-18 
   8434.228   2.925e-17  6.354e-18 
   8435.776   1.921e-17  5.859e-18 
   8437.323   1.232e-17  5.796e-18 
   8438.871   2.233e-17  5.753e-18 
   8440.419   3.042e-17  5.885e-18 
   8441.966   1.818e-17  5.786e-18 
   8443.514   1.794e-17  5.959e-18 
   8445.061   1.559e-17  8.321e-18 
   8446.609   2.957e-17  1.209e-17 
   8448.157   1.166e-17  1.318e-17 
   8449.704   2.908e-17  1.347e-17 
   8451.252   2.467e-17  1.206e-17 
   8452.799   2.498e-17   8.35e-18 
   8454.347   2.465e-17  6.378e-18 
   8455.894   2.637e-17  6.178e-18 
   8457.442   2.477e-17  8.148e-18 
    8458.99   2.762e-17  1.465e-17 
   8460.537  -7.493e-18  1.823e-17 
   8462.085   2.402e-17    1.9e-17 
   8463.633   5.394e-17  1.848e-17 
   8465.181    2.22e-17  1.353e-17 
   8466.728   1.485e-17   7.65e-18 
   8468.276   2.895e-17  6.472e-18 
   8469.824   2.784e-17  6.417e-18 
   8471.371   1.672e-17  6.149e-18 
   8472.919   1.333e-17  6.058e-18 
   8474.466   3.269e-17  6.194e-18 
   8476.014   2.232e-17  5.636e-18 
   8477.562   1.508e-17  5.545e-18 
    8479.11    2.59e-17  5.594e-18 
   8480.658    2.61e-17  5.715e-18 
   8482.205   3.032e-17  5.701e-18 
   8483.753   1.398e-17  5.399e-18 
     8485.3   2.208e-17  6.109e-18 
   8486.848   2.762e-17  8.761e-18 
   8488.396   2.247e-17  1.094e-17 
   8489.943   2.245e-17  1.143e-17 
   8491.492   3.392e-17  1.141e-17 
   8493.039   3.783e-17  9.571e-18 
   8494.587   6.722e-18  6.864e-18 
   8496.135   7.075e-18  6.437e-18 
   8497.682   6.636e-18  9.408e-18 
    8499.23   9.248e-18   1.36e-17 
   8500.778   4.187e-17  1.504e-17 
   8502.326     2.1e-17  1.483e-17 
   8503.873   3.263e-17   1.31e-17 
   8505.421   4.265e-18  8.333e-18 
   8506.969   1.875e-17  6.034e-18 
   8508.517   2.478e-17  5.723e-18 
   8510.065   2.693e-17  5.658e-18 
   8511.612   2.179e-17  5.622e-18 
    8513.16   3.033e-17  5.714e-18 
   8514.708   2.689e-17      6e-18 
   8516.256   1.901e-17  6.065e-18 
   8517.804    2.04e-17   6.04e-18 
   8519.351   2.507e-17  6.149e-18 
   8520.899    2.14e-17  5.735e-18 
   8522.447   2.855e-17  5.732e-18 
   8523.995   2.146e-17  5.575e-18 
   8525.543   2.744e-17  5.609e-18 
    8527.09   2.044e-17  5.391e-18 
   8528.639   2.671e-17  5.734e-18 
   8530.186   3.065e-17   5.84e-18 
   8531.734   3.074e-17  6.991e-18 
   8533.281   3.081e-17  8.637e-18 
    8534.83   1.607e-17  9.041e-18 
   8536.378   3.272e-17  9.187e-18 
   8537.925   1.764e-17  8.139e-18 
   8539.473   2.551e-17  6.768e-18 
   8541.021    1.87e-17  7.063e-18 
   8542.569   2.131e-17  9.546e-18 
   8544.117   8.559e-18  1.101e-17 
   8545.665   1.301e-17  1.126e-17 
   8547.213   3.747e-17  1.094e-17 
    8548.76   1.451e-17  8.321e-18 
   8550.308   1.159e-17  6.211e-18 
   8551.856    1.27e-17  5.592e-18 
   8553.404   2.126e-17  5.592e-18 
   8554.952   2.464e-17  5.486e-18 
     8556.5   2.291e-17   5.39e-18 
   8558.048   2.387e-17  5.451e-18 
   8559.595   2.422e-17  5.537e-18 
   8561.144   2.289e-17  5.341e-18 
   8562.692   1.976e-17  5.378e-18 
   8564.239   2.196e-17  5.466e-18 
   8565.788   2.471e-17  5.692e-18 
   8567.335   1.588e-17   5.53e-18 
   8568.883   1.766e-17   5.71e-18 
   8570.431   2.721e-17   6.09e-18 
   8571.979   2.794e-17  6.196e-18 
   8573.527   1.994e-17   5.94e-18 
   8575.075   1.441e-17  5.679e-18 
   8576.623    2.82e-17    5.8e-18 
   8578.171   2.463e-17  5.575e-18 
   8579.719   2.305e-17  5.545e-18 
   8581.267   2.261e-17  6.225e-18 
   8582.815   3.087e-17  7.434e-18 
   8584.363   2.702e-17    7.6e-18 
   8585.911   5.078e-18   7.37e-18 
   8587.459   2.745e-17  7.169e-18 
   8589.006   2.886e-17  6.568e-18 
   8590.555   2.072e-17  7.227e-18 
   8592.103   2.343e-17  8.228e-18 
   8593.651   3.395e-17  8.609e-18 
   8595.199   3.606e-17  8.551e-18 
   8596.746   2.426e-17  7.386e-18 
   8598.295   1.561e-17  6.226e-18 
   8599.842   3.092e-17  6.157e-18 
   8601.391   2.843e-17  6.366e-18 
   8602.939   2.201e-17  6.234e-18 
   8604.486   1.952e-17  6.392e-18 
   8606.035   3.017e-17  6.972e-18 
   8607.582   1.698e-17  7.308e-18 
   8609.131   1.499e-17    7.8e-18 
   8610.679   1.011e-17  8.496e-18 
   8612.227   3.211e-17  9.502e-18 
   8613.775   1.852e-17  1.016e-17 
   8615.323   2.229e-17  1.092e-17 
   8616.871   2.804e-17  1.167e-17 
   8618.418   3.644e-17  1.239e-17 
   8619.967   1.893e-17  1.283e-17 
   8621.515   1.663e-17  1.322e-17 
   8623.063   2.912e-17  1.362e-17 
   8624.611   1.574e-17  1.368e-17 
   8626.159   2.196e-17  1.391e-17 
   8627.707   -7.35e-18  1.346e-17 
   8629.256   3.442e-17  1.343e-17 
   8630.803   2.172e-17  1.308e-17 
   8632.352   2.197e-17  1.218e-17 
   8633.899   1.707e-17  1.154e-17 
   8635.448   2.806e-17  1.098e-17 
   8636.995   1.252e-17  9.927e-18 
   8638.544    7.83e-18  9.029e-18 
   8640.092   2.281e-17   8.65e-18 
    8641.64   8.778e-18  8.387e-18 
   8643.188   2.181e-17  9.596e-18 
   8644.736   1.944e-17  1.125e-17 
   8646.284   2.705e-17  1.233e-17 
   8647.833   2.062e-17  1.294e-17 
    8649.38   3.693e-17   1.38e-17 
   8650.929   4.996e-17  1.344e-17 
   8652.476   3.364e-17  1.352e-17 
   8654.025   3.315e-17  1.432e-17 
   8655.572   2.659e-17  1.362e-17 
   8657.121   6.755e-18  1.329e-17 
    8658.67   2.885e-17  1.384e-17 
   8660.217   1.298e-17  1.326e-17 
   8661.766   3.366e-17  1.288e-17 
   8663.313    2.93e-17  1.315e-17 
   8664.862   2.284e-17  1.279e-17 
   8666.409   2.324e-17  1.202e-17 
   8667.958   1.765e-17  1.192e-17 
   8669.506   2.665e-17  1.164e-17 
   8671.054   1.627e-17  1.093e-17 
   8672.603   1.602e-17   1.07e-17 
    8674.15   3.385e-17  1.065e-17 
   8675.699   8.126e-18  9.862e-18 
   8677.247   7.215e-18  9.252e-18 
   8678.795   2.007e-17  9.343e-18 
   8680.343   2.236e-17  9.063e-18 
   8681.891   1.894e-17  8.497e-18 
    8683.44   2.073e-17  8.193e-18 
   8684.987    2.32e-17  8.092e-18 
   8686.536    2.01e-17  7.652e-18 
   8688.084   1.147e-17  7.241e-18 
   8689.632   1.853e-17  7.316e-18 
   8691.181    2.89e-17  7.474e-18 
   8692.728   2.534e-17  7.187e-18 
   8694.277   1.653e-17  7.183e-18 
   8695.825   1.071e-17  7.197e-18 
   8697.373   2.074e-17  7.321e-18 
   8698.922   1.476e-17  6.982e-18 
   8700.469   1.535e-17  6.921e-18 
   8702.018   3.259e-17   7.33e-18 
   8703.565   3.338e-17  7.479e-18 
   8705.114   1.534e-17  7.052e-18 
   8706.663   1.538e-17  6.665e-18 
    8708.21   2.342e-17  6.332e-18 
   8709.759   2.547e-17  6.185e-18 
   8711.307   1.927e-17  5.923e-18 
   8712.855   1.359e-17  5.779e-18 
   8714.403   2.474e-17  6.035e-18 
   8715.951   2.367e-17  5.888e-18 
     8717.5   2.056e-17   5.88e-18 
   8719.048     2.6e-17  5.995e-18 
   8720.596   2.724e-17   6.12e-18 
   8722.144   2.484e-17  6.168e-18 
   8723.693   1.669e-17  5.929e-18 
   8725.241   1.962e-17  5.925e-18 
   8726.789   3.184e-17   6.07e-18 
   8728.338   2.934e-17  5.857e-18 
   8729.885   1.568e-17  5.717e-18 
   8731.434   2.399e-17  5.868e-18 
   8732.982    2.52e-17   6.08e-18 
    8734.53   1.588e-17  6.134e-18 
   8736.079   2.133e-17  6.281e-18 
   8737.627   2.102e-17  6.384e-18 
   8739.175   2.357e-17  6.354e-18 
   8740.723   2.173e-17  6.292e-18 
   8742.272   1.714e-17  6.125e-18 
    8743.82   2.567e-17  6.432e-18 
   8745.368   2.138e-17  6.449e-18 
   8746.917   2.311e-17   6.59e-18 
   8748.464   1.946e-17  6.471e-18 
   8750.013   2.543e-17  6.821e-18 
   8751.561   1.656e-17   8.38e-18 
    8753.11  -5.409e-18  1.191e-17 
   8754.658  -3.781e-19  1.651e-17 
   8756.206   2.594e-17  1.991e-17 
   8757.755   3.143e-17  2.024e-17 
   8759.302   2.423e-17  1.986e-17 
   8760.851   2.137e-18  1.989e-17 
     8762.4   2.235e-17  2.074e-17 
   8763.947   3.683e-17  2.122e-17 
   8765.496   3.543e-17  2.009e-17 
   8767.044   3.056e-17  1.621e-17 
   8768.593   1.115e-17  1.183e-17 
    8770.14  -2.154e-18  1.335e-17 
   8771.689  -1.617e-17  1.783e-17 
   8773.238   4.803e-17  2.122e-17 
   8774.785   4.541e-17  2.133e-17 
   8776.334   3.407e-17   1.89e-17 
   8777.882  -2.922e-18  1.376e-17 
   8779.431   6.305e-18  8.402e-18 
   8780.978   1.528e-17  6.688e-18 
   8782.527    1.79e-17  6.999e-18 
   8784.076   2.336e-17  9.492e-18 
   8785.624   2.699e-17  1.239e-17 
   8787.172   3.424e-17  1.343e-17 
    8788.72   3.541e-17   1.32e-17 
   8790.269   2.185e-17  1.117e-17 
   8791.818   2.689e-17  8.158e-18 
   8793.365   3.474e-17  6.644e-18 
   8794.914   2.409e-17   6.23e-18 
   8796.462   1.985e-17  6.101e-18 
   8798.011   3.156e-17  6.386e-18 
   8799.558   3.085e-17  6.278e-18 
   8801.107   1.849e-17  6.104e-18 
   8802.656   1.716e-17  6.404e-18 
   8804.204   1.562e-17   6.87e-18 
   8805.752   3.013e-17  7.385e-18 
     8807.3   1.538e-17  7.159e-18 
   8808.849   2.043e-17  7.001e-18 
   8810.398   2.185e-17  6.598e-18 
   8811.945   2.266e-17   6.42e-18 
   8813.494   2.166e-17  6.424e-18 
   8815.042   2.281e-17  6.574e-18 
   8816.591   2.432e-17  7.059e-18 
   8818.138  -3.648e-18  9.505e-18 
   8819.687   -1.11e-17  1.744e-17 
   8821.236   1.778e-17  2.523e-17 
   8822.784   5.784e-17  2.857e-17 
   8824.333   5.937e-17  2.854e-17 
    8825.88   2.863e-17  2.492e-17 
   8827.429  -4.003e-19  1.729e-17 
   8828.977  -5.624e-18  1.401e-17 
   8830.526   1.993e-17  1.713e-17 
   8832.075   2.365e-17  1.864e-17 
   8833.622   4.488e-17  1.836e-17 
   8835.171   4.661e-17  1.608e-17 
   8836.719   1.195e-17  1.092e-17 
   8838.268   1.757e-17  7.593e-18 
   8839.816   3.377e-17   7.24e-18 
   8841.364   2.596e-17  7.686e-18 
   8842.913   2.091e-17   9.58e-18 
   8844.461    1.76e-17  1.123e-17 
    8846.01   3.876e-17  1.193e-17 
   8847.557   2.345e-17   1.14e-17 
   8849.106   2.306e-17  9.785e-18 
   8850.655   8.209e-18  7.285e-18 
   8852.203    2.65e-17  6.509e-18 
   8853.752   2.675e-17  6.368e-18 
     8855.3   2.113e-17  6.764e-18 
   8856.848   1.579e-17  7.062e-18 
   8858.397   1.909e-17  7.806e-18 
   8859.945   1.085e-17  1.012e-17 
   8861.494   1.309e-17  1.373e-17 
   8863.042    3.37e-17  1.563e-17 
    8864.59   3.419e-17  1.572e-17 
   8866.138   2.688e-17   1.41e-17 
   8867.687   1.791e-17  1.035e-17 
   8869.236   2.708e-17  7.202e-18 
   8870.784   2.884e-17  6.464e-18 
   8872.333   2.189e-17  6.204e-18 
    8873.88   1.942e-17  6.182e-18 
   8875.429   3.221e-17  6.603e-18 
   8876.978   1.117e-17   7.89e-18 
   8878.526  -9.041e-18  1.422e-17 
   8880.075   4.113e-17  2.083e-17 
   8881.622   3.264e-17  2.339e-17 
   8883.171   5.307e-17  2.356e-17 
   8884.719   3.683e-17   2.04e-17 
   8886.268   6.746e-18  1.323e-17 
   8887.817   1.828e-17  8.028e-18 
   8889.365   1.313e-17  6.879e-18 
   8890.913   2.176e-17   6.81e-18 
   8892.461   2.507e-17  6.955e-18 
    8894.01    1.86e-17  7.336e-18 
   8895.558   1.855e-17  1.028e-17 
   8897.107    2.47e-17  1.446e-17 
   8898.656     2.6e-17  1.667e-17 
   8900.204   3.449e-17  1.689e-17 
   8901.752   2.953e-17  1.519e-17 
     8903.3    3.11e-17  1.124e-17 
   8904.849   1.806e-17  8.027e-18 
   8906.398   2.367e-17  7.402e-18 
   8907.946   2.906e-17  7.255e-18 
   8909.495   1.453e-17  7.062e-18 
   8911.042  -1.189e-17  9.637e-18 
   8912.591   3.338e-18  1.736e-17 
   8914.139   4.284e-17  2.369e-17 
   8915.688   5.166e-17  2.599e-17 
   8917.237    5.52e-17  2.562e-17 
   8918.785   2.927e-17   2.13e-17 
   8920.334   -2.42e-18  1.306e-17 
   8921.881    1.13e-17  8.159e-18 
    8923.43   3.038e-17  7.617e-18 
   8924.979   1.998e-17   7.24e-18 
   8926.527   2.194e-17  7.146e-18 
   8928.076   1.167e-17  6.785e-18 
   8929.624   2.168e-17  6.831e-18 
   8931.173   2.742e-17  6.888e-18 
    8932.72   2.863e-17  6.871e-18 
   8934.269    1.69e-17   7.28e-18 
   8935.818   1.704e-17  1.006e-17 
   8937.366   3.034e-17  1.399e-17 
   8938.915   3.929e-17  1.624e-17 
   8940.463   3.101e-17  1.623e-17 
   8942.012   2.818e-17  1.433e-17 
    8943.56   3.352e-17  1.068e-17 
   8945.108   1.482e-17  7.329e-18 
   8946.657   3.325e-17  6.914e-18 
   8948.205   2.532e-17  7.145e-18 
   8949.754   3.304e-18  1.029e-17 
   8951.302  -2.113e-17  1.704e-17 
   8952.851   2.013e-17  2.136e-17 
     8954.4   3.197e-17  2.314e-17 
   8955.947   2.847e-17  2.288e-17 
   8957.496   3.921e-17  1.919e-17 
   8959.044   8.428e-18  1.126e-17 
   8960.593   1.843e-17  7.256e-18 
   8962.141    3.24e-17  6.652e-18 
    8963.69   2.628e-17  6.514e-18 
   8965.239   2.071e-17  6.897e-18 
   8966.787   2.975e-17  7.163e-18 
   8968.335   1.376e-17  6.807e-18 
   8969.883   1.642e-17  6.666e-18 
   8971.432   1.663e-17  6.338e-18 
   8972.981   2.289e-17  6.285e-18 
   8974.529   2.547e-17  6.697e-18 
   8976.078   1.306e-17  6.976e-18 
   8977.626   2.229e-17  7.084e-18 
   8979.175   3.029e-17  7.572e-18 
   8980.722  -1.113e-18  9.568e-18 
   8982.271   7.182e-18  1.296e-17 
    8983.82   2.799e-17  1.542e-17 
   8985.368   1.073e-17  1.593e-17 
   8986.917   4.275e-18  1.403e-17 
   8988.465   1.478e-17  1.066e-17 
   8990.014   1.813e-17  7.737e-18 
   8991.562   1.643e-17  7.089e-18 
    8993.11   1.449e-18  9.243e-18 
   8994.659    2.14e-17  1.437e-17 
   8996.207   5.081e-17  1.855e-17 
   8997.756   2.705e-17  2.025e-17 
   8999.304   2.013e-17  1.844e-17 
   9000.853   3.752e-17  1.491e-17 
   9002.402   7.083e-18  9.059e-18 
    9003.95   1.926e-17  6.354e-18 
   9005.499   1.732e-17  5.635e-18 
   9007.046   2.795e-17  5.764e-18 
   9008.595   2.596e-17  5.728e-18 
   9010.143   1.959e-17  5.482e-18 
   9011.692   1.564e-17  5.487e-18 
   9013.241   3.116e-17  6.013e-18 
   9014.789   2.701e-17   6.04e-18 
   9016.338   1.979e-17  6.039e-18 
   9017.886   2.499e-17  6.184e-18 
   9019.434   3.159e-17  6.392e-18 
   9020.983   2.457e-17  6.354e-18 
   9022.531   1.804e-17      6e-18 
    9024.08   1.885e-17  6.171e-18 
   9025.628    3.04e-17  6.274e-18 
   9027.177   2.451e-17  6.123e-18 
   9028.725   1.972e-17  6.075e-18 
   9030.274   1.674e-17  7.094e-18 
   9031.823   2.294e-17  9.067e-18 
    9033.37   3.083e-17  1.056e-17 
   9034.919   1.638e-17  1.115e-17 
   9036.467   1.151e-17  1.011e-17 
   9038.016   1.376e-17  8.235e-18 
   9039.565   1.936e-17   6.88e-18 
   9041.113   1.302e-17  7.374e-18 
   9042.662   9.182e-18  1.034e-17 
    9044.21   2.467e-17  1.332e-17 
   9045.758   3.078e-17  1.437e-17 
   9047.306   2.976e-17  1.333e-17 
   9048.855   2.011e-17  1.138e-17 
   9050.404  -2.121e-18  7.935e-18 
   9051.952   1.569e-17  6.213e-18 
   9053.501   2.139e-17  6.115e-18 
   9055.049   2.784e-17  6.197e-18 
   9056.598    2.37e-17  6.118e-18 
   9058.145   2.398e-17  6.111e-18 
   9059.694    1.54e-17  6.243e-18 
   9061.243   2.571e-17   6.62e-18 
   9062.791   3.647e-17  6.933e-18 
    9064.34   2.549e-17  6.868e-18 
   9065.888   2.729e-17  6.972e-18 
   9067.437   2.781e-17  6.907e-18 
   9068.986   2.655e-17  6.269e-18 
   9070.533   2.249e-17  5.889e-18 
   9072.082   1.915e-17  5.727e-18 
    9073.63   2.483e-17  5.838e-18 
   9075.179   2.469e-17  5.906e-18 
   9076.727   2.201e-17  5.981e-18 
   9078.276   1.692e-17  6.003e-18 
   9079.825   2.626e-17  6.108e-18 
   9081.373   2.774e-17  6.217e-18 
   9082.921   2.519e-17  6.247e-18 
   9084.469   1.743e-17  6.698e-18 
   9086.018   2.283e-17  7.895e-18 
   9087.567   1.908e-17  8.996e-18 
   9089.115   2.701e-17  9.496e-18 
   9090.664   2.299e-17  9.045e-18 
   9092.212   2.831e-17  8.038e-18 
   9093.761   1.949e-17  7.365e-18 
   9095.308   3.234e-18  7.857e-18 
   9096.857   2.685e-17  1.003e-17 
   9098.406   2.835e-17  1.098e-17 
   9099.954   3.109e-17  1.081e-17 
   9101.503   2.139e-17  9.846e-18 
   9103.051   1.885e-17  8.102e-18 
     9104.6   2.154e-17  6.295e-18 
   9106.148   1.752e-17  5.545e-18 
   9107.696    1.01e-17  5.423e-18 
   9109.245   3.198e-17  5.752e-18 
   9110.793   2.249e-17  5.721e-18 
   9112.342   1.469e-17  5.655e-18 
    9113.89   2.012e-17  5.729e-18 
   9115.439   2.694e-17  5.915e-18 
   9116.988    2.15e-17  5.862e-18 
   9118.535   1.685e-17  5.761e-18 
   9120.084   1.621e-17  5.706e-18 
   9121.632   2.365e-17  5.874e-18 
   9123.181   2.151e-17  5.775e-18 
   9124.729    1.02e-17  5.722e-18 
   9126.278   2.069e-17  6.022e-18 
   9127.827   2.261e-17  6.144e-18 
   9129.374   2.158e-17  6.178e-18 
   9130.923    1.27e-17   6.22e-18 
   9132.471   2.622e-17  6.199e-18 
    9134.02   1.637e-17  6.059e-18 
   9135.569   1.686e-17  5.993e-18 
   9137.117   1.867e-17  5.597e-18 
   9138.665   2.008e-17  5.921e-18 
   9140.213    2.27e-17  5.796e-18 
   9141.762   8.367e-18   5.62e-18 
    9143.31   1.674e-17  6.043e-18 
   9144.859     2.5e-17  7.013e-18 
   9146.408    1.49e-17  8.474e-18 
   9147.956   7.072e-18  8.916e-18 
   9149.504   2.352e-17  8.939e-18 
   9151.052   1.857e-17  8.551e-18 
   9152.601    1.68e-17  8.293e-18 
   9154.149   1.357e-17  8.304e-18 
   9155.698   2.258e-17  8.685e-18 
   9157.247   2.804e-17  8.998e-18 
   9158.794   3.297e-17  8.719e-18 
   9160.343   1.067e-17   7.52e-18 
   9161.891   2.108e-17  6.583e-18 
    9163.44   2.122e-17      6e-18 
   9164.989   2.717e-17  6.127e-18 
   9166.537   1.598e-17  5.829e-18 
   9168.085   1.638e-17  5.944e-18 
   9169.633   1.838e-17  6.278e-18 
   9171.182   1.817e-17  6.086e-18 
    9172.73    1.86e-17  5.901e-18 
   9174.279   1.786e-17  5.837e-18 
   9175.827     2.1e-17  5.875e-18 
   9177.375   1.831e-17  5.756e-18 
   9178.924   2.565e-17  5.868e-18 
   9180.472   2.567e-17   5.92e-18 
   9182.021   1.837e-17   5.73e-18 
    9183.57   2.861e-17  5.767e-18 
   9185.117   2.141e-17   5.84e-18 
   9186.666   1.261e-17  5.582e-18 
   9188.214   2.572e-17  5.744e-18 
   9189.763   2.321e-17  5.693e-18 
   9191.311   1.455e-17  5.783e-18 
   9192.859   1.244e-17  5.899e-18 
   9194.408    2.51e-17  5.951e-18 
   9195.956   1.563e-17  5.614e-18 
   9197.505   2.146e-17  5.863e-18 
   9199.053   1.148e-17  5.717e-18 
   9200.601   1.483e-17  5.831e-18 
   9202.149   1.806e-17  5.733e-18 
   9203.698   2.165e-17  5.912e-18 
   9205.247   2.958e-17  6.211e-18 
   9206.795   2.536e-17  6.107e-18 
   9208.343   1.402e-17  6.276e-18 
   9209.891   1.367e-17  6.876e-18 
    9211.44   2.123e-17  7.617e-18 
   9212.989   1.718e-17  7.655e-18 
   9214.537   1.632e-17   7.43e-18 
   9216.085   1.919e-17  7.203e-18 
   9217.633   1.468e-17  7.345e-18 
   9219.182   1.791e-17  7.722e-18 
    9220.73   1.164e-17  8.194e-18 
   9222.278   1.628e-17      8e-18 
   9223.827   2.375e-17  7.656e-18 
   9225.375   1.014e-17  6.767e-18 
   9226.924   1.165e-17  6.039e-18 
   9228.472   2.559e-17  6.085e-18 
    9230.02   2.309e-17   5.94e-18 
   9231.569    2.13e-17  5.852e-18 
   9233.117   1.422e-17  5.717e-18 
   9234.666    1.68e-17  5.822e-18 
   9236.213   2.339e-17  6.004e-18 
   9237.762   1.416e-17  5.771e-18 
    9239.31   1.914e-17  5.964e-18 
   9240.859   2.765e-17  6.282e-18 
   9242.407   2.111e-17  6.477e-18 
   9243.955   1.213e-17  6.709e-18 
   9245.504   1.961e-17  6.907e-18 
   9247.052   1.639e-17  6.984e-18 
     9248.6   2.622e-17  6.963e-18 
   9250.148   1.223e-17  6.439e-18 
   9251.697   2.013e-17   6.32e-18 
   9253.246   2.486e-17   6.17e-18 
   9254.793   2.118e-17   6.09e-18 
   9256.342   1.272e-17  6.195e-18 
    9257.89   1.679e-17  6.337e-18 
   9259.439   2.358e-17  6.352e-18 
   9260.987   1.484e-17  6.119e-18 
   9262.535   1.259e-17  5.887e-18 
   9264.084   1.197e-17  5.799e-18 
   9265.632   2.155e-17  5.906e-18 
    9267.18   1.567e-17  5.782e-18 
   9268.728   4.457e-18  5.704e-18 
   9270.277   1.622e-17  5.931e-18 
   9271.825   2.009e-17  6.004e-18 
   9273.373   1.604e-17   6.11e-18 
   9274.922   2.036e-17  6.121e-18 
    9276.47   1.749e-17  6.368e-18 
   9278.018   2.123e-17  6.538e-18 
   9279.567   1.095e-17  6.961e-18 
   9281.115   1.472e-17  7.607e-18 
   9282.663   2.445e-17  7.902e-18 
   9284.211   1.784e-17   7.92e-18 
    9285.76   1.223e-17  7.869e-18 
   9287.308   2.026e-17  8.233e-18 
   9288.856   2.562e-17  8.686e-18 
   9290.405   2.271e-17  8.836e-18 
   9291.953   6.107e-18  8.825e-18 
   9293.501   1.144e-17  8.891e-18 
   9295.049   1.782e-17  8.788e-18 
   9296.598   7.068e-18  9.357e-18 
   9298.145   1.198e-18  1.271e-17 
   9299.694   1.239e-17  1.871e-17 
   9301.243   4.355e-17  2.462e-17 
    9302.79   1.919e-17  2.844e-17 
   9304.339   7.872e-18  3.103e-17 
   9305.887   4.192e-18  3.218e-17 
   9307.435   3.558e-17  3.322e-17 
   9308.984   2.038e-17  3.444e-17 
   9310.532   4.741e-17  3.482e-17 
    9312.08   3.511e-17  3.271e-17 
   9313.628   9.083e-18  2.721e-17 
   9315.177  -1.637e-17  2.201e-17 
   9316.724  -7.681e-18  2.544e-17 
   9318.273   3.257e-17  3.121e-17 
   9319.822   8.561e-18  3.397e-17 
   9321.369   6.366e-17  3.243e-17 
   9322.918    1.69e-17  2.468e-17 
   9324.466   1.143e-17  1.685e-17 
   9326.014    4.11e-18  1.288e-17 
   9327.563  -3.921e-18  1.247e-17 
   9329.111     1.9e-17  1.419e-17 
   9330.659   1.317e-17  1.652e-17 
   9332.207   1.827e-17  1.896e-17 
   9333.755   2.851e-17  2.067e-17 
   9335.303   1.474e-17  2.044e-17 
   9336.852    3.28e-17  1.967e-17 
     9338.4  -6.441e-18  1.577e-17 
   9339.948   1.181e-17  1.229e-17 
   9341.497   1.022e-17    1.1e-17 
   9343.044   2.143e-17  1.077e-17 
   9344.593   2.678e-17  1.068e-17 
   9346.141   8.522e-18  1.053e-17 
   9347.689   2.416e-17  1.125e-17 
   9349.238   2.545e-17   1.18e-17 
   9350.785   6.225e-18  1.117e-17 
   9352.334   1.502e-17  1.049e-17 
   9353.881   1.516e-17   1.05e-17 
    9355.43   3.181e-17  9.869e-18 
   9356.979   2.197e-17  9.459e-18 
   9358.526    1.68e-17   1.02e-17 
   9360.075   1.833e-17  1.123e-17 
   9361.622   2.574e-17  1.181e-17 
   9363.171   2.797e-17  1.347e-17 
   9364.719   4.652e-18  1.569e-17 
   9366.267  -2.311e-17  2.068e-17 
   9367.816  -7.733e-17  2.855e-17 
   9369.363  -1.146e-17  3.606e-17 
   9370.912   8.667e-17  4.308e-17 
   9372.459   6.102e-17  4.641e-17 
   9374.008   6.933e-17  4.691e-17 
   9375.556   1.636e-17  3.731e-17 
   9377.104   -2.36e-18   2.48e-17 
   9378.653   1.159e-17  1.572e-17 
     9380.2   1.825e-17   1.43e-17 
   9381.749   9.786e-18  1.449e-17 
   9383.296   1.524e-17  1.348e-17 
   9384.845   2.371e-17  1.158e-17 
   9386.393   2.185e-17  9.653e-18 
   9387.941   2.077e-17  8.466e-18 
   9389.489    2.21e-17  8.184e-18 
   9391.037   2.338e-17  8.432e-18 
   9392.585   1.459e-17  9.786e-18 
   9394.134   8.118e-18  1.222e-17 
   9395.681   1.374e-17  1.513e-17 
    9397.23    3.24e-17  1.662e-17 
   9398.778   2.939e-17   1.69e-17 
   9400.326   6.076e-18  1.565e-17 
   9401.874   3.073e-18  1.263e-17 
   9403.422   2.728e-17  1.009e-17 
   9404.971   8.554e-18  8.696e-18 
   9406.518   2.422e-17  8.396e-18 
   9408.067   2.791e-17  8.468e-18 
   9409.614   1.335e-17   8.93e-18 
   9411.163   1.318e-17  1.141e-17 
    9412.71  -1.774e-17  1.545e-17 
   9414.258    2.48e-17  1.991e-17 
   9415.807   4.706e-17  2.107e-17 
   9417.354   4.492e-17  2.108e-17 
   9418.903   3.428e-17  1.896e-17 
    9420.45   2.375e-17  1.574e-17 
   9421.999   6.984e-18  1.316e-17 
   9423.547   2.739e-17  1.201e-17 
   9425.095   2.088e-17  1.107e-17 
   9426.643   2.033e-17  9.812e-18 
   9428.191   1.389e-17  9.302e-18 
   9429.739   1.114e-17  1.172e-17 
   9431.287   1.652e-17   1.82e-17 
   9432.835   1.814e-17  2.845e-17 
   9434.383   2.041e-17  3.911e-17 
   9435.931   3.094e-17  4.431e-17 
   9437.479   3.675e-17  4.064e-17 
   9439.027    2.55e-18   3.21e-17 
   9440.575   -2.11e-17  2.047e-17 
   9442.124    4.89e-18  1.282e-17 
   9443.671   2.068e-17  1.099e-17 
   9445.219   2.294e-17  1.105e-17 
   9446.767   1.845e-17  1.108e-17 
   9448.315   2.249e-17  1.146e-17 
   9449.863   2.022e-17  1.472e-17 
   9451.411    1.35e-18  2.107e-17 
    9452.96   9.785e-18  2.722e-17 
   9454.507   3.969e-17  3.024e-17 
   9456.055   7.599e-17  2.941e-17 
   9457.603   6.344e-17   2.45e-17 
   9459.151   2.848e-17   1.59e-17 
   9460.698   2.221e-17  1.124e-17 
   9462.247   1.458e-17  1.008e-17 
   9463.795   1.775e-17  9.825e-18 
   9465.343   2.204e-17  9.818e-18 
   9466.891  -1.231e-17  1.189e-17 
   9468.438   -1.33e-17  1.861e-17 
   9469.987  -1.732e-17   2.59e-17 
   9471.535   4.439e-17  3.338e-17 
   9473.082   8.931e-17  3.703e-17 
   9474.631   7.323e-17  3.812e-17 
   9476.178   6.683e-17  3.409e-17 
   9477.726  -1.436e-17  2.179e-17 
   9479.274   1.541e-18  1.207e-17 
   9480.822   1.937e-17  9.395e-18 
    9482.37    2.18e-17  8.826e-18 
   9483.918   1.749e-17  8.439e-18 
   9485.466   2.911e-17  9.116e-18 
   9487.013   1.986e-17  9.549e-18 
   9488.562   4.158e-17   1.06e-17 
    9490.11    2.42e-17  1.127e-17 
   9491.657   3.247e-17  1.124e-17 
   9493.206   3.374e-17  1.329e-17 
   9494.753   2.668e-17  1.913e-17 
   9496.301   8.154e-18  2.516e-17 
   9497.849   3.113e-17  2.491e-17 
   9499.397   6.362e-17  2.391e-17 
   9500.945   3.126e-17   2.06e-17 
   9502.492   7.935e-18  1.618e-17 
   9504.041   2.102e-17  1.135e-17 
   9505.588   3.126e-17  8.918e-18 
   9507.136   1.285e-17  8.446e-18 
   9508.684   1.331e-17  9.526e-18 
   9510.232   2.005e-17  1.349e-17 
    9511.78  -2.488e-17  1.926e-17 
   9513.327   3.737e-17  2.753e-17 
   9514.876   4.072e-17   3.29e-17 
   9516.423   7.197e-17  3.271e-17 
   9517.971   6.039e-17   2.91e-17 
   9519.519   1.568e-17  2.141e-17 
   9521.067   2.209e-18   1.31e-17 
   9522.615   2.438e-17  1.037e-17 
   9524.162   2.933e-17  9.974e-18 
    9525.71   1.615e-17  9.523e-18 
   9527.257   2.508e-17  9.641e-18 
   9528.806   2.202e-17  9.935e-18 
   9530.354   1.905e-17  9.879e-18 
   9531.901   1.024e-17  1.028e-17 
   9533.449   3.287e-17   1.05e-17 
   9534.996   2.783e-17  9.988e-18 
   9536.545   1.649e-17  9.624e-18 
   9538.093   2.234e-17  9.337e-18 
    9539.64    3.02e-17  9.295e-18 
   9541.188   3.883e-17  9.104e-18 
   9542.735   8.629e-18  9.452e-18 
   9544.284   1.245e-17  1.201e-17 
   9545.831   3.573e-17  1.632e-17 
   9547.379   5.336e-17  2.065e-17 
   9548.927    4.27e-17  2.252e-17 
   9550.474   2.617e-17  2.169e-17 
   9552.022   3.885e-17  1.779e-17 
    9553.57   7.143e-18  1.317e-17 
   9555.118     2.2e-17  1.064e-17 
   9556.665   1.599e-17  1.076e-17 
   9558.213   1.483e-17  1.393e-17 
   9559.761  -2.322e-17  1.967e-17 
   9561.308    -6.6e-18  2.641e-17 
   9562.856   2.938e-17  2.958e-17 
   9564.403   5.932e-17  2.899e-17 
   9565.952   6.624e-17  2.509e-17 
     9567.5   2.677e-17  1.856e-17 
   9569.047   1.159e-17  1.199e-17 
   9570.595    1.93e-17  8.843e-18 
   9572.142   1.788e-17  8.485e-18 
    9573.69   2.093e-17  8.321e-18 
   9575.237   1.839e-17  8.364e-18 
   9576.785   2.596e-17  8.402e-18 
   9578.333   1.541e-17  8.118e-18 
    9579.88   3.376e-17  8.143e-18 
   9581.429   2.681e-17  8.134e-18 
   9582.976   3.508e-17  8.389e-18 
   9584.524   2.926e-18  8.536e-18 
   9586.072   1.655e-17  9.087e-18 
   9587.619   2.735e-17  9.453e-18 
   9589.167   2.389e-17  9.056e-18 
   9590.714   2.718e-17  8.805e-18 
   9592.262   2.005e-17  8.229e-18 
   9593.809    2.35e-17  7.877e-18 
   9595.357   2.561e-17  7.969e-18 
   9596.905   2.678e-17  8.098e-18 
   9598.452   1.602e-17  9.183e-18 
     9600.0   1.197e-17  1.183e-17 
   9601.547   2.579e-17  1.471e-17 
   9603.095   3.389e-17  1.655e-17 
   9604.642   7.427e-18  1.604e-17 
    9606.19   1.307e-17  1.465e-17 
   9607.738    6.37e-18  1.225e-17 
   9609.285   3.311e-18  9.744e-18 
   9610.833   2.065e-17  9.818e-18 
    9612.38   5.414e-18  1.172e-17 
   9613.928   4.698e-18  1.499e-17 
   9615.476   1.946e-17   1.78e-17 
   9617.023   1.163e-17  1.957e-17 
   9618.571   3.856e-17  1.948e-17 
   9620.118   4.059e-17  1.666e-17 
   9621.666   1.418e-17  1.317e-17 
   9623.213   2.695e-18  1.025e-17 
   9624.761   1.991e-17  9.384e-18 
   9626.309   2.308e-17  9.489e-18 
   9627.856   1.409e-17  8.863e-18 
   9629.403   2.922e-17  8.792e-18 
    9630.95   2.803e-17  8.741e-18 
   9632.498   2.805e-17  8.632e-18 
   9634.046   6.912e-18  8.445e-18 
   9635.593   3.036e-17  8.485e-18 
   9637.141   4.204e-17  8.332e-18 
   9638.688   1.555e-17  7.746e-18 
   9640.236   2.318e-17  8.085e-18 
   9641.783    2.79e-17  8.451e-18 
   9643.331    3.46e-17  8.138e-18 
   9644.878   1.922e-17  8.222e-18 
   9646.425   2.099e-17  9.159e-18 
   9647.973   3.001e-17  9.562e-18 
    9649.52   1.753e-17   9.71e-18 
   9651.068   1.911e-17  1.024e-17 
   9652.615   1.871e-17  1.061e-17 
   9654.163   3.388e-17   1.06e-17 
    9655.71   3.038e-17  1.113e-17 
   9657.257   1.707e-17  1.135e-17 
   9658.805   1.801e-17  1.175e-17 
   9660.352   2.743e-17  1.239e-17 
     9661.9   2.955e-18    1.4e-17 
   9663.448   2.437e-17  1.696e-17 
   9664.994   1.489e-18  1.719e-17 
   9666.542   4.732e-17  1.642e-17 
   9668.089   1.437e-17  1.514e-17 
   9669.637   1.078e-17  1.278e-17 
   9671.184   2.195e-17   1.24e-17 
   9672.731   2.643e-17  1.354e-17 
   9674.279    6.66e-18  1.636e-17 
   9675.826   1.124e-17  1.966e-17 
   9677.374   1.909e-17  1.989e-17 
    9678.92   4.549e-17  1.998e-17 
   9680.468   4.482e-17  1.818e-17 
   9682.016   2.698e-18  1.415e-17 
   9683.563   1.175e-17  1.252e-17 
    9685.11   2.973e-17  1.282e-17 
   9686.657   1.869e-17  1.342e-17 
   9688.205   3.474e-17  1.298e-17 
   9689.752   2.722e-17  1.291e-17 
   9691.299   8.817e-18  1.381e-17 
   9692.847   5.652e-18  1.731e-17 
   9694.394   2.359e-17  2.083e-17 
   9695.941   2.291e-17  2.086e-17 
   9697.488   9.874e-18  1.933e-17 
   9699.036    3.73e-18  1.546e-17 
   9700.583   2.456e-17  1.213e-17 
    9702.13   1.354e-17  1.048e-17 
   9703.678   1.404e-17  1.124e-17 
   9705.225   8.833e-18  1.297e-17 
   9706.772   2.527e-17  1.458e-17 
   9708.319   2.197e-17  1.576e-17 
   9709.867   1.268e-17  1.575e-17 
   9711.414    1.81e-17  1.614e-17 
   9712.961   9.362e-18  1.796e-17 
   9714.509   2.322e-17  2.073e-17 
   9716.055   2.555e-17  2.183e-17 
   9717.603    2.89e-17  2.219e-17 
   9719.149   3.548e-17  1.896e-17 
   9720.697   1.797e-17  1.459e-17 
   9722.245   2.024e-17  1.164e-17 
   9723.791    3.55e-17  1.093e-17 
   9725.339   9.516e-18   1.07e-17 
   9726.885   2.066e-17  1.094e-17 
   9728.433   8.877e-18  1.227e-17 
   9729.981   1.841e-17  1.493e-17 
   9731.527   3.725e-17  1.696e-17 
   9733.075   1.256e-17  1.727e-17 
   9734.621   6.709e-18  1.644e-17 
   9736.169   2.537e-17  1.541e-17 
   9737.715   1.657e-17  1.502e-17 
   9739.263   1.301e-17  1.291e-17 
   9740.811   1.459e-17  1.336e-17 
   9742.357   1.665e-17  1.413e-17 
   9743.905   2.949e-17  1.336e-17 
   9745.451   1.914e-17  1.179e-17 
   9746.999   7.562e-18  1.002e-17 
   9748.545   1.346e-17  9.239e-18 
   9750.093   2.073e-17  9.202e-18 
    9751.64   2.958e-17   9.51e-18 
   9753.187   2.539e-17  9.335e-18 
   9754.734   1.601e-17  9.225e-18 
   9756.281   1.437e-17  9.032e-18 
   9757.828     2.1e-17  9.091e-18 
   9759.376   2.051e-17  8.677e-18 
   9760.922   2.428e-17  8.924e-18 
    9762.47   2.155e-17  8.265e-18 
   9764.016   2.479e-17  8.612e-18 
   9765.563   1.174e-17  8.621e-18 
    9767.11   1.847e-17  8.413e-18 
   9768.657   1.882e-17   8.33e-18 
   9770.205   1.243e-17  8.679e-18 
   9771.751   7.419e-18  8.865e-18 
   9773.299   1.202e-17  1.004e-17 
   9774.845   2.416e-17   1.03e-17 
   9776.392   1.983e-17  1.052e-17 
    9777.94   1.199e-17  1.098e-17 
   9779.486   2.519e-17  1.113e-17 
   9781.034   3.337e-18  1.245e-17 
    9782.58   1.194e-17  1.811e-17 
   9784.127  -1.961e-17  2.575e-17 
   9785.674   4.188e-17  3.163e-17 
   9787.221   4.291e-17  3.326e-17 
   9788.768   4.281e-17  3.216e-17 
   9790.315   3.279e-17  2.807e-17 
   9791.862   3.783e-18  2.137e-17 
   9793.408   1.092e-17  1.982e-17 
   9794.956  -6.354e-18  2.103e-17 
   9796.502   3.904e-17  2.105e-17 
   9798.049   3.654e-17  1.927e-17 
   9799.597   8.464e-18  1.618e-17 
   9801.143   1.175e-17  1.331e-17 
    9802.69   1.593e-17  1.274e-17 
   9804.237  -3.324e-19  1.326e-17 
   9805.784     1.9e-17  1.468e-17 
   9807.331   1.421e-17  1.579e-17 
   9808.878   3.509e-17  1.595e-17 
   9810.425   2.747e-17  1.496e-17 
   9811.971   3.697e-18  1.469e-17 
   9813.518    2.01e-17  1.333e-17 
   9815.065   2.428e-17  1.263e-17 
   9816.612   1.917e-17  1.185e-17 
   9818.159   5.253e-18   1.05e-17 
   9819.705   6.737e-18  1.038e-17 
   9821.253   1.495e-17  1.068e-17 
   9822.799   1.731e-17   1.16e-17 
   9824.346   3.046e-18  1.171e-17 
   9825.893   3.926e-17  1.219e-17 
   9827.439   1.354e-17  1.096e-17 
   9828.987    1.37e-17  1.018e-17 
   9830.533   7.476e-18  1.001e-17 
    9832.08   2.552e-17  1.017e-17 
   9833.626   1.938e-17  9.745e-18 
   9835.173   4.017e-18  9.118e-18 
    9836.72  -7.276e-18  9.264e-18 
   9838.267   2.285e-17  1.015e-17 
   9839.814   3.544e-17  1.157e-17 
    9841.36   8.106e-18  1.452e-17 
   9842.907   1.528e-17   1.75e-17 
   9844.454    2.02e-17  1.911e-17 
     9846.0   2.558e-17  1.892e-17 
   9847.547   9.678e-18  1.694e-17 
   9849.093  -8.464e-18  1.277e-17 
   9850.641   2.507e-17  1.062e-17 
   9852.187   1.233e-17  9.994e-18 
   9853.734   7.321e-18  9.667e-18 
   9855.281   1.307e-17  1.022e-17 
   9856.827   1.971e-17  1.052e-17 
   9858.374   1.847e-17  1.032e-17 
    9859.92   1.563e-17  1.043e-17 
   9861.467   1.235e-17    1.1e-17 
   9863.013   2.468e-18  1.405e-17 
    9864.56   -2.38e-17  1.933e-17 
   9866.107   -7.26e-18  2.558e-17 
   9867.653   3.491e-17  2.957e-17 
     9869.2   1.776e-17  3.051e-17 
   9870.746   1.328e-17  2.893e-17 
   9872.293   3.855e-17  2.189e-17 
    9873.84   -7.41e-18  1.414e-17 
   9875.386    1.22e-17  1.197e-17 
   9876.933   1.285e-17  1.099e-17 
   9878.479   6.899e-18   1.09e-17 
   9880.026   1.289e-17  1.195e-17 
   9881.572   2.154e-17  1.216e-17 
   9883.119   1.587e-17  1.233e-17 
   9884.666   1.217e-17  1.227e-17 
   9886.212  -2.795e-18  1.389e-17 
   9887.759   1.386e-17  1.738e-17 
   9889.305   2.801e-18  1.999e-17 
   9890.852   2.204e-17   2.23e-17 
   9892.399   2.616e-17  2.261e-17 
   9893.945   2.886e-17  1.939e-17 
   9895.492   1.053e-17  1.527e-17 
   9897.038   1.055e-18  1.242e-17 
   9898.584   1.911e-17  1.216e-17 
    9900.13   1.994e-17  1.191e-17 
   9901.677  -3.518e-18  1.155e-17 
   9903.224    5.95e-18  1.171e-17 
    9904.77    1.35e-17  1.302e-17 
   9906.317  -2.854e-18  1.741e-17 
   9907.863   7.541e-18  2.444e-17 
   9909.409  -1.559e-17  3.059e-17 
   9910.955   7.483e-17  3.323e-17 
   9912.502   4.141e-17  3.172e-17 
   9914.049   4.844e-18  2.657e-17 
   9915.595  -9.772e-18  1.845e-17 
   9917.142   2.021e-17  1.395e-17 
   9918.687   1.545e-17  1.236e-17 
   9920.234   1.165e-17  1.179e-17 
   9921.781   1.921e-17  1.217e-17 
   9923.327   1.537e-17  1.212e-17 
   9924.873    9.55e-18   1.22e-17 
   9926.419    4.93e-18  1.247e-17 
   9927.966   1.085e-17  1.315e-17 
   9929.512   2.997e-17  1.384e-17 
   9931.058   2.639e-17  1.441e-17 
   9932.605   1.549e-17  1.575e-17 
   9934.151  -8.898e-18  2.012e-17 
   9935.698   4.177e-17  2.649e-17 
   9937.243  -7.055e-18  3.187e-17 
    9938.79   6.881e-19  3.709e-17 
   9940.337  -2.991e-17  4.137e-17 
   9941.882  -1.209e-17  4.311e-17 
   9943.429   4.216e-17  4.216e-17 
   9944.975   2.682e-17  3.854e-17 
   9946.521   1.038e-17   3.17e-17 
   9948.067  -2.322e-17  2.585e-17 
   9949.614  -2.697e-17  2.706e-17 
    9951.16   2.159e-17  3.202e-17 
   9952.706   5.201e-17  3.553e-17 
   9954.253   5.503e-17  3.722e-17 
   9955.798   5.684e-17  3.747e-17 
   9957.345   1.816e-17  3.513e-17 
   9958.891   3.349e-17  3.275e-17 
   9960.437    2.06e-17  2.914e-17 
   9961.984  -1.372e-17  2.261e-17 
   9963.529   6.618e-18  1.803e-17 
   9965.076   1.455e-17  1.818e-17 
   9966.621   1.421e-17  2.048e-17 
   9968.168   1.937e-17  2.181e-17 
   9969.715   4.635e-17  2.243e-17 
    9971.26   1.974e-17   2.09e-17 
   9972.807    1.41e-17  1.841e-17 
   9974.352  -3.409e-18  1.674e-17 
   9975.899   2.256e-17   1.65e-17 
   9977.444   1.113e-17  1.549e-17 
   9978.991   8.111e-19  1.419e-17 
   9980.537   7.814e-18   1.34e-17 
   9982.083   2.894e-17   1.34e-17 
   9983.629   1.739e-17  1.325e-17 
   9985.175   1.473e-17  1.295e-17 
   9986.721  -1.916e-19  1.293e-17 
   9988.268  -7.967e-18  1.297e-17 
   9989.813  -4.922e-18  1.315e-17 
   9991.359   8.608e-18  1.406e-17 
   9992.905   2.705e-18  1.618e-17 
   9994.451  -1.879e-17  1.878e-17 
   9995.997   1.188e-17  2.123e-17 
   9997.543   1.594e-17  2.159e-17 
    9999.09   2.225e-18  2.065e-17 
  10000.635   1.022e-17  1.843e-17 
  10002.181  -7.497e-20  1.719e-17 
  10003.727  -2.966e-17  1.988e-17 
  10005.273  -4.857e-17  2.944e-17 
  10006.819   3.987e-17  4.152e-17 
  10008.365   4.826e-17  4.882e-17 
  10009.911   5.141e-17  5.058e-17 
  10011.457   7.503e-17  4.682e-17 
  10013.003   2.253e-19  3.609e-17 
  10014.548  -2.409e-17   2.43e-17 
  10016.095  -3.073e-18  1.999e-17 
  10017.641  -4.929e-18   2.19e-17 
  10019.186  -2.781e-17  2.671e-17 
  10020.732   1.308e-17  3.068e-17 
  10022.278   6.183e-18   3.14e-17 
  10023.824   6.265e-18  2.949e-17 
  10025.369   7.286e-18  2.406e-17 
  10026.916   2.846e-17  1.847e-17 
  10028.462   -1.51e-18  1.596e-17 
  10030.007  -3.941e-18  1.557e-17 
  10031.553  -1.032e-17  1.556e-17 
  10033.099   1.774e-17  1.614e-17 
  10034.645   2.498e-18   1.62e-17 
  10036.191   1.314e-17  1.813e-17 
  10037.736   8.262e-18  2.093e-17 
  10039.282   1.228e-17  2.259e-17 
  10040.828  -1.151e-17  2.253e-17 
  10042.374   2.878e-17  2.142e-17 
  10043.919    1.64e-18  1.787e-17 
  10045.465   1.719e-17  1.584e-17 
  10047.011  -2.273e-18    1.5e-17 
  10048.556   2.431e-18  1.504e-17 
  10050.103    4.42e-17  1.609e-17 
  10051.648    3.57e-18  1.677e-17 
  10053.194   3.251e-17  2.099e-17 
   10054.74   8.688e-18  2.622e-17 
  10056.285   2.904e-17  2.938e-17 
  10057.831  -3.478e-19  2.981e-17 
  10059.376    5.09e-17  2.846e-17 
  10060.922    2.76e-17   2.47e-17 
  10062.467  -4.705e-18  2.214e-17 
  10064.013  -2.235e-17  2.268e-17 
   10065.56   3.298e-17  2.499e-17 
  10067.105   1.721e-17  2.509e-17 
  10068.651   5.482e-18  2.374e-17 
  10070.196  -4.384e-18  2.173e-17 
  10071.742  -4.526e-18   1.95e-17 
  10073.287  -3.436e-18  1.922e-17 
  10074.833  -2.766e-17  2.478e-17 
  10076.379   1.212e-17  3.556e-17 
  10077.924    8.37e-17  4.241e-17 
   10079.47   4.924e-17  4.394e-17 
  10081.015   5.287e-17  4.121e-17 
  10082.561   1.985e-17  3.201e-17 
  10084.107   2.345e-17  2.278e-17 
  10085.652  -2.544e-18  1.885e-17 
  10087.197  -7.291e-18  1.786e-17 
  10088.742   1.517e-17  1.805e-17 
  10090.288   1.928e-17  1.859e-17 
  10091.833   2.196e-17  1.891e-17 
  10093.379  -2.787e-18  1.907e-17 
  10094.925   3.043e-17  2.022e-17 
   10096.47  -1.926e-17  2.403e-17 
  10098.016   -2.79e-17  2.956e-17 
  10099.561   2.466e-17  3.338e-17 
  10101.107    1.98e-17  3.361e-17 
  10102.652   4.754e-17  3.101e-17 
  10104.197  -5.153e-18  2.433e-17 
  10105.743   2.853e-18  2.003e-17 
  10107.288   2.594e-17  1.948e-17 
  10108.834   2.456e-17  1.951e-17 
  10110.379  -1.048e-17  1.893e-17 
  10111.924   1.886e-17  1.992e-17 
   10113.47  -7.817e-18  2.024e-17 
  10115.015  -8.903e-18  2.187e-17 
  10116.561  -1.159e-17  2.978e-17 
  10118.105  -2.597e-17  4.342e-17 
  10119.651   4.321e-17  5.143e-17 
  10121.196   5.319e-17  5.289e-17 
  10122.742   3.134e-18  4.932e-17 
  10124.287   9.422e-18   3.72e-17 
  10125.832  -6.059e-17  2.609e-17 
  10127.378   6.721e-18  2.381e-17 
  10128.923   5.579e-18  2.335e-17 
  10130.468   9.612e-18  2.334e-17 
  10132.014   1.014e-17  2.292e-17 
  10133.559    1.62e-17   2.23e-17 
  10135.104   -2.39e-17  2.131e-17 
  10136.649   1.033e-17  2.327e-17 
  10138.195  -1.049e-17  2.432e-17 
  10139.739   1.855e-17  2.595e-17 
  10141.285  -1.657e-17  2.664e-17 
   10142.83   3.899e-17   2.84e-17 
  10144.375   4.822e-17  2.916e-17 
  10145.921   6.117e-18  3.176e-17 
  10147.465  -1.783e-17  3.811e-17 
  10149.011   3.433e-18  4.102e-17 
  10150.556   1.071e-18  4.172e-17 
  10152.101   1.037e-17  4.048e-17 
  10153.647   2.579e-18  3.607e-17 
  10155.191   5.961e-19  3.352e-17 
  10156.737  -3.718e-17  3.264e-17 
  10158.281   1.815e-17  3.268e-17 
  10159.827  -8.449e-18  3.118e-17 
  10161.372   7.634e-18  3.172e-17 
  10162.917   5.883e-18  3.263e-17 
  10164.462  -4.109e-17  3.863e-17 
  10166.007  -2.342e-17   5.41e-17 
  10167.552   8.731e-18  6.322e-17 
  10169.098   5.744e-17  6.493e-17 
  10170.642   5.473e-17  6.108e-17 
  10172.188  -6.329e-17  4.576e-17 
  10173.732  -9.734e-18  3.393e-17 
  10175.277  -2.823e-18  3.366e-17 
  10176.822   4.452e-17  3.608e-17 
  10178.367  -2.626e-17  3.615e-17 
  10179.913    3.48e-17  3.604e-17 
  10181.457   2.967e-17   3.37e-17 
  10183.003  -6.253e-17  3.813e-17 
  10184.547   2.604e-17   4.92e-17 
  10186.092   9.482e-17  5.371e-17 
  10187.637   5.806e-17  5.338e-17 
  10189.182  -3.784e-21  4.778e-17 
  10190.727  -1.879e-17  3.589e-17 
  10192.272   5.444e-18  3.134e-17 
  10193.817  -1.008e-19  3.008e-17 
  10195.361   1.526e-18  3.113e-17 
  10196.907  -6.043e-17   3.59e-17 
  10198.452   2.436e-17  4.172e-17 
  10199.996  -5.886e-17  4.249e-17 
  10201.541  -3.107e-17  4.403e-17 
  10203.086   4.685e-17  4.731e-17 
  10204.631   -3.37e-19   5.41e-17 
  10206.175    1.59e-17  6.301e-17 
   10207.72   3.838e-17  6.498e-17 
  10209.266  -1.458e-18  6.121e-17 
   10210.81   6.799e-17  5.263e-17 
  10212.355  -5.797e-17  3.668e-17 
  10213.899  -3.101e-17  3.171e-17 
  10215.444   5.001e-17  3.225e-17 
   10216.99  -6.512e-19  3.149e-17 
  10218.534  -4.072e-17  3.517e-17 
  10220.079   1.046e-16  4.717e-17 
  10221.623   8.946e-17  5.376e-17 
  10223.168   7.465e-18  5.532e-17 
  10224.712  -3.025e-17  5.691e-17 
  10226.257   6.418e-17  5.265e-17 
  10227.803   1.579e-17  4.785e-17 
  10229.347   4.533e-17  4.529e-17 
  10230.892  -1.088e-17  3.885e-17 
  10232.436   5.791e-17  3.398e-17 
  10233.981   3.872e-18  3.123e-17 
  10235.525   1.336e-17  3.026e-17 
   10237.07   4.927e-18  2.914e-17 
