# STATUS =
# OBJECT = 2017egm
# TELESCOPE = XLT
# INSTRUMENT = BFOSC
# DATE-OBS = 2017-06-07 14:01:57.00
# MJD = 57911.584687499795
# EXPTIME = 3000
# AIRMASS = --
# SLIT = --
# DISPERSER = --
# SOURCE = 2023NatAs.tmp...90L
# FILTER =
# RESOLUTION =
# FLUX_STANDARD =
# EXTINCTION_CORRECTED = --
# PHOTOMETRY_CALIBRATED =
# TELLURIC_CORRECTED =
# FLUX_UNITS = erg cm(-2) sec(-1) Ang(-1)
# WAVE_UNITS = Angstrom
# QUALITY = --
# MIN_WAVE = 3711.4016
# MAX_WAVE = 8779.2871
# COMMENT = --
 Wavelength            Flux 
  3714.1558  6.66485503e-15 
  3716.9102  3.80803694e-15 
  3719.6643  2.82596005e-15 
  3722.4187  8.20689111e-16 
  3725.1729  2.74294192e-15 
  3727.9272  1.75628396e-15 
  3730.6816  2.05520199e-15 
  3733.4358  1.10766001e-15 
  3736.1902  4.66390994e-15 
  3738.9443  2.93844496e-15 
  3741.6987  1.87244701e-15 
  3744.4529  3.21735809e-15 
  3747.2073  3.02886107e-15 
  3749.9614  2.37097503e-15 
  3752.7158  2.77618606e-15 
  3755.4702  3.37968094e-15 
  3758.2244  3.17003605e-15 
  3760.9788   2.7376071e-15 
  3763.7329  2.39415895e-15 
  3766.4873  3.04599104e-15 
  3769.2415  2.48988808e-15 
  3771.9958    2.375765e-15 
    3774.75  2.54042291e-15 
  3777.5044  3.01424403e-15 
  3780.2588  2.73916098e-15 
  3783.0129  6.67407414e-15 
  3791.2759   2.6393949e-15 
    3794.03  2.04105696e-15 
  3796.7844  1.93304904e-15 
  3799.5386  3.01895608e-15 
   3802.293  2.21059209e-15 
  3805.0474  3.04874496e-15 
  3807.8015  2.89509106e-15 
  3810.5559  2.93028698e-15 
  3813.3101  2.85035798e-15 
  3816.0645  3.45057103e-15 
  3818.8186  3.39542305e-15 
   3821.573  1.89729493e-15 
  3824.3271  2.56269691e-15 
  3827.0815  2.79270807e-15 
  3829.8357  2.35324599e-15 
  3832.5901  2.28388691e-15 
  3835.3445  2.75461192e-15 
  3838.0986  2.46542894e-15 
   3840.853  2.51469598e-15 
  3843.6072   3.0299529e-15 
  3846.3616  3.10427199e-15 
  3849.1157  2.62445599e-15 
  3851.8701  2.82849903e-15 
  3854.6243  2.64432399e-15 
  3857.3787  2.06079304e-15 
  3860.1331  2.79147204e-15 
  3862.8872  3.03845308e-15 
  3865.6416  2.71647892e-15 
  3868.3958  2.56251205e-15 
  3871.1501  2.54645802e-15 
  3873.9043  2.67444004e-15 
  3876.6587  2.73169904e-15 
  3879.4128  2.62101005e-15 
  3882.1672  2.48117994e-15 
  3884.9216  2.37637994e-15 
  3887.6758   2.4060009e-15 
  3890.4302  1.98054303e-15 
  3893.1843  2.14864603e-15 
  3895.9387  2.67307505e-15 
  3898.6929  2.72827703e-15 
  3901.4473  2.43226993e-15 
  3904.2014     2.42376e-15 
  3906.9558    2.525005e-15 
  3909.7102  2.02144095e-15 
  3912.4644  2.45499095e-15 
  3915.2188  2.51980803e-15 
  3917.9729  2.25381597e-15 
  3920.7273  2.34750396e-15 
  3923.4814  2.37519007e-15 
  3926.2358  2.26843195e-15 
    3928.99  2.16333591e-15 
  3931.7444  2.55002996e-15 
  3934.4988  2.34988391e-15 
  3937.2529  2.15922293e-15 
  3940.0073  2.21434699e-15 
  3942.7615  2.37096804e-15 
  3945.5159  2.06548307e-15 
    3948.27  2.40654999e-15 
  3951.0244   2.8693599e-15 
  3953.7786  2.79084693e-15 
   3956.533  2.93149209e-15 
  3959.2874  2.34408703e-15 
  3962.0415  2.18471396e-15 
  3964.7959  2.49353794e-15 
    3967.55  2.56651894e-15 
  3970.3044  2.52883698e-15 
  3973.0586  2.60142305e-15 
   3975.813  2.48571792e-15 
  3978.5671  2.56872101e-15 
  3981.3215  2.54354698e-15 
  3984.0757   2.7615091e-15 
  3986.8301     2.55391e-15 
  3989.5845  2.18584899e-15 
  3992.3386  2.37600196e-15 
   3995.093  2.31564811e-15 
  3997.8472  2.45151007e-15 
  4000.6016  2.37426003e-15 
  4003.3557  2.40613007e-15 
  4006.1101  2.78497403e-15 
  4008.8643  2.71503706e-15 
  4011.6187  2.55224601e-15 
   4014.373    2.579955e-15 
  4017.1272    2.476729e-15 
  4019.8816  2.34773795e-15 
  4022.6357    2.243263e-15 
  4025.3901    2.516418e-15 
  4028.1443  2.38472703e-15 
  4030.8987  2.32039594e-15 
  4033.6528  2.18638198e-15 
  4036.4072  2.28705608e-15 
  4039.1616  2.32811897e-15 
  4041.9158  2.07762804e-15 
  4044.6702  2.24773406e-15 
  4047.4243  2.30729594e-15 
  4050.1787  2.24076002e-15 
  4052.9329  2.32115191e-15 
  4055.6873     2.08808e-15 
  4058.4414  1.93120696e-15 
  4061.1958   2.3061751e-15 
  4063.9502  2.33055292e-15 
  4066.7043  2.30530096e-15 
  4069.4587    2.220636e-15 
  4072.2129  2.09301799e-15 
  4074.9673  2.05455994e-15 
  4077.7214  2.37338801e-15 
  4080.4758  2.16727991e-15 
    4083.23  2.05671606e-15 
  4085.9844  2.03470994e-15 
  4088.7388  2.20370402e-15 
  4091.4929  2.15206593e-15 
  4094.2473  2.17180497e-15 
  4097.0015  2.12449204e-15 
  4099.7559  2.22860298e-15 
  4102.5103  2.22014006e-15 
  4105.2642  2.16658704e-15 
  4108.0186  2.12867405e-15 
  4110.7729  2.12631994e-15 
  4113.5273  2.17399095e-15 
  4116.2817  2.28590899e-15 
  4119.0356    2.380768e-15 
    4121.79  2.33214005e-15 
  4124.5444  2.31861293e-15 
  4127.2988  2.41597196e-15 
  4130.0527  2.13422191e-15 
  4132.8071  2.18635509e-15 
  4135.5615  2.22721405e-15 
  4138.3159  2.13003291e-15 
  4141.0703  2.25150908e-15 
  4143.8242  2.28659509e-15 
  4146.5786  2.16646506e-15 
   4149.333  2.43797597e-15 
  4152.0874    2.213526e-15 
  4154.8413   2.0305059e-15 
  4157.5957  2.22733094e-15 
  4160.3501  2.30582993e-15 
  4163.1045  2.38794491e-15 
  4165.8589  2.32257599e-15 
  4168.6128  2.03149904e-15 
  4171.3672  2.11743795e-15 
  4174.1216  2.20991192e-15 
   4176.876  2.24836002e-15 
  4179.6299  2.10596701e-15 
  4182.3843  2.13009792e-15 
  4185.1387  2.07348499e-15 
  4187.8931  1.92618596e-15 
  4190.6475  1.85414009e-15 
  4193.4014  2.07344708e-15 
  4196.1558  2.03176205e-15 
  4198.9102  1.95470598e-15 
  4201.6646  1.91415004e-15 
  4204.4185  1.99240593e-15 
  4207.1729  1.86928207e-15 
  4209.9272  1.98734703e-15 
  4212.6816  1.94697702e-15 
   4215.436  1.96320108e-15 
  4218.1899   2.0288491e-15 
  4220.9443  2.08355705e-15 
  4223.6987  2.04735296e-15 
  4226.4531  1.85429298e-15 
   4229.207  1.89837299e-15 
  4231.9614   1.8572739e-15 
  4234.7158  1.99818503e-15 
  4237.4702  1.98813498e-15 
  4240.2241  1.91998102e-15 
  4242.9785  1.81987591e-15 
  4245.7329  1.80101905e-15 
  4248.4873  1.88525796e-15 
  4251.2417   1.9417991e-15 
  4253.9956  1.88563192e-15 
    4256.75  1.93116397e-15 
  4259.5044  1.93240191e-15 
  4262.2588  2.04431592e-15 
  4265.0127  1.90366208e-15 
  4267.7671  1.61147002e-15 
  4270.5215  1.76797397e-15 
  4273.2759     1.91787e-15 
  4276.0303  1.89793593e-15 
  4278.7842  1.78597596e-15 
  4281.5386  1.79677605e-15 
   4284.293   1.9946421e-15 
  4287.0474  1.90904709e-15 
  4289.8013  1.74518698e-15 
  4292.5557  1.67837101e-15 
  4295.3101  1.81450297e-15 
  4298.0645  1.91547904e-15 
  4300.8188  1.86083292e-15 
  4303.5728  1.80057796e-15 
  4306.3271  1.92117597e-15 
  4309.0815  1.85533398e-15 
  4311.8359  1.70215199e-15 
  4314.5898  1.86729493e-15 
  4317.3442  1.85467605e-15 
  4320.0986  1.91030599e-15 
   4322.853    1.813333e-15 
  4325.6074  2.07225891e-15 
  4328.3613  1.97203098e-15 
  4331.1157    1.866529e-15 
  4333.8701  1.88958503e-15 
  4336.6245    1.844806e-15 
  4339.3784  1.81855793e-15 
  4342.1328  1.95080497e-15 
  4344.8872  2.03056201e-15 
  4347.6416  1.79840002e-15 
   4350.396  1.98471593e-15 
  4353.1499  1.96972493e-15 
  4355.9043  1.92463207e-15 
  4358.6587  2.08318394e-15 
  4361.4131  2.06188402e-15 
   4364.167  1.99023901e-15 
  4366.9214  1.97251104e-15 
  4369.6758  1.97771309e-15 
  4372.4302  1.98822794e-15 
  4375.1846  1.95826902e-15 
  4377.9385  1.92404699e-15 
  4380.6929  2.02752794e-15 
  4383.4473  1.90514905e-15 
  4386.2017  2.08859309e-15 
  4388.9556  1.97873101e-15 
    4391.71  2.01481991e-15 
  4394.4644  1.99003805e-15 
  4397.2188  1.86317306e-15 
  4399.9731  1.95003798e-15 
  4402.7271  2.00197804e-15 
  4405.4814  2.02974293e-15 
  4408.2358  2.08089208e-15 
  4410.9902  2.07232794e-15 
  4413.7441  2.07190209e-15 
  4416.4985  2.11100706e-15 
  4419.2529  1.96562296e-15 
  4422.0073  2.00388895e-15 
  4424.7617  2.03378392e-15 
  4427.5156  2.04051995e-15 
    4430.27  1.95520806e-15 
  4433.0244  1.93693607e-15 
  4435.7788  1.91609292e-15 
  4438.5327  1.89089602e-15 
  4441.2871  1.95007101e-15 
  4444.0415  2.01534295e-15 
  4446.7959  1.87826507e-15 
  4449.5503   1.9826551e-15 
  4452.3042  1.92145401e-15 
  4455.0586    1.935566e-15 
   4457.813  1.88366596e-15 
  4460.5674  1.79283396e-15 
  4463.3213  1.80624101e-15 
  4466.0757  1.91289792e-15 
  4468.8301  1.88965004e-15 
  4471.5845  1.89766191e-15 
  4474.3389  1.75626998e-15 
  4477.0928  1.90781593e-15 
  4479.8472  1.96701104e-15 
  4482.6016  1.85182493e-15 
   4485.356  1.95198298e-15 
  4488.1099  1.94820902e-15 
  4490.8643  1.90508001e-15 
  4493.6187   1.8406909e-15 
   4496.373  1.86237791e-15 
  4499.1274  1.87511898e-15 
  4501.8813  1.86494802e-15 
  4504.6357  1.82506399e-15 
  4507.3901  1.70438604e-15 
  4510.1445  1.74195004e-15 
  4512.8984  1.77952199e-15 
  4515.6528  1.75817295e-15 
  4518.4072  1.84863607e-15 
  4521.1616  1.79018698e-15 
   4523.916  1.82766904e-15 
  4526.6699  1.83367196e-15 
  4529.4243  1.77084202e-15 
  4532.1787  1.86399108e-15 
  4534.9331  1.79080108e-15 
   4537.687  1.71807303e-15 
  4540.4414  1.81605494e-15 
  4543.1958  1.78785002e-15 
  4545.9502  1.69099805e-15 
  4548.7046  1.93686302e-15 
  4551.4585  1.85870792e-15 
  4554.2129  1.80259496e-15 
  4556.9673  1.76404998e-15 
  4559.7217  1.82403294e-15 
  4562.4756  1.81294104e-15 
    4565.23  1.88400096e-15 
  4567.9844    1.826008e-15 
  4570.7388  1.72495401e-15 
  4573.4927   1.8347011e-15 
  4576.2471  1.85751001e-15 
  4579.0015  1.72045404e-15 
  4581.7559   1.7905889e-15 
  4584.5103  1.74502202e-15 
  4587.2642  1.63992196e-15 
  4590.0186  1.65491095e-15 
  4592.7729  1.76794898e-15 
  4595.5273  1.75059296e-15 
  4598.2813  1.76096604e-15 
  4601.0356  1.80205201e-15 
    4603.79  1.81575997e-15 
  4606.5444  1.77731399e-15 
  4609.2988  1.82924494e-15 
  4612.0527  1.87583705e-15 
  4614.8071  1.81150998e-15 
  4617.5615  1.86598796e-15 
  4620.3159  1.89391697e-15 
  4623.0698  1.80192898e-15 
  4625.8242  1.82312492e-15 
  4628.5786  1.80214793e-15 
   4631.333  1.77360705e-15 
  4634.0874  1.92450693e-15 
  4636.8413  1.89964397e-15 
  4639.5957  1.89868597e-15 
  4642.3501  1.90186298e-15 
  4645.1045  1.89670709e-15 
  4647.8584  1.87910702e-15 
  4650.6128  1.89292594e-15 
  4653.3672  1.85248498e-15 
  4656.1216  1.94397195e-15 
   4658.876   1.9092741e-15 
  4661.6299  1.91559296e-15 
  4664.3843  2.02321591e-15 
  4667.1387  2.13566102e-15 
  4669.8931   2.0038989e-15 
   4672.647  2.05978296e-15 
  4675.4014  1.96857403e-15 
  4678.1558   1.9860841e-15 
  4680.9102  1.94413098e-15 
  4683.6646  1.96069302e-15 
  4686.4185  1.98560002e-15 
  4689.1729  2.02601493e-15 
  4691.9272  2.05815009e-15 
  4694.6816   2.0073711e-15 
  4697.4355  2.10657708e-15 
  4700.1899  2.08260308e-15 
  4702.9443   2.0640141e-15 
  4705.6987  2.12225397e-15 
  4708.4531  2.17928893e-15 
   4711.207  2.17893699e-15 
  4713.9614    2.132999e-15 
  4716.7158  2.06656303e-15 
  4719.4702   2.0942771e-15 
  4722.2241  2.10331304e-15 
  4724.9785  2.10993408e-15 
  4727.7329  2.08842601e-15 
  4730.4873  2.06577593e-15 
  4733.2417  2.07863092e-15 
  4735.9956  2.12354802e-15 
    4738.75  2.04508101e-15 
  4741.5044  2.06214893e-15 
  4744.2588  2.11392806e-15 
  4747.0127   2.1178009e-15 
  4749.7671  2.08781107e-15 
  4752.5215  1.87961905e-15 
  4755.2759  1.90508001e-15 
  4758.0303  2.02069705e-15 
  4760.7842  1.95637696e-15 
  4763.5386  1.94460596e-15 
   4766.293  1.91784099e-15 
  4769.0474  1.93970799e-15 
  4771.8013  1.96258995e-15 
  4774.5557    1.966452e-15 
  4777.3101  1.99324492e-15 
  4780.0645  2.04176995e-15 
  4782.8188  1.96384906e-15 
  4785.5728  1.88734505e-15 
  4788.3271    1.808845e-15 
  4791.0815  1.87163492e-15 
  4793.8359  1.92522796e-15 
  4796.5898  1.83627807e-15 
  4799.3442   2.0131881e-15 
  4802.0986   1.9095839e-15 
   4804.853  1.71735295e-15 
  4807.6074  1.74260395e-15 
  4810.3613  1.84729394e-15 
  4813.1157  1.78343401e-15 
  4815.8701  1.79489098e-15 
  4818.6245  1.81327795e-15 
  4821.3784   1.7811521e-15 
  4824.1328  1.83011993e-15 
  4826.8872  1.80859195e-15 
  4829.6416  1.80861397e-15 
   4832.396  1.83246409e-15 
  4835.1499   1.8531931e-15 
  4837.9043  1.85544304e-15 
  4840.6587  1.82806502e-15 
  4843.4131  1.84821001e-15 
   4846.167   1.7838751e-15 
  4848.9214  1.84353396e-15 
  4851.6758  1.79061791e-15 
  4854.4302  1.82040806e-15 
  4857.1846  1.71007704e-15 
  4859.9385  1.77920605e-15 
  4862.6929  1.81047406e-15 
  4865.4473  1.88968794e-15 
  4868.2017  1.75119297e-15 
  4870.9556  1.81979608e-15 
    4873.71  1.83754904e-15 
  4876.4644  1.79247397e-15 
  4879.2188  1.74967795e-15 
  4881.9731  1.76232595e-15 
  4884.7271  1.73803897e-15 
  4887.4814  1.72447597e-15 
  4890.2358  1.82661194e-15 
  4892.9902  1.82824692e-15 
  4895.7441  1.68986895e-15 
  4898.4985  1.68839003e-15 
  4901.2529  1.72160304e-15 
  4904.0073  1.72139298e-15 
  4906.7612  1.64558702e-15 
  4909.5156  1.71867199e-15 
    4912.27  1.76551799e-15 
  4915.0244  1.81709891e-15 
  4917.7788  1.88551101e-15 
  4920.5327  1.76638398e-15 
  4923.2871  1.78037495e-15 
  4926.0415    1.687579e-15 
  4928.7959    1.679482e-15 
  4931.5498  1.72267496e-15 
  4934.3042  1.70500596e-15 
  4937.0586  1.73857197e-15 
   4939.813  1.80994106e-15 
  4942.5674  1.69868297e-15 
  4945.3213  1.67528304e-15 
  4948.0757  1.69409596e-15 
  4950.8301  1.68745597e-15 
  4953.5845  1.80611395e-15 
  4956.3384  1.71061904e-15 
  4959.0928  1.71417297e-15 
  4961.8472  1.74862699e-15 
  4964.6016  1.79738507e-15 
   4967.356  1.82891206e-15 
  4970.1099  1.81439095e-15 
  4972.8643  1.73059101e-15 
  4975.6187  1.73524895e-15 
   4978.373  1.71373495e-15 
   4981.127  1.73563097e-15 
  4983.8813  1.65994201e-15 
  4986.6357  1.75930395e-15 
  4989.3901  1.76136997e-15 
  4992.1445  1.66906296e-15 
  4994.8984  1.74459099e-15 
  4997.6528  1.76255401e-15 
  5000.4072  1.70504895e-15 
  5003.1616  1.71630104e-15 
  5005.9155  1.74032003e-15 
  5008.6699  1.68330603e-15 
  5011.4243  1.71957101e-15 
  5014.1787  1.70819102e-15 
  5016.9331  1.62085303e-15 
   5019.687  1.55358199e-15 
  5022.4414  1.63582603e-15 
  5025.1958  1.65901398e-15 
  5027.9502  1.65377603e-15 
  5030.7041  1.59020801e-15 
  5033.4585  1.54291901e-15 
  5036.2129  1.64229503e-15 
  5038.9673  1.69725995e-15 
  5041.7217  1.61390005e-15 
  5044.4756  1.55198395e-15 
    5047.23  1.57480101e-15 
  5049.9844  1.60483595e-15 
  5052.7388  1.59856695e-15 
  5055.4927  1.66518197e-15 
  5058.2471  1.58453702e-15 
  5061.0015    1.595717e-15 
  5063.7559  1.60148202e-15 
  5066.5103  1.56647404e-15 
  5069.2642  1.64984199e-15 
  5072.0186  1.67904504e-15 
  5074.7729  1.67549205e-15 
  5077.5273    1.631235e-15 
  5080.2813  1.56868395e-15 
  5083.0356    1.575595e-15 
    5085.79  1.60482399e-15 
  5088.5444  1.63035801e-15 
  5091.2988  1.55253103e-15 
  5094.0527  1.56631702e-15 
  5096.8071    1.593626e-15 
  5099.5615  1.55539199e-15 
  5102.3159  1.51144199e-15 
  5105.0698  1.60602995e-15 
  5107.8242  1.63082504e-15 
  5110.5786     1.59862e-15 
   5113.333  1.60018796e-15 
  5116.0874  1.62478696e-15 
  5118.8413  1.58526695e-15 
  5121.5957  1.50177703e-15 
  5124.3501  1.52408205e-15 
  5127.1045  1.61956501e-15 
  5129.8584  1.56309999e-15 
  5132.6128  1.54227304e-15 
  5135.3672  1.55046702e-15 
  5138.1216  1.48213105e-15 
   5140.876  1.55695699e-15 
  5143.6299  1.58577898e-15 
  5146.3843  1.50522699e-15 
  5149.1387  1.60038003e-15 
  5151.8931  1.61268498e-15 
   5154.647  1.52809201e-15 
  5157.4014    1.583033e-15 
  5160.1558  1.57332103e-15 
  5162.9102  1.59371896e-15 
  5165.6646  1.53049695e-15 
  5168.4185  1.45876004e-15 
  5171.1729  1.50030404e-15 
  5173.9272    1.559392e-15 
  5176.6816  1.58659499e-15 
  5179.4355  1.57428305e-15 
  5182.1899  1.55920004e-15 
  5184.9443  1.53037297e-15 
  5187.6987  1.55387697e-15 
  5190.4531  1.59745999e-15 
   5193.207  1.55841696e-15 
  5195.9614  1.55060996e-15 
  5198.7158  1.60640804e-15 
  5201.4702    1.573027e-15 
  5204.2241  1.55840499e-15 
  5206.9785  1.56350699e-15 
  5209.7329  1.52574605e-15 
  5212.4873  1.59142001e-15 
  5215.2417  1.57773397e-15 
  5217.9956  1.55659605e-15 
    5220.75  1.58553503e-15 
  5223.5044    1.541435e-15 
  5226.2588  1.46567595e-15 
  5229.0127  1.50927105e-15 
  5231.7671  1.51877401e-15 
  5234.5215  1.53928598e-15 
  5237.2759    1.598168e-15 
  5240.0298  1.62488204e-15 
  5242.7842  1.62817901e-15 
  5245.5386  1.61283099e-15 
   5248.293  1.61851998e-15 
  5251.0474    1.591735e-15 
  5253.8013  1.55973896e-15 
  5256.5557  1.58113904e-15 
  5259.3101    1.589075e-15 
  5262.0645  1.56389197e-15 
  5264.8184  1.52418804e-15 
  5267.5728  1.53577799e-15 
  5270.3271  1.49135503e-15 
  5273.0815    1.542276e-15 
  5275.8359  1.53359497e-15 
  5278.5898  1.54548795e-15 
  5281.3442  1.52471997e-15 
  5284.0986  1.56762802e-15 
   5286.853  1.49634098e-15 
  5289.6069  1.51775302e-15 
  5292.3613  1.52679404e-15 
  5295.1157  1.45850698e-15 
  5297.8701  1.48906105e-15 
  5300.6245  1.53605804e-15 
  5303.3784  1.43850896e-15 
  5306.1328  1.52904101e-15 
  5308.8872  1.47655302e-15 
  5311.6416  1.45022597e-15 
  5314.3955  1.47332201e-15 
  5317.1499  1.49873501e-15 
  5319.9043  1.49708997e-15 
  5322.6587  1.43403398e-15 
  5325.4131  1.44600404e-15 
   5328.167  1.48824896e-15 
  5330.9214  1.38511105e-15 
  5333.6758  1.37820699e-15 
  5336.4302  1.40335603e-15 
  5339.1841  1.41793305e-15 
  5341.9385  1.47175098e-15 
  5344.6929  1.42050496e-15 
  5347.4473  1.40263002e-15 
  5350.2017  1.46378802e-15 
  5352.9556  1.39938398e-15 
    5355.71  1.39908296e-15 
  5358.4644  1.44088701e-15 
  5361.2188  1.42940103e-15 
  5363.9727  1.43451096e-15 
  5366.7271  1.42074403e-15 
  5369.4814  1.37502098e-15 
  5372.2358  1.36321705e-15 
  5374.9902  1.34292405e-15 
  5377.7441  1.35312402e-15 
  5380.4985  1.37241996e-15 
  5383.2529  1.36589505e-15 
  5386.0073  1.45576196e-15 
  5388.7612  1.47680004e-15 
  5391.5156  1.43587797e-15 
    5394.27  1.38238202e-15 
  5397.0244  1.32956199e-15 
  5399.7788  1.37482701e-15 
  5402.5327    1.417644e-15 
  5405.2871  1.39612004e-15 
  5408.0415  1.42330302e-15 
  5410.7959  1.36162198e-15 
  5413.5498  1.30801602e-15 
  5416.3042    1.341821e-15 
  5419.0586  1.38953595e-15 
   5421.813  1.39230395e-15 
  5424.5674  1.37293601e-15 
  5427.3213  1.35832205e-15 
  5430.0757  1.40786204e-15 
  5432.8301  1.42808304e-15 
  5435.5845  1.34448904e-15 
  5438.3384  1.32792701e-15 
  5441.0928  1.31593503e-15 
  5443.8472  1.38680903e-15 
  5446.6016  1.40559305e-15 
   5449.356  1.39171198e-15 
  5452.1099  1.32538199e-15 
  5454.8643  1.36441295e-15 
  5457.6187  1.39593899e-15 
   5460.373  1.35287202e-15 
   5463.127  1.34982599e-15 
  5465.8813  1.38015199e-15 
  5468.6357  1.33264604e-15 
  5471.3901  1.33739101e-15 
  5474.1445  1.32408995e-15 
  5476.8984  1.33071004e-15 
  5479.6528  1.41477605e-15 
  5482.4072  1.32451103e-15 
  5485.1616  1.33859698e-15 
  5487.9155  1.28692903e-15 
  5490.6699  1.35419096e-15 
  5493.4243  1.39803804e-15 
  5496.1787  1.34939104e-15 
  5498.9331  1.38897797e-15 
   5501.687  1.33246499e-15 
  5504.4414  1.25898403e-15 
  5507.1958  1.30677797e-15 
  5509.9502  1.36308205e-15 
  5512.7041    1.332856e-15 
  5515.4585  1.31783101e-15 
  5518.2129  1.31663595e-15 
  5520.9673  1.32845598e-15 
  5523.7217  1.27109999e-15 
  5526.4756    1.312192e-15 
    5529.23  1.36468305e-15 
  5531.9844  1.31557896e-15 
  5534.7388  1.32746199e-15 
  5537.4927  1.26767904e-15 
  5540.2471  1.24940695e-15 
  5543.0015  1.25683702e-15 
  5545.7559  1.26950196e-15 
  5548.5103  1.32378195e-15 
  5551.2642  1.32272104e-15 
  5554.0186  1.33099602e-15 
  5556.7729  1.27859105e-15 
  5559.5273  1.29647996e-15 
  5562.2813  1.31127402e-15 
  5565.0356  1.26910904e-15 
    5567.79  1.22523199e-15 
  5570.5444  1.29383997e-15 
  5573.2988  1.29552196e-15 
  5576.0527  1.24993698e-15 
  5578.8071  1.25780803e-15 
  5581.5615  1.31804298e-15 
  5584.3159  1.24053904e-15 
  5587.0698  1.21837198e-15 
  5589.8242  1.29398195e-15 
  5592.5786    1.318155e-15 
   5595.333    1.250474e-15 
  5598.0869  1.28750099e-15 
  5600.8413  1.22515597e-15 
  5603.5957  1.18734103e-15 
  5606.3501  1.22248401e-15 
  5609.1045  1.24494997e-15 
  5611.8584    1.256853e-15 
  5614.6128  1.27741505e-15 
  5617.3672  1.20637005e-15 
  5620.1216  1.23563705e-15 
  5622.8755  1.25624102e-15 
  5625.6299  1.23166002e-15 
  5628.3843  1.23665497e-15 
  5631.1387  1.25716101e-15 
  5633.8931  1.21288596e-15 
   5636.647  1.15326405e-15 
  5639.4014  1.15286002e-15 
  5642.1558  1.20813199e-15 
  5644.9102  1.22451297e-15 
  5647.6641  1.22324898e-15 
  5650.4185  1.20414299e-15 
  5653.1729  1.15387603e-15 
  5655.9272  1.19785303e-15 
  5658.6816    1.147846e-15 
  5661.4355  1.16017605e-15 
  5664.1899  1.13094897e-15 
  5666.9443  1.17004801e-15 
  5669.6987  1.17460801e-15 
  5672.4526  1.18373405e-15 
   5675.207  1.20966395e-15 
  5677.9614  1.16721595e-15 
  5680.7158  1.13466204e-15 
  5683.4702  1.13151203e-15 
  5686.2241  1.11674105e-15 
  5688.9785  1.16543602e-15 
  5691.7329  1.18079495e-15 
  5694.4873  1.15679501e-15 
  5697.2412  1.21272905e-15 
  5699.9956  1.24086896e-15 
    5702.75  1.19882595e-15 
  5705.5044  1.22529203e-15 
  5708.2588  1.22116401e-15 
  5711.0127  1.20107398e-15 
  5713.7671  1.18668003e-15 
  5716.5215  1.15133896e-15 
  5719.2759  1.14771895e-15 
  5722.0298  1.21806197e-15 
  5724.7842  1.18908105e-15 
  5727.5386  1.20675503e-15 
   5730.293    1.139576e-15 
  5733.0474  1.16482002e-15 
  5735.8013  1.16740495e-15 
  5738.5557  1.21499899e-15 
  5741.3101  1.21911102e-15 
  5744.0645  1.19424795e-15 
  5746.8184  1.16163602e-15 
  5749.5728  1.19344496e-15 
  5752.3271  1.21056096e-15 
  5755.0815  1.21943797e-15 
  5757.8359  1.17718098e-15 
  5760.5898  1.19065304e-15 
  5763.3442  1.17816798e-15 
  5766.0986  1.15183701e-15 
   5768.853  1.23686705e-15 
  5771.6069  1.19878403e-15 
  5774.3613  1.16432704e-15 
  5777.1157  1.21834202e-15 
  5779.8701  1.17830499e-15 
  5782.6245  1.15885002e-15 
  5785.3784  1.18052898e-15 
  5788.1328  1.15726596e-15 
  5790.8872  1.16611301e-15 
  5793.6416  1.20037496e-15 
  5796.3955    1.140617e-15 
  5799.1499  1.11805099e-15 
  5801.9043  1.15917401e-15 
  5804.6587  1.24805096e-15 
  5807.4131  1.19922501e-15 
   5810.167  1.18377397e-15 
  5812.9214  1.17544001e-15 
  5815.6758  1.14439604e-15 
  5818.4302  1.19256701e-15 
  5821.1841  1.22453499e-15 
  5823.9385  1.17372201e-15 
  5826.6929  1.21851598e-15 
  5829.4473    1.206009e-15 
  5832.2017  1.12726702e-15 
  5834.9556    1.154025e-15 
    5837.71  1.15628499e-15 
  5840.4644  1.12705198e-15 
  5843.2188  1.13760199e-15 
  5845.9727  1.16843198e-15 
  5848.7271  1.14608005e-15 
  5851.4814  1.14474904e-15 
  5854.2358  1.15922197e-15 
  5856.9902  1.16107295e-15 
  5859.7441  1.18822004e-15 
  5862.4985  1.18185205e-15 
  5865.2529  1.17130596e-15 
  5868.0073  1.15959202e-15 
  5870.7612  1.17774796e-15 
  5873.5156  1.20361995e-15 
    5876.27  1.19986304e-15 
  5879.0244  1.17287297e-15 
  5881.7788  1.10386795e-15 
  5884.5327  1.08216898e-15 
  5887.2871  1.12346204e-15 
  5890.0415  1.08103903e-15 
  5892.7959  1.03702805e-15 
  5895.5498  1.07693103e-15 
  5898.3042    1.091129e-15 
  5901.0586  1.09407604e-15 
   5903.813  1.10119101e-15 
  5906.5674  1.15678803e-15 
  5909.3213  1.16990804e-15 
  5912.0757  1.12657701e-15 
  5914.8301  1.14928003e-15 
  5917.5845  1.19784202e-15 
  5920.3384  1.10946398e-15 
  5923.0928  1.11630705e-15 
  5925.8472  1.19199897e-15 
  5928.6016  1.12052898e-15 
  5931.3555  1.11664396e-15 
  5934.1099  1.14017104e-15 
  5936.8643  1.16315803e-15 
  5939.6187  1.07463801e-15 
   5942.373  1.17804199e-15 
   5945.127  1.14405701e-15 
  5947.8813  1.13465897e-15 
  5950.6357  1.12452496e-15 
  5953.3901  1.15671296e-15 
   5956.144  1.09464598e-15 
  5958.8984  1.12784904e-15 
  5961.6528  1.13927996e-15 
  5964.4072    1.117257e-15 
  5967.1616  1.12425095e-15 
  5969.9155  1.18393395e-15 
  5972.6699  1.18720996e-15 
  5975.4243  1.15057197e-15 
  5978.1787  1.09356104e-15 
  5980.9326  1.13814398e-15 
   5983.687  1.12084799e-15 
  5986.4414  1.12025295e-15 
  5989.1958  1.17932397e-15 
  5991.9502  1.10254202e-15 
  5994.7041  1.12880396e-15 
  5997.4585    1.110536e-15 
  6000.2129  1.10882595e-15 
  6002.9673  1.16201697e-15 
  6005.7212  1.13301499e-15 
  6008.4756    1.099932e-15 
    6011.23  1.10866205e-15 
  6013.9844  1.08979301e-15 
  6016.7388  1.07901103e-15 
  6019.4927  1.05747204e-15 
  6022.2471  1.06440701e-15 
  6025.0015  1.10837999e-15 
  6027.7559  1.10597304e-15 
  6030.5098  1.05700204e-15 
  6033.2642  1.05760195e-15 
  6036.0186  1.06030695e-15 
  6038.7729  1.06178703e-15 
  6041.5273  1.10567996e-15 
  6044.2813  1.06842703e-15 
  6047.0356  1.06258896e-15 
    6049.79  1.10744497e-15 
  6052.5444  1.08162105e-15 
  6055.2983  1.09475197e-15 
  6058.0527  1.11804601e-15 
  6060.8071  1.08949899e-15 
  6063.5615  1.11736701e-15 
  6066.3159  1.06919201e-15 
  6069.0698  1.07311705e-15 
  6071.8242  1.09091904e-15 
  6074.5786  1.06721599e-15 
   6077.333  1.06967704e-15 
  6080.0869  1.07940204e-15 
  6082.8413  1.10152103e-15 
  6085.5957  1.07900203e-15 
  6088.3501  1.06181096e-15 
  6091.1045  1.02185801e-15 
  6093.8584  1.04725502e-15 
  6096.6128  1.05854004e-15 
  6099.3672  1.03045296e-15 
  6102.1216  9.96149498e-16 
  6104.8755  9.87322567e-16 
  6107.6299    1.028352e-15 
  6110.3843  1.04133405e-15 
  6113.1387  1.02287603e-15 
  6115.8931  1.00630098e-15 
   6118.647  1.03692704e-15 
  6121.4014  1.02641504e-15 
  6124.1558  1.00402595e-15 
  6126.9102  1.02377399e-15 
  6129.6641  1.03098997e-15 
  6132.4185  1.03178703e-15 
  6135.1729  1.02312496e-15 
  6137.9272  1.02025203e-15 
  6140.6816  9.89792198e-16 
  6143.4355  9.96244154e-16 
  6146.1899  1.01459597e-15 
  6148.9443  1.07820899e-15 
  6151.6987  1.07318905e-15 
  6154.4526  9.94927864e-16 
   6157.207  9.95803591e-16 
  6159.9614    1.034821e-15 
  6162.7158  1.03182303e-15 
  6165.4702  9.90617631e-16 
  6168.2241  9.79095654e-16 
  6170.9785  1.00249303e-15 
  6173.7329  1.01478899e-15 
  6176.4873  1.01791104e-15 
  6179.2412  9.92186548e-16 
  6181.9956  9.74252849e-16 
    6184.75  1.02153497e-15 
  6187.5044  9.41716831e-16 
  6190.2588  9.64704035e-16 
  6193.0127  1.04036398e-15 
  6195.7671  9.95863306e-16 
  6198.5215  9.84541652e-16 
  6201.2759  1.05234537e-15 
  6204.0298  1.05423129e-15 
  6206.7842  1.10310816e-15 
  6209.5386   1.0548547e-15 
   6212.293   9.9690611e-16 
  6215.0474  9.65947373e-16 
  6217.8013  9.91508075e-16 
  6220.5557  9.84358164e-16 
  6223.3101  9.67677332e-16 
  6226.0645  1.00976301e-15 
  6228.8184  9.55884728e-16 
  6231.5728  9.54391832e-16 
  6234.3271  9.64730822e-16 
  6237.0815  9.63955046e-16 
  6239.8359  9.89578216e-16 
  6242.5898  1.00683577e-15 
  6245.3442  9.97169749e-16 
  6248.0986   9.8057055e-16 
   6250.853  9.44627766e-16 
  6253.6069  9.46203141e-16 
  6256.3613  9.67146454e-16 
  6259.1157  9.53966092e-16 
  6261.8701  9.24673893e-16 
   6264.624  9.06175117e-16 
  6267.3784  9.52924665e-16 
  6270.1328  9.54437996e-16 
  6272.8872  9.18438672e-16 
  6275.6416  9.56954425e-16 
  6278.3955  9.49756021e-16 
  6281.1499  9.30431705e-16 
  6283.9043  9.15630334e-16 
  6286.6587  9.21121013e-16 
  6289.4126  9.37305589e-16 
   6292.167  9.22679236e-16 
  6294.9214  9.33771874e-16 
  6297.6758  9.73018828e-16 
  6300.4302  9.50253653e-16 
  6303.1841  9.14568366e-16 
  6305.9385  9.56901485e-16 
  6308.6929   9.3289943e-16 
  6311.4473  9.58601268e-16 
  6314.2012  9.10906961e-16 
  6316.9556  9.44737457e-16 
    6319.71  9.26160648e-16 
  6322.4644  9.12484877e-16 
  6325.2188  8.86249196e-16 
  6327.9727  9.44151839e-16 
  6330.7271   9.5863155e-16 
  6333.4814  9.48592092e-16 
  6336.2358  9.15139796e-16 
  6338.9897  8.97909134e-16 
  6341.7441  9.01282231e-16 
  6344.4985  8.87086488e-16 
  6347.2529  9.02238108e-16 
  6350.0073  9.01536659e-16 
  6352.7612  9.22832443e-16 
  6355.5156  9.31047181e-16 
    6358.27  9.01637138e-16 
  6361.0244  8.98187385e-16 
  6363.7783  9.08361944e-16 
  6366.5327  9.10950159e-16 
  6369.2871  8.98102469e-16 
  6372.0415  9.01863084e-16 
  6374.7959  9.12184075e-16 
  6377.5498  9.27185875e-16 
  6380.3042   8.8924314e-16 
  6383.0586   8.7506582e-16 
   6385.813  9.03222995e-16 
  6388.5669  8.84753601e-16 
  6391.3213    8.470339e-16 
  6394.0757  8.71595262e-16 
  6396.8301  8.66721434e-16 
  6399.5845  8.68638323e-16 
  6402.3384  8.84229605e-16 
  6405.0928  8.74534678e-16 
  6407.8472  8.96800156e-16 
  6410.6016    8.751474e-16 
  6413.3555  8.56144587e-16 
  6416.1099  8.99442899e-16 
  6418.8643  8.93264958e-16 
  6421.6187  8.14585709e-16 
   6424.373  8.59769676e-16 
   6427.127  9.13959773e-16 
  6429.8813  9.06574599e-16 
  6432.6357  8.96263243e-16 
  6435.3901   9.1467054e-16 
   6438.144   9.0929241e-16 
  6440.8984  9.04303174e-16 
  6443.6528  9.19090358e-16 
  6446.4072  8.89114179e-16 
  6449.1616  8.44661679e-16 
  6451.9155  8.65777204e-16 
  6454.6699  8.84672074e-16 
  6457.4243  8.39933805e-16 
  6460.1787   8.4149981e-16 
  6462.9326  8.41338609e-16 
   6465.687  8.12492797e-16 
  6468.4414  8.33176918e-16 
  6471.1958   8.2224331e-16 
  6473.9502  8.11328497e-16 
  6476.7041  8.13821315e-16 
  6479.4585  8.07301014e-16 
  6482.2129  8.11125315e-16 
  6484.9673  8.35246801e-16 
  6487.7212   8.0322218e-16 
  6490.4756  8.31209895e-16 
    6493.23   8.7350998e-16 
  6495.9844  8.22045316e-16 
  6498.7388  8.28257509e-16 
  6501.4927  8.42763213e-16 
  6504.2471  8.19749222e-16 
  6507.0015  8.19292989e-16 
  6509.7559  8.25510105e-16 
  6512.5098  8.49748111e-16 
  6515.2642  7.98271325e-16 
  6518.0186  7.78392891e-16 
  6520.7729  8.11239294e-16 
  6523.5273   8.3671381e-16 
  6526.2813  8.65148811e-16 
  6529.0356  8.30830213e-16 
    6531.79  7.88142399e-16 
  6534.5444  7.96159725e-16 
  6537.2983  8.26375984e-16 
  6540.0527  8.31548497e-16 
  6542.8071  8.01849722e-16 
  6545.5615  8.13503624e-16 
  6548.3159  8.24890394e-16 
  6551.0698  8.44038474e-16 
  6553.8242  8.35226526e-16 
  6556.5786  8.33244892e-16 
   6559.333  8.50297518e-16 
  6562.0869  8.30371174e-16 
  6564.8413  8.18461097e-16 
  6567.5957  8.33408687e-16 
  6570.3501  8.40093577e-16 
  6573.1045   8.6392469e-16 
  6575.8584  8.73824017e-16 
  6578.6128  8.89394547e-16 
  6581.3672  8.47067517e-16 
  6584.1216  8.33902825e-16 
  6586.8755  8.73330991e-16 
  6589.6299  8.25890475e-16 
  6592.3843  8.50336005e-16 
  6595.1387  8.94236929e-16 
  6597.8926  8.52724215e-16 
   6600.647  8.23341012e-16 
  6603.4014  8.11989077e-16 
  6606.1558  8.34746099e-16 
  6608.9102  8.50263213e-16 
  6611.6641  8.56485306e-16 
  6614.4185  8.96219727e-16 
  6617.1729  8.94043064e-16 
  6619.9272  8.43260686e-16 
  6622.6812  8.56456718e-16 
  6625.4355  8.41368891e-16 
  6628.1899  8.49572723e-16 
  6630.9443  8.53527096e-16 
  6633.6987  8.77565626e-16 
  6636.4526  8.58648522e-16 
   6639.207  8.57269817e-16 
  6641.9614  8.69356024e-16 
  6644.7158  8.68379395e-16 
  6647.4697   8.7491669e-16 
  6650.2241  9.10487785e-16 
  6652.9785  8.54056703e-16 
  6655.7329  8.51709204e-16 
  6658.4873  8.45090383e-16 
  6661.2412  8.40440384e-16 
  6663.9956  8.53027876e-16 
    6666.75  8.64337513e-16 
  6669.5044  8.37259722e-16 
  6672.2583  8.48872915e-16 
  6675.0127  8.93786942e-16 
  6677.7671  8.60079213e-16 
  6680.5215  8.87096123e-16 
  6683.2759   8.8181969e-16 
  6686.0298  8.67319122e-16 
  6688.7842  8.81291407e-16 
  6691.5386  8.45026379e-16 
   6694.293  8.44053879e-16 
  6697.0469  8.38195694e-16 
  6699.8013  8.64706237e-16 
  6702.5557  8.61826907e-16 
  6705.3101  8.81695865e-16 
  6708.0645  9.04487086e-16 
  6710.8184  9.12857148e-16 
  6713.5728   8.7394509e-16 
  6716.3271  8.19221891e-16 
  6719.0815  8.44888101e-16 
  6721.8354  8.36326927e-16 
  6724.5898  8.43870338e-16 
  6727.3442  8.73786112e-16 
  6730.0986  8.74679256e-16 
   6732.853  8.62940173e-16 
  6735.6069  8.52430559e-16 
  6738.3613  8.27759242e-16 
  6741.1157  8.43518025e-16 
  6743.8701  8.65829932e-16 
   6746.624  8.69861226e-16 
  6749.3784  8.92769338e-16 
  6752.1328  9.17519323e-16 
  6754.8872  9.91271435e-16 
  6757.6416  1.00824958e-15 
  6760.3955   9.7752822e-16 
  6763.1499   9.2097543e-16 
  6765.9043   9.3112352e-16 
  6768.6587  8.91597574e-16 
  6771.4126  8.62207331e-16 
   6774.167   8.9831084e-16 
  6776.9214   8.9177598e-16 
  6779.6758  9.41551977e-16 
  6782.4302  9.03373873e-16 
  6785.1841  8.90419034e-16 
  6787.9385  9.24173297e-16 
  6790.6929  9.00933995e-16 
  6793.4473  8.81800791e-16 
  6796.2012  8.70675225e-16 
  6798.9556  8.35240131e-16 
    6801.71  8.27501797e-16 
  6804.4644  8.64219458e-16 
  6807.2188  8.94017335e-16 
  6809.9727  8.79471397e-16 
  6812.7271  8.71924334e-16 
  6815.4814  8.76035461e-16 
  6818.2358  8.66358269e-16 
  6820.9897  8.87327628e-16 
  6823.7441  8.47268952e-16 
  6826.4985  8.22274439e-16 
  6829.2529  8.27938231e-16 
  6832.0073  8.70228045e-16 
  6834.7612  8.98767284e-16 
  6837.5156  8.60442061e-16 
    6840.27  8.71830843e-16 
  6843.0244  8.52878798e-16 
  6845.7783  8.07024087e-16 
  6848.5327  8.18590587e-16 
  6851.2871  8.42345149e-16 
  6854.0415  8.16463475e-16 
  6856.7959    8.193238e-16 
  6859.5498  8.27225823e-16 
  6862.3042   8.1771089e-16 
  6865.0586  8.42724779e-16 
   6867.813  9.08888799e-16 
  6870.5669  9.56496603e-16 
  6873.3213   9.0603578e-16 
  6876.0757  9.03737144e-16 
  6878.8301  8.62565943e-16 
  6881.5845  7.93398239e-16 
  6884.3384  8.24085237e-16 
  6887.0928  8.42118886e-16 
  6889.8472  8.51014479e-16 
  6892.6016  8.29011421e-16 
  6895.3555  8.58748578e-16 
  6898.1099  8.61513611e-16 
  6900.8643  8.17149678e-16 
  6903.6187  8.24551105e-16 
   6906.373  8.57240488e-16 
   6909.127  8.52787901e-16 
  6911.8813  8.51308875e-16 
  6914.6357  8.38044392e-16 
  6917.3901  8.31876351e-16 
   6920.144  8.33699272e-16 
  6922.8984  8.27454998e-16 
  6925.6528  8.44960628e-16 
  6928.4072  8.39384081e-16 
  6931.1611  8.19090177e-16 
  6933.9155  8.28371117e-16 
  6936.6699  8.14550663e-16 
  6939.4243  8.16020795e-16 
  6942.1787  8.14895088e-16 
  6944.9326  8.00099275e-16 
   6947.687  8.15263812e-16 
  6950.4414  8.32114262e-16 
  6953.1958  8.10344192e-16 
  6955.9497  7.54663316e-16 
  6958.7041  7.65041799e-16 
  6961.4585  7.73987949e-16 
  6964.2129  7.96824381e-16 
  6966.9673   7.9334747e-16 
  6969.7212  7.88157858e-16 
  6972.4756  7.67583692e-16 
    6975.23  7.53737297e-16 
  6977.9844  7.87882148e-16 
  6980.7383  7.78542075e-16 
  6983.4927  7.31273772e-16 
  6986.2471  7.65663786e-16 
  6989.0015  7.86061028e-16 
  6991.7559  7.71187764e-16 
  6994.5098  8.01711761e-16 
  6997.2642   7.6163355e-16 
  7000.0186  7.44268793e-16 
  7002.7729  7.39779994e-16 
  7005.5269  7.44387801e-16 
  7008.2813  7.48829324e-16 
  7011.0356  7.52630966e-16 
    7013.79  7.59818517e-16 
  7016.5444  7.62937981e-16 
  7019.2983  7.59707291e-16 
  7022.0527  7.60158337e-16 
  7024.8071  7.62247173e-16 
  7027.5615  7.61358847e-16 
  7030.3154  7.55065339e-16 
  7033.0698   7.4211177e-16 
  7035.8242   7.3454406e-16 
  7038.5786  7.33932132e-16 
   7041.333  7.22361874e-16 
  7044.0869  7.08651904e-16 
  7046.8413  7.12735821e-16 
  7049.5957  7.19776517e-16 
  7052.3501  7.13417576e-16 
   7055.104   7.0242653e-16 
  7057.8584  6.99355082e-16 
  7060.6128  7.02952166e-16 
  7063.3672  7.03369754e-16 
  7066.1216  6.99106637e-16 
  7068.8755  6.98787729e-16 
  7071.6299  7.09572735e-16 
  7074.3843  7.24321167e-16 
  7077.1387  7.32693187e-16 
  7079.8926  7.36286089e-16 
   7082.647  7.33493263e-16 
  7085.4014  7.20600151e-16 
  7088.1558  7.02441353e-16 
  7090.9102  6.93395147e-16 
  7093.6641  6.98333031e-16 
  7096.4185   7.0415273e-16 
  7099.1729  7.03073451e-16 
  7101.9272  7.01535186e-16 
  7104.6812  7.04026945e-16 
  7107.4355  7.00803244e-16 
  7110.1899   6.9097078e-16 
  7112.9443  6.85059601e-16 
  7115.6987  6.84494101e-16 
  7118.4526  6.93266186e-16 
   7121.207  7.05363828e-16 
  7123.9614  7.09677608e-16 
  7126.7158  7.03980835e-16 
  7129.4697    6.954843e-16 
  7132.2241  6.92612171e-16 
  7134.9785  6.93017899e-16 
  7137.7329  6.83034451e-16 
  7140.4873  6.65195461e-16 
  7143.2412   6.5871063e-16 
  7145.9956   6.6574328e-16 
    7148.75  6.76623841e-16 
  7151.5044  6.86455141e-16 
  7154.2583  6.88530001e-16 
  7157.0127  6.79625038e-16 
  7159.7671  6.69528776e-16 
  7162.5215  6.64192362e-16 
  7165.2759  6.61980124e-16 
  7168.0298  6.64913029e-16 
  7170.7842  6.70882229e-16 
  7173.5386  6.73071015e-16 
   7176.293  6.73135442e-16 
  7179.0469  6.79793121e-16 
  7181.8013  6.86768279e-16 
  7184.5557  6.93362059e-16 
  7187.3101  6.97085669e-16 
  7190.0645  6.99422686e-16 
  7192.8184  7.01372397e-16 
  7195.5728  6.93610293e-16 
  7198.3271   6.8003532e-16 
  7201.0815  6.68937917e-16 
  7203.8354  6.62727101e-16 
  7206.5898  6.59454378e-16 
  7209.3442  6.53476601e-16 
  7212.0986  6.47754735e-16 
   7214.853  6.43277266e-16 
  7217.6069  6.36234399e-16 
  7220.3613   6.2903086e-16 
  7223.1157  6.15336561e-16 
  7225.8701   5.9866097e-16 
   7228.624  5.99974348e-16 
  7231.3784    6.151905e-16 
  7234.1328   6.2721821e-16 
  7236.8872  6.38473689e-16 
  7239.6416  6.44619813e-16 
  7242.3955  6.42892184e-16 
  7245.1499  6.39111876e-16 
  7247.9043  6.35165867e-16 
  7250.6587  6.34303746e-16 
  7253.4126   6.3573629e-16 
   7256.167  6.33132776e-16 
  7258.9214  6.25424935e-16 
  7261.6758   6.1478673e-16 
  7264.4297  6.09087628e-16 
  7267.1841  6.13277212e-16 
  7269.9385  6.22714694e-16 
  7272.6929   6.3624001e-16 
  7275.4473  6.49497029e-16 
  7278.2012  6.52797546e-16 
  7280.9556  6.38315718e-16 
    7283.71  6.15477962e-16 
  7286.4644  6.08420643e-16 
  7289.2183  6.23075265e-16 
  7291.9727  6.46295138e-16 
  7294.7271  6.62951247e-16 
  7297.4814  6.66921926e-16 
  7300.2358  6.55364003e-16 
  7302.9897  6.37383028e-16 
  7305.7441  6.21207081e-16 
  7308.4985  6.08093794e-16 
  7311.2529  6.05016258e-16 
  7314.0068  6.14365332e-16 
  7316.7612  6.21624086e-16 
  7319.5156  6.18911781e-16 
    7322.27  6.22915494e-16 
  7325.0244  6.34802278e-16 
  7327.7783  6.32737264e-16 
  7330.5327  6.17513435e-16 
  7333.2871  6.03079094e-16 
  7336.0415  5.98513692e-16 
  7338.7954  6.11144012e-16 
  7341.5498  6.25971483e-16 
  7344.3042  6.27578093e-16 
  7347.0586  6.23670571e-16 
   7349.813  6.22333423e-16 
  7352.5669  6.21317302e-16 
  7355.3213  6.18753809e-16 
  7358.0757  6.18463383e-16 
  7360.8301  6.15013206e-16 
   7363.584  6.00815981e-16 
  7366.3384  5.90809716e-16 
  7369.0928  5.93115445e-16 
  7371.8472  5.91063402e-16 
  7374.6016  5.82715416e-16 
  7377.3555  5.82187503e-16 
  7380.1099  5.90046698e-16 
  7382.8643  5.96004569e-16 
  7385.6187  5.94251952e-16 
  7388.3726  5.89388712e-16 
   7391.127  5.87731069e-16 
  7393.8813  5.89765007e-16 
  7396.6357  5.92471965e-16 
  7399.3901  5.91464578e-16 
   7402.144  5.84043987e-16 
  7404.8984  5.76085689e-16 
  7407.6528  5.78612071e-16 
  7410.4072  5.90059615e-16 
  7413.1611  5.92610084e-16 
  7415.9155  5.78531497e-16 
  7418.6699  5.63904667e-16 
  7421.4243  5.61544516e-16 
  7424.1787  5.63287763e-16 
  7426.9326  5.58784512e-16 
   7429.687  5.52744426e-16 
  7432.4414  5.55908623e-16 
  7435.1958  5.64897496e-16 
  7437.9497  5.67108622e-16 
  7440.7041  5.59201199e-16 
  7443.4585  5.48690156e-16 
  7446.2129  5.42950184e-16 
  7448.9673  5.40845783e-16 
  7451.7212    5.433701e-16 
  7454.4756  5.52374484e-16 
    7457.23  5.62095087e-16 
  7459.9844  5.69139437e-16 
  7462.7383  5.74095797e-16 
  7465.4927   5.7449872e-16 
  7468.2471  5.69626428e-16 
  7471.0015  5.67860576e-16 
  7473.7559  5.67671476e-16 
  7476.5098  5.55882736e-16 
  7479.2642  5.41944703e-16 
  7482.0186  5.42543026e-16 
  7484.7729  5.48159436e-16 
  7487.5269  5.45939045e-16 
  7490.2813  5.42575742e-16 
  7493.0356  5.43875461e-16 
    7495.79  5.42488286e-16 
  7498.5444  5.38557736e-16 
  7501.2983   5.3919571e-16 
  7504.0527  5.36889716e-16 
  7506.8071  5.25594691e-16 
  7509.5615  5.18351818e-16 
  7512.3154  5.20456536e-16 
  7515.0698  5.24898165e-16 
  7517.8242  5.28649727e-16 
  7520.5786  5.30705317e-16 
   7523.333  5.34407751e-16 
  7526.0869  5.39270143e-16 
  7528.8413  5.39376605e-16 
  7531.5957  5.39201163e-16 
  7534.3501   5.4352966e-16 
   7537.104  5.48766547e-16 
  7539.8584  5.47347291e-16 
  7542.6128  5.39947293e-16 
  7545.3672  5.35034714e-16 
  7548.1216  5.38301455e-16 
  7550.8755  5.47729567e-16 
  7553.6299   5.5481701e-16 
  7556.3843  5.58433893e-16 
  7559.1387  5.64958906e-16 
  7561.8926  5.75494937e-16 
   7564.647  5.85775799e-16 
  7567.4014  5.88030495e-16 
  7570.1558   5.7567996e-16 
  7572.9102  5.56246219e-16 
  7575.6641  5.43477727e-16 
  7578.4185  5.36944508e-16 
  7581.1729    5.304925e-16 
  7583.9272  5.24414509e-16 
  7586.6812  5.12339895e-16 
  7589.4355  4.90915044e-16 
  7592.1899  4.80536932e-16 
  7594.9443  4.93963886e-16 
  7597.6982  5.14659019e-16 
  7600.4526  5.21519086e-16 
   7603.207  5.15848676e-16 
  7605.9614  5.14846054e-16 
  7608.7158  5.17471803e-16 
  7611.4697  5.19519823e-16 
  7614.2241  5.21222148e-16 
  7616.9785  5.18146994e-16 
  7619.7329  5.16878721e-16 
  7622.4868  5.20324769e-16 
  7625.2412  5.16475057e-16 
  7627.9956  5.04802679e-16 
    7630.75  4.98963022e-16 
  7633.5044  5.03324024e-16 
  7636.2583  5.11306039e-16 
  7639.0127   5.1745121e-16 
  7641.7671  5.14686547e-16 
  7644.5215  5.09431449e-16 
  7647.2754  5.08463079e-16 
  7650.0298  5.04863983e-16 
  7652.7842  4.97832445e-16 
  7655.5386  4.86282356e-16 
   7658.293  4.81513455e-16 
  7661.0469  4.91202453e-16 
  7663.8013  5.01461928e-16 
  7666.5557  5.04620937e-16 
  7669.3101  5.04456824e-16 
   7672.064   5.0509554e-16 
  7674.8184  4.99728634e-16 
  7677.5728   4.8460179e-16 
  7680.3271  4.78775315e-16 
  7683.0815    4.836853e-16 
  7685.8354  4.81473538e-16 
  7688.5898  4.73248531e-16 
  7691.3442  4.71082032e-16 
  7694.0986  4.79416625e-16 
  7696.8525  4.90455952e-16 
  7699.6069  4.92602281e-16 
  7702.3613  4.91313097e-16 
  7705.1157   4.9883819e-16 
  7707.8701  5.04383397e-16 
   7710.624  4.96289203e-16 
  7713.3784  4.86830281e-16 
  7716.1328  4.82540694e-16 
  7718.8872  4.79959679e-16 
  7721.6411  4.79423136e-16 
  7724.3955  4.76733489e-16 
  7727.1499  4.70220547e-16 
  7729.9043  4.66113337e-16 
  7732.6587  4.69072817e-16 
  7735.4126  4.70459251e-16 
   7738.167  4.64196872e-16 
  7740.9214  4.56579505e-16 
  7743.6758  4.53547709e-16 
  7746.4297  4.55798858e-16 
  7749.1841  4.65689185e-16 
  7751.9385  4.80970401e-16 
  7754.6929  4.91090009e-16 
  7757.4473  4.93024262e-16 
  7760.2012  4.88168381e-16 
  7762.9556  4.78338193e-16 
    7765.71  4.73436466e-16 
  7768.4644  4.78204468e-16 
  7771.2183  4.80960025e-16 
  7773.9727  4.71579082e-16 
  7776.7271  4.56293737e-16 
  7779.4814  4.47238584e-16 
  7782.2358   4.4761239e-16 
  7784.9897  4.50466839e-16 
  7787.7441  4.51751682e-16 
  7790.4985  4.53124299e-16 
  7793.2529  4.58301258e-16 
  7796.0068  4.69363879e-16 
  7798.7612  4.84359433e-16 
  7801.5156  4.94887999e-16 
    7804.27  4.90082146e-16 
  7807.0244  4.71649121e-16 
  7809.7783  4.54963684e-16 
  7812.5327  4.48594578e-16 
  7815.2871  4.46081061e-16 
  7818.0415  4.43835894e-16 
  7820.7954  4.43211048e-16 
  7823.5498  4.37878976e-16 
  7826.3042  4.30512542e-16 
  7829.0586  4.30629856e-16 
   7831.813  4.36494104e-16 
  7834.5669  4.47784603e-16 
  7837.3213  4.57866571e-16 
  7840.0757  4.61358253e-16 
  7842.8301  4.65581612e-16 
   7845.584   4.6606585e-16 
  7848.3384  4.60954059e-16 
  7851.0928  4.59803471e-16 
  7853.8472  4.63073124e-16 
  7856.6016  4.67564146e-16 
  7859.3555  4.69654041e-16 
  7862.1099  4.69527621e-16 
  7864.8643  4.71155142e-16 
  7867.6187  4.67430473e-16 
  7870.3726  4.51624944e-16 
   7873.127  4.32570197e-16 
  7875.8813   4.2224558e-16 
  7878.6357  4.19371571e-16 
  7881.3901  4.18444096e-16 
   7884.144  4.12828665e-16 
  7886.8984    4.061897e-16 
  7889.6528  4.09382617e-16 
  7892.4072  4.19379459e-16 
  7895.1611  4.27350277e-16 
  7897.9155  4.29142308e-16 
  7900.6699  4.26610235e-16 
  7903.4243  4.20651464e-16 
  7906.1787  4.07837073e-16 
  7908.9326  3.98121341e-16 
   7911.687   4.0209824e-16 
  7914.4414  4.06207514e-16 
  7917.1958  4.04082653e-16 
  7919.9497  4.13994076e-16 
  7922.7041   4.3463476e-16 
  7925.4585  4.38021595e-16 
  7928.2129  4.23937449e-16 
  7930.9668  4.12522145e-16 
  7933.7212  4.07317604e-16 
  7936.4756  4.09793772e-16 
    7939.23  4.17677955e-16 
  7941.9844  4.19767982e-16 
  7944.7383   4.1227804e-16 
  7947.4927  4.03324479e-16 
  7950.2471  4.05196501e-16 
  7953.0015   4.1808911e-16 
  7955.7554  4.25083511e-16 
  7958.5098  4.18933443e-16 
  7961.2642  4.11693085e-16 
  7964.0186  4.06774285e-16 
  7966.7729  4.00914617e-16 
  7969.5269  4.05749322e-16 
  7972.2813  4.21296903e-16 
  7975.0356  4.28258111e-16 
    7977.79   4.2161507e-16 
  7980.5439  4.11689114e-16 
  7983.2983  4.05914732e-16 
  7986.0527  4.05408577e-16 
  7988.8071  4.08687256e-16 
  7991.5615  4.11432966e-16 
  7994.3154  4.13964404e-16 
  7997.0698  4.16195091e-16 
  7999.8242  4.11964056e-16 
  8002.5786   4.0301915e-16 
  8005.3325  4.01907896e-16 
  8008.0869  4.05184034e-16 
  8010.8413  4.00260813e-16 
  8013.5957  3.96389185e-16 
  8016.3501  3.96931815e-16 
   8019.104  3.90861395e-16 
  8021.8584  3.80371553e-16 
  8024.6128  3.73421463e-16 
  8027.3672  3.74643943e-16 
  8030.1211  3.85401712e-16 
  8032.8755  3.95015086e-16 
  8035.6299  3.99408381e-16 
  8038.3843  3.99474846e-16 
  8041.1387  3.96547315e-16 
  8043.8926  4.01336942e-16 
   8046.647   4.1249999e-16 
  8049.4014  4.16035955e-16 
  8052.1558  4.13630382e-16 
  8054.9097  4.17692619e-16 
  8057.6641  4.24865082e-16 
  8060.4185  4.21663483e-16 
  8063.1729  4.09273906e-16 
  8065.9272  3.94581563e-16 
  8068.6812  3.85671836e-16 
  8071.4355   3.9058693e-16 
  8074.1899  3.98725778e-16 
  8076.9443  3.96981472e-16 
  8079.6982  3.92205848e-16 
  8082.4526  3.96389185e-16 
   8085.207  4.05188375e-16 
  8087.9614  4.07179987e-16 
  8090.7158  4.01117164e-16 
  8093.4697  3.97331085e-16 
  8096.2241  3.96364091e-16 
  8098.9785  3.92603583e-16 
  8101.7329  3.88400261e-16 
  8104.4868  3.81071361e-16 
  8107.2412  3.72330405e-16 
  8109.9956  3.72755589e-16 
    8112.75  3.82635037e-16 
  8115.5044   3.8649531e-16 
  8118.2583  3.75759406e-16 
  8121.0127  3.62816293e-16 
  8123.7671  3.60768935e-16 
  8126.5215  3.65690831e-16 
  8129.2754  3.66304877e-16 
  8132.0298  3.64359957e-16 
  8134.7842  3.67024088e-16 
  8137.5386  3.70393744e-16 
   8140.293  3.69455205e-16 
  8143.0469  3.69246676e-16 
  8145.8013  3.75638942e-16 
  8148.5557  3.82194712e-16 
  8151.3101  3.82388259e-16 
   8154.064  3.80381983e-16 
  8156.8184  3.74482848e-16 
  8159.5728   3.6673877e-16 
  8162.3271  3.65417822e-16 
  8165.0815  3.66110033e-16 
  8167.8354  3.65030702e-16 
  8170.5898  3.70348242e-16 
  8173.3442  3.79347279e-16 
  8176.0986  3.77332029e-16 
  8178.8525  3.68298263e-16 
  8181.6069  3.64763224e-16 
  8184.3613  3.66250429e-16 
  8187.1157   3.7210303e-16 
  8189.8701  3.85286144e-16 
   8192.624  3.97427171e-16 
  8195.3789  3.94661105e-16 
  8198.1328  3.82317162e-16 
  8200.8867  3.78752741e-16 
  8203.6416  3.83523866e-16 
  8206.3955  3.83765429e-16 
  8209.1494  3.80799199e-16 
  8211.9043  3.85244269e-16 
  8214.6582  3.99307372e-16 
  8217.4131  4.02254464e-16 
   8220.167  3.84577522e-16 
  8222.9209  3.68740706e-16 
  8225.6758  3.67268933e-16 
  8228.4297  3.69425823e-16 
  8231.1846  3.69086825e-16 
  8233.9385  3.72030952e-16 
  8236.6924  3.77501594e-16 
  8239.4473  3.78603293e-16 
  8242.2012  3.77035805e-16 
  8244.9561  3.76919921e-16 
    8247.71  3.77108677e-16 
  8250.4639   3.7009887e-16 
  8253.2188  3.56818452e-16 
  8255.9727  3.55175314e-16 
  8258.7266  3.56990585e-16 
  8261.4814  3.40708389e-16 
  8264.2354   3.2390344e-16 
  8266.9902  3.36351728e-16 
  8269.7441  3.62089062e-16 
   8272.498  3.71214174e-16 
  8275.2529  3.66352126e-16 
  8278.0068  3.67023373e-16 
  8280.7617  3.78127022e-16 
  8283.5156  3.84348505e-16 
  8286.2695  3.81142936e-16 
  8289.0244  3.77852054e-16 
  8291.7783  3.77054652e-16 
  8294.5332  3.80121308e-16 
  8297.2871  3.84282119e-16 
   8300.041  3.89798977e-16 
  8302.7959  3.97578763e-16 
  8305.5498  4.03098903e-16 
  8308.3037  4.02849876e-16 
  8311.0586  3.96940735e-16 
  8313.8125  3.85883726e-16 
  8316.5674  3.80613831e-16 
  8319.3213  3.92062435e-16 
  8322.0752  4.03902129e-16 
  8324.8301  4.01305787e-16 
   8327.584  3.98093018e-16 
  8330.3389  3.98316529e-16 
  8333.0928  3.86973619e-16 
  8335.8467  3.67428043e-16 
  8338.6016  3.56217059e-16 
  8341.3555  3.58968169e-16 
  8344.1104  3.72538378e-16 
  8346.8643  3.91843424e-16 
  8349.6182  4.14688167e-16 
   8352.373  4.33372893e-16 
   8355.127  4.37297806e-16 
  8357.8809  4.27361474e-16 
  8360.6357   4.1687997e-16 
  8363.3896  4.15295225e-16 
  8366.1445  4.14848203e-16 
  8368.8984  4.04785372e-16 
  8371.6523  3.93504693e-16 
  8374.4072  3.94046186e-16 
  8377.1611  3.95550807e-16 
   8379.916  3.79837367e-16 
  8382.6699  3.60402461e-16 
  8385.4238  3.64765157e-16 
  8388.1787  3.87260605e-16 
  8390.9326  4.05691989e-16 
  8393.6875  4.11810372e-16 
  8396.4414  4.00227594e-16 
  8399.1953  3.78389549e-16 
  8401.9502   3.6715604e-16 
  8404.7041  3.79028477e-16 
   8407.458  4.04309499e-16 
  8410.2129  4.23908835e-16 
  8412.9668  4.27428257e-16 
  8415.7217  4.25999233e-16 
  8418.4756  4.29320873e-16 
  8421.2295  4.24761691e-16 
  8423.9844  4.13983277e-16 
  8426.7383  4.10657746e-16 
  8429.4932  4.08018206e-16 
  8432.2471  3.98171316e-16 
   8435.001  3.83009611e-16 
  8437.7559  3.71707783e-16 
  8440.5098  3.75434437e-16 
  8443.2637  3.88790452e-16 
  8446.0186  3.97949393e-16 
  8448.7725  3.93404399e-16 
  8451.5273  3.75782408e-16 
  8454.2813  3.61658319e-16 
  8457.0352  3.61735373e-16 
    8459.79  3.70678664e-16 
  8462.5439  3.78706657e-16 
  8465.2988  3.78403658e-16 
  8468.0527  3.72723243e-16 
  8470.8066  3.64883053e-16 
  8473.5615   3.5603582e-16 
  8476.3154  3.55556029e-16 
  8479.0703  3.62864229e-16 
  8481.8242  3.67181503e-16 
  8484.5781  3.66612615e-16 
   8487.333  3.64059578e-16 
  8490.0869  3.66734429e-16 
  8492.8408  3.74867877e-16 
  8495.5957  3.77018997e-16 
  8498.3496  3.77219188e-16 
  8501.1045  3.78088641e-16 
  8503.8584  3.68655341e-16 
  8506.6123  3.56235032e-16 
  8509.3672  3.53637711e-16 
  8512.1211  3.59949854e-16 
   8514.876  3.71143421e-16 
  8517.6299  3.76715786e-16 
  8520.3838  3.72004403e-16 
  8523.1387  3.66940496e-16 
  8525.8926  3.65077924e-16 
  8528.6475   3.6710715e-16 
  8531.4014   3.7206126e-16 
  8534.1553  3.71020707e-16 
  8536.9102  3.67045449e-16 
  8539.6641  3.69382148e-16 
   8542.418  3.75532666e-16 
  8545.1729    3.763329e-16 
  8547.9268   3.6458998e-16 
  8550.6816  3.49581853e-16 
  8553.4355  3.48300874e-16 
  8556.1895   3.5206898e-16 
  8558.9443  3.47107643e-16 
  8561.6982  3.42721204e-16 
  8564.4531  3.45570914e-16 
   8567.207  3.50604698e-16 
  8569.9609  3.56202898e-16 
  8572.7158  3.57711384e-16 
  8575.4697  3.53847987e-16 
  8578.2246  3.55660929e-16 
  8580.9785  3.63086761e-16 
  8583.7324  3.68311657e-16 
  8586.4873  3.71159964e-16 
  8589.2412  3.68066415e-16 
  8591.9951  3.56159752e-16 
    8594.75  3.40241382e-16 
  8597.5039  3.35415994e-16 
  8600.2588   3.5155896e-16 
  8603.0127  3.77098168e-16 
  8605.7666  3.93714652e-16 
  8608.5215   3.9558093e-16 
  8611.2754  3.82140952e-16 
  8614.0303  3.66188754e-16 
  8616.7842  3.62563665e-16 
  8619.5381  3.61694159e-16 
   8622.293   3.5428953e-16 
  8625.0469  3.45930082e-16 
  8627.8018  3.42566673e-16 
  8630.5557    3.456193e-16 
  8633.3096  3.53208795e-16 
  8636.0645  3.59305923e-16 
  8638.8184   3.6254143e-16 
  8641.5723  3.66606765e-16 
  8644.3271  3.68662726e-16 
  8647.0811  3.66039862e-16 
  8649.8359    3.623815e-16 
  8652.5898  3.65361918e-16 
  8655.3438  3.94824556e-16 
  8658.0986  4.60143502e-16 
  8660.8525   5.1797097e-16 
  8663.6074  5.19798497e-16 
  8666.3613  4.75001254e-16 
  8669.1152  4.17332339e-16 
  8671.8701  3.77327846e-16 
   8674.624  3.73258727e-16 
  8677.3789  3.86477338e-16 
  8680.1328  3.90794056e-16 
  8682.8867  3.83697402e-16 
  8685.6416  3.74878545e-16 
  8688.3955  3.70659818e-16 
  8691.1494  3.67028879e-16 
  8693.9043  3.57444966e-16 
  8696.6582  3.47368132e-16 
  8699.4131  3.43656804e-16 
   8702.167  3.46334646e-16 
  8704.9209  3.48649667e-16 
  8707.6758  3.46130485e-16 
  8710.4297  3.47097214e-16 
  8713.1846  3.52357606e-16 
  8715.9385  3.50712245e-16 
  8718.6924  3.43505106e-16 
  8721.4473  3.42424769e-16 
  8724.2012  3.44961394e-16 
  8726.9561  3.37672146e-16 
    8729.71  3.32377846e-16 
  8732.4639   3.4621945e-16 
  8735.2188  3.60863352e-16 
  8737.9727  3.53998918e-16 
  8740.7266  3.37093596e-16 
  8743.4814  3.32297749e-16 
  8746.2354   3.4276967e-16 
  8748.9902   3.5706126e-16 
  8751.7441  3.62056584e-16 
   8754.498   3.5375492e-16 
  8757.2529  3.44106817e-16 
  8760.0068  3.46646169e-16 
  8762.7617  3.54124941e-16 
  8765.5156  3.53142515e-16 
  8768.2695  3.53107125e-16 
  8771.0244  3.61355081e-16 
  8773.7783  3.64782574e-16 
  8776.5332  3.60399258e-16 
  8779.2871  3.54637263e-16 
