# STATUS =
# OBJECT = 2017egm
# TELESCOPE = Other
# INSTRUMENT = Other
# DATE-OBS = 2017-11-14 00:00:00.00
# MJD = 58071.0
# EXPTIME = --
# AIRMASS = --
# SLIT = --
# DISPERSER = --
# SOURCE = 2018arXiv180800510N
# FILTER =
# RESOLUTION =
# FLUX_STANDARD =
# EXTINCTION_CORRECTED = None
# PHOTOMETRY_CALIBRATED =
# TELLURIC_CORRECTED =
# FLUX_UNITS = erg cm(-2) sec(-1) Ang(-1)
# WAVE_UNITS = Angstrom
# QUALITY = High
# MIN_WAVE = 3825.0
# MAX_WAVE = 9197.42
# COMMENT = Instrument: MMT - Binospec
 Wavelength         Flux 
    3826.29   6.9487e-17 
    3827.58  7.25181e-17 
    3828.87  6.98819e-17 
    3830.16  7.57196e-17 
    3831.45  7.88696e-17 
    3832.74  7.55349e-17 
    3834.03  7.16263e-17 
    3835.32  6.73372e-17 
    3836.61  7.19447e-17 
     3837.9  8.95329e-17 
    3839.19  1.13853e-16 
    3840.48  1.39901e-16 
    3841.77  1.53411e-16 
    3843.06  1.39461e-16 
    3844.35  1.00009e-16 
    3845.64  8.17336e-17 
    3846.93  8.31118e-17 
    3848.22  8.07415e-17 
    3849.51  7.22721e-17 
     3850.8   6.8301e-17 
    3852.09  6.47352e-17 
    3853.38  7.36173e-17 
    3854.67  7.59016e-17 
    3855.96  7.16808e-17 
    3857.26  7.73053e-17 
    3858.55  8.51558e-17 
    3859.84  8.13187e-17 
    3861.13  7.01525e-17 
    3862.42  7.36941e-17 
    3863.71  7.86123e-17 
     3865.0  6.98298e-17 
    3866.29  6.84076e-17 
    3867.58  7.27946e-17 
    3868.87  6.71715e-17 
    3870.16    6.617e-17 
    3871.45   6.9342e-17 
    3872.74  6.61415e-17 
    3874.03   7.3471e-17 
    3875.32  7.75205e-17 
    3876.61  7.47085e-17 
     3877.9  7.04932e-17 
    3879.19  7.15827e-17 
    3880.48  7.56077e-17 
    3881.77  7.41695e-17 
    3883.06  7.46135e-17 
    3884.35  6.56026e-17 
    3885.64  5.78768e-17 
    3886.93  6.12417e-17 
    3888.22  6.59982e-17 
    3889.51  6.70984e-17 
     3890.8  6.82477e-17 
    3892.09  6.69626e-17 
    3893.38  6.16252e-17 
    3894.67  7.04693e-17 
    3895.96  8.16352e-17 
    3897.25  8.03156e-17 
    3898.54  7.11701e-17 
    3899.83  6.96454e-17 
    3901.12  6.83246e-17 
    3902.41  6.23883e-17 
     3903.7  6.94564e-17 
    3904.99  7.40443e-17 
    3906.28  7.57553e-17 
    3907.57  7.49334e-17 
    3908.86  7.38262e-17 
    3910.15  6.77748e-17 
    3911.44  6.19741e-17 
    3912.73   6.3189e-17 
    3914.02  6.32354e-17 
    3915.31  5.89023e-17 
     3916.6  5.65817e-17 
    3917.89  6.49201e-17 
    3919.19  7.51259e-17 
    3920.48  7.28452e-17 
    3921.77  6.93078e-17 
    3923.06  7.18024e-17 
    3924.35  7.35634e-17 
    3925.64  7.34232e-17 
    3926.93  7.66007e-17 
    3928.22  8.05224e-17 
    3929.51  7.98397e-17 
     3930.8  7.03672e-17 
    3932.09   6.3556e-17 
    3933.38  6.36166e-17 
    3934.67  6.70473e-17 
    3935.96   6.5924e-17 
    3937.25  6.90028e-17 
    3938.54  7.51311e-17 
    3939.83  8.20356e-17 
    3941.12  8.38631e-17 
    3942.41  7.67731e-17 
     3943.7  7.02329e-17 
    3944.99  6.79856e-17 
    3946.28  6.82905e-17 
    3947.57  6.88328e-17 
    3948.86  6.79761e-17 
    3950.15  7.06855e-17 
    3951.44  7.43047e-17 
    3952.73  7.94739e-17 
    3954.02  8.13099e-17 
    3955.31  7.63328e-17 
     3956.6  7.26276e-17 
    3957.89  7.44351e-17 
    3959.18  7.97832e-17 
    3960.47  8.47161e-17 
    3961.76   8.1218e-17 
    3963.05  8.27665e-17 
    3964.34   9.0426e-17 
    3965.63  9.25488e-17 
    3966.92  9.17155e-17 
    3968.21  9.29822e-17 
     3969.5  9.41575e-17 
    3970.79  9.78346e-17 
    3972.08  1.00155e-16 
    3973.37  9.76137e-17 
    3974.66  1.01283e-16 
    3975.95  1.04034e-16 
    3977.24  9.99181e-17 
    3978.53  9.93032e-17 
    3979.82  1.04496e-16 
    3981.11  1.04852e-16 
    3982.41   1.0219e-16 
     3983.7  1.04303e-16 
    3984.99  1.11904e-16 
    3986.28  1.21127e-16 
    3987.57  1.23404e-16 
    3988.86  1.16875e-16 
    3990.15  1.10955e-16 
    3991.44  1.08774e-16 
    3992.73  1.10727e-16 
    3994.02  1.09088e-16 
    3995.31  9.89529e-17 
     3996.6  9.38415e-17 
    3997.89  1.01201e-16 
    3999.18   1.0727e-16 
    4000.47  1.02969e-16 
    4001.76  9.63099e-17 
    4003.05  1.05126e-16 
    4004.34  1.16712e-16 
    4005.63  1.21526e-16 
    4006.92  1.16843e-16 
    4008.21  1.08322e-16 
     4009.5  1.05186e-16 
    4010.79  1.07865e-16 
    4012.08  1.13392e-16 
    4013.37  1.19523e-16 
    4014.66  1.27727e-16 
    4015.95  1.25464e-16 
    4017.24    1.187e-16 
    4018.53  1.15345e-16 
    4019.82  1.16785e-16 
    4021.11   1.2186e-16 
     4022.4  1.28442e-16 
    4023.69  1.34445e-16 
    4024.98  1.27635e-16 
    4026.27   1.2482e-16 
    4027.56  1.30599e-16 
    4028.85  1.34152e-16 
    4030.14  1.41594e-16 
    4031.43  1.52817e-16 
    4032.72   1.5221e-16 
    4034.01  1.43467e-16 
     4035.3   1.3838e-16 
    4036.59  1.39367e-16 
    4037.88  1.44275e-16 
    4039.17  1.48217e-16 
    4040.46  1.44478e-16 
    4041.75  1.38423e-16 
    4043.04  1.41206e-16 
    4044.34  1.50975e-16 
    4045.63  1.49379e-16 
    4046.92  1.47438e-16 
    4048.21  1.49089e-16 
     4049.5  1.44085e-16 
    4050.79  1.39898e-16 
    4052.08  1.43328e-16 
    4053.37  1.45512e-16 
    4054.66  1.43771e-16 
    4055.95  1.38491e-16 
    4057.24  1.34813e-16 
    4058.53  1.43528e-16 
    4059.82  1.52192e-16 
    4061.11  1.55387e-16 
     4062.4  1.63355e-16 
    4063.69   1.6341e-16 
    4064.98  1.59751e-16 
    4066.27  1.61032e-16 
    4067.56  1.57829e-16 
    4068.85  1.59983e-16 
    4070.14   1.6662e-16 
    4071.43  1.64054e-16 
    4072.72  1.52287e-16 
    4074.01  1.47552e-16 
     4075.3  1.58106e-16 
    4076.59  1.69241e-16 
    4077.88  1.71631e-16 
    4079.17  1.62945e-16 
    4080.46  1.50217e-16 
    4081.75  1.52889e-16 
    4083.04  1.58099e-16 
    4084.33  1.50121e-16 
    4085.62  1.42841e-16 
    4086.91  1.43311e-16 
     4088.2  1.51633e-16 
    4089.49  1.59316e-16 
    4090.78  1.60775e-16 
    4092.07  1.60629e-16 
    4093.36  1.50673e-16 
    4094.65   1.3792e-16 
    4095.94  1.39812e-16 
    4097.23  1.49486e-16 
    4098.52  1.50459e-16 
    4099.81  1.50608e-16 
     4101.1  1.62928e-16 
    4102.39  1.70314e-16 
    4103.68  1.65648e-16 
    4104.97  1.61437e-16 
    4106.27  1.65241e-16 
    4107.56  1.64269e-16 
    4108.85  1.54262e-16 
    4110.14  1.57615e-16 
    4111.43  1.68064e-16 
    4112.72  1.65252e-16 
    4114.01  1.65735e-16 
     4115.3  1.69322e-16 
    4116.59  1.52763e-16 
    4117.88  1.48843e-16 
    4119.17  1.64754e-16 
    4120.46  1.66359e-16 
    4121.75  1.64455e-16 
    4123.04  1.67313e-16 
    4124.33   1.6881e-16 
    4125.62  1.68256e-16 
    4126.91  1.63586e-16 
     4128.2  1.55858e-16 
    4129.49   1.5708e-16 
    4130.78   1.6629e-16 
    4132.07  1.70577e-16 
    4133.36  1.68436e-16 
    4134.65   1.6581e-16 
    4135.94  1.71447e-16 
    4137.23   1.7528e-16 
    4138.52  1.70168e-16 
    4139.81   1.6755e-16 
     4141.1   1.7027e-16 
    4142.39  1.71106e-16 
    4143.68  1.67504e-16 
    4144.97  1.63634e-16 
    4146.26  1.61634e-16 
    4147.55   1.5728e-16 
    4148.84  1.57389e-16 
    4150.13  1.65296e-16 
    4151.42  1.63976e-16 
    4152.71  1.58225e-16 
     4154.0   1.5949e-16 
    4155.29  1.62718e-16 
    4156.58  1.60863e-16 
    4157.87  1.54445e-16 
    4159.16  1.50957e-16 
    4160.45  1.52129e-16 
    4161.74  1.49252e-16 
    4163.03  1.48285e-16 
    4164.32  1.57286e-16 
    4165.61  1.65135e-16 
     4166.9  1.59319e-16 
    4168.19  1.54274e-16 
    4169.49  1.59654e-16 
    4170.78  1.57486e-16 
    4172.07  1.54584e-16 
    4173.36  1.62442e-16 
    4174.65  1.68357e-16 
    4175.94  1.63427e-16 
    4177.23  1.57648e-16 
    4178.52  1.61323e-16 
    4179.81  1.65301e-16 
     4181.1  1.64613e-16 
    4182.39  1.65412e-16 
    4183.68  1.64148e-16 
    4184.97  1.59738e-16 
    4186.26  1.51428e-16 
    4187.55  1.42274e-16 
    4188.84  1.43324e-16 
    4190.13  1.47605e-16 
    4191.42  1.50317e-16 
    4192.71  1.55469e-16 
     4194.0  1.64829e-16 
    4195.29  1.71467e-16 
    4196.58  1.66985e-16 
    4197.87   1.6048e-16 
    4199.16  1.55262e-16 
    4200.45  1.46416e-16 
    4201.74  1.41518e-16 
    4203.03  1.45394e-16 
    4204.32  1.49843e-16 
    4205.61  1.54065e-16 
     4206.9  1.60171e-16 
    4208.19  1.57007e-16 
    4209.48  1.49887e-16 
    4210.77  1.51816e-16 
    4212.06  1.52538e-16 
    4213.35  1.51451e-16 
    4214.64    1.542e-16 
    4215.93  1.50934e-16 
    4217.22  1.44299e-16 
    4218.51  1.42133e-16 
     4219.8  1.43913e-16 
    4221.09  1.44174e-16 
    4222.38  1.47467e-16 
    4223.67   1.5631e-16 
    4224.96  1.57631e-16 
    4226.25  1.55466e-16 
    4227.54  1.51299e-16 
    4228.83  1.44634e-16 
    4230.12  1.40744e-16 
    4231.42  1.37758e-16 
    4232.71  1.38078e-16 
     4234.0   1.4009e-16 
    4235.29  1.40488e-16 
    4236.58  1.38031e-16 
    4237.87  1.33625e-16 
    4239.16  1.33499e-16 
    4240.45  1.40961e-16 
    4241.74  1.47214e-16 
    4243.03  1.46703e-16 
    4244.32  1.45426e-16 
    4245.61  1.48359e-16 
     4246.9  1.49783e-16 
    4248.19  1.44557e-16 
    4249.48  1.41006e-16 
    4250.77  1.44697e-16 
    4252.06  1.44099e-16 
    4253.35  1.44713e-16 
    4254.64  1.48135e-16 
    4255.93  1.39681e-16 
    4257.22  1.33996e-16 
    4258.51  1.35298e-16 
     4259.8  1.29454e-16 
    4261.09  1.30838e-16 
    4262.38   1.3797e-16 
    4263.67  1.31477e-16 
    4264.96  1.16291e-16 
    4266.25  1.15091e-16 
    4267.54  1.30916e-16 
    4268.83  1.39179e-16 
    4270.12  1.37847e-16 
    4271.41  1.35755e-16 
     4272.7  1.29901e-16 
    4273.99  1.29998e-16 
    4275.28  1.34185e-16 
    4276.57  1.34323e-16 
    4277.86  1.32714e-16 
    4279.15  1.32936e-16 
    4280.44   1.3446e-16 
    4281.73  1.35717e-16 
    4283.02  1.40272e-16 
    4284.31  1.36327e-16 
     4285.6  1.29281e-16 
    4286.89  1.23341e-16 
    4288.18  1.20903e-16 
    4289.47  1.24747e-16 
    4290.76   1.2739e-16 
    4292.05  1.23802e-16 
    4293.34  1.24999e-16 
    4294.64   1.2933e-16 
    4295.93  1.30988e-16 
    4297.22  1.26779e-16 
    4298.51   1.1978e-16 
     4299.8  1.16979e-16 
    4301.09  1.19267e-16 
    4302.38  1.20785e-16 
    4303.67  1.19566e-16 
    4304.96  1.20037e-16 
    4306.25  1.25281e-16 
    4307.54  1.25514e-16 
    4308.83  1.18933e-16 
    4310.12  1.14664e-16 
    4311.41  1.17551e-16 
     4312.7  1.22606e-16 
    4313.99  1.17555e-16 
    4315.28  1.10743e-16 
    4316.57  1.11009e-16 
    4317.86   1.1532e-16 
    4319.15   1.1772e-16 
    4320.44  1.15977e-16 
    4321.73  1.14999e-16 
    4323.02  1.17869e-16 
    4324.31  1.22911e-16 
     4325.6  1.24664e-16 
    4326.89  1.17657e-16 
    4328.18   1.0508e-16 
    4329.47  1.02847e-16 
    4330.76  1.13475e-16 
    4332.05  1.18281e-16 
    4333.34  1.14262e-16 
    4334.63  1.07832e-16 
    4335.92  1.08005e-16 
    4337.21  1.12096e-16 
     4338.5  1.12213e-16 
    4339.79  1.13842e-16 
    4341.08  1.14483e-16 
    4342.37  1.12811e-16 
    4343.66  1.20408e-16 
    4344.95  1.22018e-16 
    4346.24  1.15933e-16 
    4347.53  1.18702e-16 
    4348.82  1.21687e-16 
    4350.11  1.17863e-16 
     4351.4  1.10412e-16 
    4352.69  9.85101e-17 
    4353.98   9.5583e-17 
    4355.27  1.06793e-16 
    4356.57  1.16799e-16 
    4357.86  1.17003e-16 
    4359.15  1.15523e-16 
    4360.44  1.21198e-16 
    4361.73  1.18932e-16 
    4363.02  1.11814e-16 
    4364.31  1.03395e-16 
     4365.6  9.82469e-17 
    4366.89  9.87934e-17 
    4368.18  9.46721e-17 
    4369.47  1.06883e-16 
    4370.76  1.16882e-16 
    4372.05  1.14018e-16 
    4373.34  1.12119e-16 
    4374.63  1.11312e-16 
    4375.92  1.11705e-16 
    4377.21  1.21596e-16 
     4378.5  1.23025e-16 
    4379.79  1.10469e-16 
    4381.08  1.04692e-16 
    4382.37  1.12132e-16 
    4383.66  1.11453e-16 
    4384.95   1.0877e-16 
    4386.24  1.18774e-16 
    4387.53   1.2417e-16 
    4388.82  1.14713e-16 
    4390.11  1.07237e-16 
     4391.4  1.10593e-16 
    4392.69  1.12023e-16 
    4393.98  1.16619e-16 
    4395.27  1.20146e-16 
    4396.56   1.1682e-16 
    4397.85  1.14237e-16 
    4399.14  1.09173e-16 
    4400.43  1.07125e-16 
    4401.72  1.11347e-16 
    4403.01  1.14384e-16 
     4404.3  1.14239e-16 
    4405.59  1.10425e-16 
    4406.88  1.16273e-16 
    4408.17  1.21247e-16 
    4409.46  1.18805e-16 
    4410.75  1.18637e-16 
    4412.04  1.20441e-16 
    4413.33  1.17127e-16 
    4414.62  1.18802e-16 
    4415.91  1.16554e-16 
     4417.2  1.12453e-16 
    4418.49  1.17416e-16 
    4419.79  1.18756e-16 
    4421.08  1.14605e-16 
    4422.37  1.12961e-16 
    4423.66  1.13333e-16 
    4424.95  1.13424e-16 
    4426.24  1.11872e-16 
    4427.53  1.08566e-16 
    4428.82  1.09193e-16 
    4430.11  1.12838e-16 
     4431.4  1.12542e-16 
    4432.69  1.11533e-16 
    4433.98  1.07223e-16 
    4435.27  1.12148e-16 
    4436.56  1.17864e-16 
    4437.85  1.21427e-16 
    4439.14  1.22715e-16 
    4440.43  1.20445e-16 
    4441.72  1.15821e-16 
    4443.01  1.14072e-16 
     4444.3  1.17721e-16 
    4445.59   1.2326e-16 
    4446.88  1.23661e-16 
    4448.17  1.25477e-16 
    4449.46  1.20896e-16 
    4450.75  1.16254e-16 
    4452.04  1.19342e-16 
    4453.33  1.27247e-16 
    4454.62  1.31998e-16 
    4455.91  1.29041e-16 
     4457.2  1.28159e-16 
    4458.49  1.29276e-16 
    4459.78  1.27704e-16 
    4461.07  1.31108e-16 
    4462.36  1.33368e-16 
    4463.65  1.28924e-16 
    4464.94  1.18464e-16 
    4466.23  1.09454e-16 
    4467.52  1.08665e-16 
    4468.81  1.11261e-16 
     4470.1  1.42095e-16 
    4471.39  1.71474e-16 
    4472.68  1.71379e-16 
    4473.97  1.50674e-16 
    4475.26  1.26685e-16 
    4476.55  1.20106e-16 
    4477.84  1.20934e-16 
    4479.13  1.17633e-16 
    4480.42  1.20549e-16 
    4481.72  1.20447e-16 
    4483.01  1.13441e-16 
     4484.3   1.2146e-16 
    4485.59  1.25116e-16 
    4486.88  1.25864e-16 
    4488.17  1.33546e-16 
    4489.46  1.34724e-16 
    4490.75  1.35589e-16 
    4492.04  1.36176e-16 
    4493.33   1.3355e-16 
    4494.62  1.21006e-16 
    4495.91  1.15115e-16 
     4497.2  1.08458e-16 
    4498.49  1.14348e-16 
    4499.78  1.26826e-16 
    4501.07  1.27282e-16 
    4502.36  1.28167e-16 
    4503.65  1.39068e-16 
    4504.94  1.34206e-16 
    4506.23  1.31843e-16 
    4507.52  1.25814e-16 
    4508.81  1.19793e-16 
     4510.1   1.2347e-16 
    4511.39  1.30614e-16 
    4512.68  1.21812e-16 
    4513.97  1.16191e-16 
    4515.26  1.20812e-16 
    4516.55  1.34194e-16 
    4517.84  1.40147e-16 
    4519.13  1.30182e-16 
    4520.42  1.23081e-16 
    4521.71  1.23626e-16 
     4523.0  1.22632e-16 
    4524.29  1.20477e-16 
    4525.58  1.15205e-16 
    4526.87  1.19578e-16 
    4528.16  1.25251e-16 
    4529.45  1.24439e-16 
    4530.74  1.30667e-16 
    4532.03  1.40725e-16 
    4533.32  1.32422e-16 
    4534.61  1.25589e-16 
     4535.9   1.3094e-16 
    4537.19  1.34185e-16 
    4538.48  1.24123e-16 
    4539.77  1.18808e-16 
    4541.06  1.22519e-16 
    4542.35  1.28968e-16 
    4543.65    1.315e-16 
    4544.94  1.32719e-16 
    4546.23  1.34746e-16 
    4547.52  1.36516e-16 
    4548.81  1.35353e-16 
     4550.1  1.37664e-16 
    4551.39  1.31966e-16 
    4552.68  1.31036e-16 
    4553.97  1.23197e-16 
    4555.26  1.13818e-16 
    4556.55  1.16957e-16 
    4557.84  1.23365e-16 
    4559.13  1.25126e-16 
    4560.42  1.18212e-16 
    4561.71  1.19849e-16 
     4563.0  1.27985e-16 
    4564.29  1.27476e-16 
    4565.58  1.21597e-16 
    4566.87  1.11972e-16 
    4568.16  1.12472e-16 
    4569.45  1.25874e-16 
    4570.74  1.32028e-16 
    4572.03  1.37683e-16 
    4573.32  1.37779e-16 
    4574.61  1.33497e-16 
     4575.9  1.28489e-16 
    4577.19   1.2972e-16 
    4578.48  1.29616e-16 
    4579.77  1.20813e-16 
    4581.06  1.19886e-16 
    4582.35  1.31257e-16 
    4583.64  1.33405e-16 
    4584.93   1.2787e-16 
    4586.22  1.29761e-16 
    4587.51  1.29556e-16 
     4588.8  1.29127e-16 
    4590.09  1.33619e-16 
    4591.38   1.3318e-16 
    4592.67   1.2979e-16 
    4593.96  1.28107e-16 
    4595.25  1.30604e-16 
    4596.54  1.32449e-16 
    4597.83  1.37521e-16 
    4599.12  1.37241e-16 
    4600.41  1.35033e-16 
     4601.7  1.33666e-16 
    4602.99  1.37348e-16 
    4604.28  1.41197e-16 
    4605.57  1.38226e-16 
    4606.87  1.30028e-16 
    4608.16  1.25758e-16 
    4609.45  1.30662e-16 
    4610.74  1.33492e-16 
    4612.03  1.35073e-16 
    4613.32  1.38445e-16 
    4614.61    1.385e-16 
     4615.9  1.40427e-16 
    4617.19  1.39399e-16 
    4618.48  1.35458e-16 
    4619.77  1.36344e-16 
    4621.06  1.40288e-16 
    4622.35     1.45e-16 
    4623.64  1.46884e-16 
    4624.93  1.42469e-16 
    4626.22   1.4099e-16 
    4627.51  1.46319e-16 
     4628.8  1.43717e-16 
    4630.09  1.36192e-16 
    4631.38  1.33098e-16 
    4632.67  1.38618e-16 
    4633.96  1.44121e-16 
    4635.25  1.44648e-16 
    4636.54  1.44465e-16 
    4637.83  1.44003e-16 
    4639.12  1.41845e-16 
    4640.41  1.39466e-16 
     4641.7  1.40031e-16 
    4642.99  1.46763e-16 
    4644.28  1.52651e-16 
    4645.57  1.52682e-16 
    4646.86  1.54448e-16 
    4648.15  1.57879e-16 
    4649.44  1.56756e-16 
    4650.73  1.53605e-16 
    4652.02  1.47703e-16 
    4653.31  1.38684e-16 
     4654.6  1.34408e-16 
    4655.89  1.33441e-16 
    4657.18  1.39604e-16 
    4658.47  1.51505e-16 
    4659.76  1.56492e-16 
    4661.05  1.57588e-16 
    4662.34  1.59508e-16 
    4663.63  1.57259e-16 
    4664.92  1.50389e-16 
    4666.21  1.49747e-16 
     4667.5  1.51702e-16 
     4668.8  1.49874e-16 
    4670.09  1.50809e-16 
    4671.38   1.5616e-16 
    4672.67  1.58018e-16 
    4673.96  1.53301e-16 
    4675.25   1.5058e-16 
    4676.54  1.48203e-16 
    4677.83  1.44154e-16 
    4679.12  1.42156e-16 
    4680.41   1.4174e-16 
     4681.7  1.45705e-16 
    4682.99  1.49308e-16 
    4684.28  1.55729e-16 
    4685.57  1.60168e-16 
    4686.86  1.65118e-16 
    4688.15   1.6166e-16 
    4689.44   1.5617e-16 
    4690.73  1.52497e-16 
    4692.02  1.52439e-16 
    4693.31   1.5434e-16 
     4694.6  1.56563e-16 
    4695.89  1.57851e-16 
    4697.18  1.53686e-16 
    4698.47  1.55687e-16 
    4699.76  1.59799e-16 
    4701.05  1.67324e-16 
    4702.34   1.6329e-16 
    4703.63  1.64184e-16 
    4704.92  1.70679e-16 
    4706.21  1.70048e-16 
     4707.5  1.71151e-16 
    4708.79  1.73129e-16 
    4710.08  1.71099e-16 
    4711.37  1.69953e-16 
    4712.66   1.6911e-16 
    4713.95  1.67158e-16 
    4715.24  1.65524e-16 
    4716.53  1.51328e-16 
    4717.82  1.49166e-16 
    4719.11  1.66892e-16 
     4720.4  1.71838e-16 
    4721.69  1.63699e-16 
    4722.98  1.57131e-16 
    4724.27   1.6342e-16 
    4725.56  1.76462e-16 
    4726.85  1.89409e-16 
    4728.14  1.96448e-16 
    4729.43   1.8936e-16 
    4730.72  1.80006e-16 
    4732.02  1.79271e-16 
    4733.31  1.74504e-16 
     4734.6  1.65603e-16 
    4735.89  1.63475e-16 
    4737.18  1.60352e-16 
    4738.47  1.67086e-16 
    4739.76  1.71028e-16 
    4741.05    1.739e-16 
    4742.34   1.8013e-16 
    4743.63  1.79504e-16 
    4744.92  1.71656e-16 
    4746.21  1.79008e-16 
     4747.5  1.80822e-16 
    4748.79  1.79055e-16 
    4750.08   1.8308e-16 
    4751.37  1.77345e-16 
    4752.66   1.6916e-16 
    4753.95  1.67746e-16 
    4755.24  1.78322e-16 
    4756.53  1.77811e-16 
    4757.82  1.76338e-16 
    4759.11  1.64249e-16 
     4760.4  1.68685e-16 
    4761.69  1.70977e-16 
    4762.98   1.6764e-16 
    4764.27  1.80872e-16 
    4765.56  1.84643e-16 
    4766.85  1.80069e-16 
    4768.14  1.75472e-16 
    4769.43  1.69453e-16 
    4770.72  1.68186e-16 
    4772.01  1.70276e-16 
     4773.3  1.70289e-16 
    4774.59  1.68758e-16 
    4775.88  1.67059e-16 
    4777.17   1.7765e-16 
    4778.46  1.78244e-16 
    4779.75  1.74479e-16 
    4781.04  1.73266e-16 
    4782.33  1.73876e-16 
    4783.62  1.73049e-16 
    4784.91  1.69221e-16 
     4786.2  1.65575e-16 
    4787.49  1.74531e-16 
    4788.78  1.65473e-16 
    4790.07    1.533e-16 
    4791.36  1.45068e-16 
    4792.65  1.57314e-16 
    4793.95   1.6465e-16 
    4795.24  1.51581e-16 
    4796.53  1.51696e-16 
    4797.82  1.54126e-16 
    4799.11  1.51682e-16 
     4800.4  1.60331e-16 
    4801.69  1.56908e-16 
    4802.98  1.59523e-16 
    4804.27  1.62959e-16 
    4805.56  1.60322e-16 
    4806.85  1.55992e-16 
    4808.14  1.52497e-16 
    4809.43  1.56326e-16 
    4810.72  1.54958e-16 
    4812.01  1.50835e-16 
     4813.3  1.52966e-16 
    4814.59   1.5206e-16 
    4815.88  1.44492e-16 
    4817.17  1.46347e-16 
    4818.46  1.57207e-16 
    4819.75  1.64108e-16 
    4821.04  1.61207e-16 
    4822.33  1.52441e-16 
    4823.62  1.54741e-16 
    4824.91  1.46517e-16 
     4826.2  1.36621e-16 
    4827.49   1.4328e-16 
    4828.78   1.4759e-16 
    4830.07  1.52292e-16 
    4831.36  1.54822e-16 
    4832.65  1.54375e-16 
    4833.94  1.53854e-16 
    4835.23  1.53434e-16 
    4836.52  1.52828e-16 
    4837.81  1.53843e-16 
     4839.1  1.54649e-16 
    4840.39  1.42123e-16 
    4841.68  1.33467e-16 
    4842.97  1.40487e-16 
    4844.26  1.45073e-16 
    4845.55  1.43499e-16 
    4846.84   1.3909e-16 
    4848.13  1.35696e-16 
    4849.42  1.35121e-16 
    4850.71  1.36725e-16 
     4852.0  1.41291e-16 
    4853.29  1.44299e-16 
    4854.58  1.42484e-16 
    4855.88  1.39992e-16 
    4857.17  1.35924e-16 
    4858.46  1.38184e-16 
    4859.75  1.42701e-16 
    4861.04  1.40204e-16 
    4862.33  1.36448e-16 
    4863.62   1.3584e-16 
    4864.91  1.38654e-16 
     4866.2  1.37903e-16 
    4867.49  1.34373e-16 
    4868.78  1.31624e-16 
    4870.07  1.31121e-16 
    4871.36  1.30666e-16 
    4872.65  1.30611e-16 
    4873.94  1.35722e-16 
    4875.23  1.33955e-16 
    4876.52  1.22382e-16 
    4877.81  1.18181e-16 
     4879.1  1.28039e-16 
    4880.39  1.33724e-16 
    4881.68  1.32504e-16 
    4882.97  1.33726e-16 
    4884.26  1.34765e-16 
    4885.55  1.32623e-16 
    4886.84  1.30374e-16 
    4888.13  1.29645e-16 
    4889.42  1.27888e-16 
    4890.71  1.27104e-16 
     4892.0  1.27664e-16 
    4893.29  1.29144e-16 
    4894.58  1.32607e-16 
    4895.87  1.35237e-16 
    4897.16  1.32239e-16 
    4898.45  1.26567e-16 
    4899.74  1.19612e-16 
    4901.03  1.19036e-16 
    4902.32   1.2261e-16 
    4903.61  1.21105e-16 
     4904.9  1.17989e-16 
    4906.19  1.18056e-16 
    4907.48  1.19624e-16 
    4908.77   1.1439e-16 
    4910.06  1.12849e-16 
    4911.35  1.09958e-16 
    4912.64  1.10311e-16 
    4913.93  1.15199e-16 
    4915.22  1.17144e-16 
    4916.51   1.1825e-16 
     4917.8  1.22649e-16 
     4919.1  1.21609e-16 
    4920.39  1.20171e-16 
    4921.68  1.24292e-16 
    4922.97  1.26059e-16 
    4924.26  1.21096e-16 
    4925.55  1.13314e-16 
    4926.84  1.14629e-16 
    4928.13  1.25741e-16 
    4929.42  1.38774e-16 
    4930.71  1.37946e-16 
     4932.0  1.30038e-16 
    4933.29  1.15385e-16 
    4934.58  1.03252e-16 
    4935.87  1.11704e-16 
    4937.16  1.15549e-16 
    4938.45  1.17039e-16 
    4939.74  1.22867e-16 
    4941.03  1.21777e-16 
    4942.32  1.23508e-16 
    4943.61  1.18768e-16 
     4944.9  1.09431e-16 
    4946.19  1.08941e-16 
    4947.48  1.11159e-16 
    4948.77  1.17973e-16 
    4950.06  1.19539e-16 
    4951.35  1.13335e-16 
    4952.64  1.18187e-16 
    4953.93  1.22471e-16 
    4955.22  1.17885e-16 
    4956.51  1.12367e-16 
     4957.8   1.0664e-16 
    4959.09  1.10894e-16 
    4960.38  1.20637e-16 
    4961.67  1.25209e-16 
    4962.96  1.25947e-16 
    4964.25  1.30107e-16 
    4965.54  1.22513e-16 
    4966.83  1.18887e-16 
    4968.12  1.23422e-16 
    4969.41   1.2648e-16 
     4970.7  1.23121e-16 
    4971.99  1.21256e-16 
    4973.28  1.21785e-16 
    4974.57  1.15199e-16 
    4975.86  1.17313e-16 
    4977.15  1.20277e-16 
    4978.44   1.1563e-16 
    4979.73   1.1609e-16 
    4981.03  1.20132e-16 
    4982.32  1.14829e-16 
    4983.61  1.05404e-16 
     4984.9  1.09986e-16 
    4986.19  1.15542e-16 
    4987.48  1.23703e-16 
    4988.77  1.23617e-16 
    4990.06  1.14707e-16 
    4991.35  1.14366e-16 
    4992.64  1.16033e-16 
    4993.93  1.18003e-16 
    4995.22  1.16932e-16 
    4996.51  1.19093e-16 
     4997.8  1.24113e-16 
    4999.09  1.21639e-16 
    5000.38  1.13502e-16 
    5001.67  1.08343e-16 
    5002.96   1.0253e-16 
    5004.25  9.16351e-17 
    5005.54  1.01938e-16 
    5006.83  1.67877e-16 
    5008.12  2.35459e-16 
    5009.41  2.34323e-16 
     5010.7  1.83274e-16 
    5011.99  1.40949e-16 
    5013.28  1.21788e-16 
    5014.57  1.14838e-16 
    5015.86  1.15521e-16 
    5017.15  1.18928e-16 
    5018.44  1.18962e-16 
    5019.73  1.17766e-16 
    5021.02  1.16877e-16 
    5022.31  1.13465e-16 
     5023.6  1.10843e-16 
    5024.89  1.15191e-16 
    5026.18  1.15778e-16 
    5027.47  1.14047e-16 
    5028.76   1.1639e-16 
    5030.05  1.19075e-16 
    5031.34  1.20045e-16 
    5032.63  1.20003e-16 
    5033.92  1.17134e-16 
    5035.21  1.12891e-16 
     5036.5  1.13834e-16 
    5037.79   1.1643e-16 
    5039.08  1.19366e-16 
    5040.37   1.2055e-16 
    5041.66   1.2059e-16 
    5042.95  1.23906e-16 
    5044.25  1.25551e-16 
    5045.54  1.25038e-16 
    5046.83  1.24643e-16 
    5048.12  1.22367e-16 
    5049.41  1.18399e-16 
     5050.7  1.19985e-16 
    5051.99  1.21229e-16 
    5053.28  1.18995e-16 
    5054.57  1.17989e-16 
    5055.86  1.24941e-16 
    5057.15  1.29325e-16 
    5058.44  1.23167e-16 
    5059.73  1.20219e-16 
    5061.02  1.26876e-16 
    5062.31  1.28632e-16 
     5063.6  1.26267e-16 
    5064.89  1.25699e-16 
    5066.18  1.25607e-16 
    5067.47  1.19419e-16 
    5068.76  1.15779e-16 
    5070.05  1.16654e-16 
    5071.34  1.23201e-16 
    5072.63   1.2658e-16 
    5073.92  1.24943e-16 
    5075.21  1.30434e-16 
     5076.5  1.33682e-16 
    5077.79  1.32202e-16 
    5079.08  1.32674e-16 
    5080.37   1.3101e-16 
    5081.66  1.30026e-16 
    5082.95  1.29223e-16 
    5084.24  1.30871e-16 
    5085.53  1.36167e-16 
    5086.82  1.39036e-16 
    5088.11  1.36488e-16 
     5089.4   1.2933e-16 
    5090.69  1.25393e-16 
    5091.98  1.21026e-16 
    5093.27  1.26703e-16 
    5094.56  1.35435e-16 
    5095.85  1.41976e-16 
    5097.14  1.41976e-16 
    5098.43  1.44781e-16 
    5099.72  1.43863e-16 
    5101.01    1.416e-16 
     5102.3  1.46506e-16 
    5103.59  1.36162e-16 
    5104.88   1.2518e-16 
    5106.18   1.2833e-16 
    5107.47  1.35715e-16 
    5108.76  1.38637e-16 
    5110.05  1.39575e-16 
    5111.34  1.38248e-16 
    5112.63  1.42117e-16 
    5113.92  1.41401e-16 
    5115.21  1.38841e-16 
     5116.5  1.40489e-16 
    5117.79   1.4073e-16 
    5119.08  1.39655e-16 
    5120.37  1.32516e-16 
    5121.66  1.37083e-16 
    5122.95  1.37708e-16 
    5124.24  1.35635e-16 
    5125.53  1.35621e-16 
    5126.82  1.32702e-16 
    5128.11  1.33159e-16 
     5129.4  1.33096e-16 
    5130.69  1.36795e-16 
    5131.98  1.36533e-16 
    5133.27  1.26301e-16 
    5134.56  1.19639e-16 
    5135.85  1.18824e-16 
    5137.14   1.2054e-16 
    5138.43  1.23604e-16 
    5139.72   1.2528e-16 
    5141.01  1.26598e-16 
     5142.3  1.26636e-16 
    5143.59  1.30034e-16 
    5144.88  1.29841e-16 
    5146.17  1.29176e-16 
    5147.46  1.24085e-16 
    5148.75  1.21686e-16 
    5150.04  1.22913e-16 
    5151.33  1.24035e-16 
    5152.62  1.23165e-16 
    5153.91  1.20916e-16 
     5155.2  1.17788e-16 
    5156.49  1.25802e-16 
    5157.78   1.4292e-16 
    5159.07  1.57088e-16 
    5160.36  1.60336e-16 
    5161.65  1.52528e-16 
    5162.94  1.41969e-16 
    5164.23  1.35517e-16 
    5165.52   1.3231e-16 
    5166.81  1.28393e-16 
     5168.1   1.2504e-16 
     5169.4  1.26713e-16 
    5170.69  1.29522e-16 
    5171.98   1.2899e-16 
    5173.27  1.28054e-16 
    5174.56  1.28446e-16 
    5175.85  1.29807e-16 
    5177.14  1.31557e-16 
    5178.43  1.30141e-16 
    5179.72  1.25918e-16 
    5181.01  1.25357e-16 
     5182.3  1.28356e-16 
    5183.59  1.28243e-16 
    5184.88   1.2668e-16 
    5186.17  1.23777e-16 
    5187.46  1.22458e-16 
    5188.75  1.22856e-16 
    5190.04  1.21741e-16 
    5191.33  1.25155e-16 
    5192.62  1.32833e-16 
    5193.91  1.31654e-16 
     5195.2  1.26467e-16 
    5196.49  1.25959e-16 
    5197.78  1.28689e-16 
    5199.07  1.32142e-16 
    5200.36  1.32648e-16 
    5201.65  1.27498e-16 
    5202.94  1.18977e-16 
    5204.23  1.18703e-16 
    5205.52  1.21775e-16 
    5206.81  1.16896e-16 
     5208.1  1.16616e-16 
    5209.39  1.23569e-16 
    5210.68  1.20147e-16 
    5211.97  1.16975e-16 
    5213.26  1.17962e-16 
    5214.55  1.26812e-16 
    5215.84  1.31399e-16 
    5217.13  1.27145e-16 
    5218.42  1.23081e-16 
    5219.71  1.19243e-16 
     5221.0  1.23064e-16 
    5222.29  1.16641e-16 
    5223.58  1.12577e-16 
    5224.87  1.17628e-16 
    5226.16  1.19063e-16 
    5227.45  1.24809e-16 
    5228.74  1.28961e-16 
    5230.03  1.29654e-16 
    5231.33  1.24006e-16 
    5232.62  1.21218e-16 
    5233.91  1.21562e-16 
     5235.2   1.2397e-16 
    5236.49  1.21719e-16 
    5237.78  1.22271e-16 
    5239.07  1.23408e-16 
    5240.36  1.21999e-16 
    5241.65  1.24362e-16 
    5242.94  1.31298e-16 
    5244.23  1.40714e-16 
    5245.52  1.34979e-16 
    5246.81  1.32581e-16 
     5248.1   1.3217e-16 
    5249.39  1.26293e-16 
    5250.68   1.2498e-16 
    5251.97  1.24949e-16 
    5253.26  1.21853e-16 
    5254.55  1.16192e-16 
    5255.84  1.14965e-16 
    5257.13  1.23486e-16 
    5258.42  1.32316e-16 
    5259.71  1.31009e-16 
     5261.0  1.26177e-16 
    5262.29  1.27703e-16 
    5263.58  1.33688e-16 
    5264.87  1.25516e-16 
    5266.16  1.19856e-16 
    5267.45  1.24611e-16 
    5268.74  1.27827e-16 
    5270.03  1.30335e-16 
    5271.32  1.30503e-16 
    5272.61  1.28639e-16 
     5273.9  1.30109e-16 
    5275.19  1.36499e-16 
    5276.48  1.37698e-16 
    5277.77  1.31168e-16 
    5279.06  1.33553e-16 
    5280.35  1.37861e-16 
    5281.64  1.35819e-16 
    5282.93  1.35722e-16 
    5284.22  1.37487e-16 
    5285.51  1.36254e-16 
     5286.8  1.33974e-16 
    5288.09  1.33272e-16 
    5289.38    1.322e-16 
    5290.67  1.32341e-16 
    5291.96  1.35689e-16 
    5293.26  1.36122e-16 
    5294.55  1.32677e-16 
    5295.84  1.32968e-16 
    5297.13  1.37086e-16 
    5298.42  1.36254e-16 
    5299.71  1.34388e-16 
     5301.0  1.40111e-16 
    5302.29  1.41889e-16 
    5303.58  1.36511e-16 
    5304.87  1.34481e-16 
    5306.16  1.33632e-16 
    5307.45  1.29695e-16 
    5308.74  1.26382e-16 
    5310.03  1.34938e-16 
    5311.32  1.43048e-16 
    5312.61  1.38692e-16 
     5313.9  1.34062e-16 
    5315.19  1.41279e-16 
    5316.48    1.437e-16 
    5317.77  1.37127e-16 
    5319.06  1.37636e-16 
    5320.35  1.43885e-16 
    5321.64  1.43439e-16 
    5322.93  1.40883e-16 
    5324.22   1.4217e-16 
    5325.51     1.44e-16 
     5326.8  1.42473e-16 
    5328.09  1.42235e-16 
    5329.38  1.41288e-16 
    5330.67  1.42426e-16 
    5331.96  1.39671e-16 
    5333.25  1.42499e-16 
    5334.54  1.43081e-16 
    5335.83  1.42502e-16 
    5337.12  1.43715e-16 
    5338.41  1.42497e-16 
     5339.7  1.43376e-16 
    5340.99  1.49952e-16 
    5342.28  1.54854e-16 
    5343.57  1.53512e-16 
    5344.86  1.51231e-16 
    5346.15  1.54796e-16 
    5347.44  1.51789e-16 
    5348.73  1.44516e-16 
    5350.02  1.42604e-16 
    5351.31  1.43319e-16 
     5352.6  1.43849e-16 
    5353.89  1.44305e-16 
    5355.18  1.44789e-16 
    5356.48  1.45294e-16 
    5357.77  1.45782e-16 
    5359.06  1.45981e-16 
    5360.35  1.48112e-16 
    5361.64  1.56819e-16 
    5362.93  1.64446e-16 
    5364.22  1.65556e-16 
    5365.51  1.66135e-16 
     5366.8  1.60655e-16 
    5368.09  1.54173e-16 
    5369.38  1.56078e-16 
    5370.67  1.56679e-16 
    5371.96  1.59063e-16 
    5373.25  1.60745e-16 
    5374.54  1.65653e-16 
    5375.83  1.69249e-16 
    5377.12  1.65909e-16 
    5378.41  1.59285e-16 
     5379.7  1.61214e-16 
    5380.99  1.60476e-16 
    5382.28  1.58792e-16 
    5383.57  1.53517e-16 
    5384.86  1.52398e-16 
    5386.15  1.59752e-16 
    5387.44  1.65699e-16 
    5388.73  1.68951e-16 
    5390.02  1.69766e-16 
    5391.31  1.64529e-16 
     5392.6  1.63298e-16 
    5393.89  1.64826e-16 
    5395.18  1.59388e-16 
    5396.47  1.59412e-16 
    5397.76  1.64348e-16 
    5399.05  1.62547e-16 
    5400.34  1.59455e-16 
    5401.63  1.60171e-16 
    5402.92  1.63035e-16 
    5404.21   1.6196e-16 
     5405.5  1.59014e-16 
    5406.79  1.64852e-16 
    5408.08  1.70194e-16 
    5409.37  1.64632e-16 
    5410.66  1.59114e-16 
    5411.95  1.58148e-16 
    5413.24   1.6031e-16 
    5414.53  1.64206e-16 
    5415.82  1.62441e-16 
    5417.11  1.62292e-16 
    5418.41  1.69951e-16 
     5419.7  1.70999e-16 
    5420.99  1.67164e-16 
    5422.28  1.66868e-16 
    5423.57  1.65442e-16 
    5424.86   1.6284e-16 
    5426.15  1.65462e-16 
    5427.44  1.67787e-16 
    5428.73   1.6689e-16 
    5430.02  1.65307e-16 
    5431.31  1.65593e-16 
     5432.6  1.62718e-16 
    5433.89  1.57444e-16 
    5435.18  1.57521e-16 
    5436.47  1.56226e-16 
    5437.76  1.62268e-16 
    5439.05  1.69412e-16 
    5440.34  1.67354e-16 
    5441.63  1.65753e-16 
    5442.92  1.67742e-16 
    5444.21   1.6396e-16 
     5445.5    1.726e-16 
    5446.79  1.78336e-16 
    5448.08  1.77021e-16 
    5449.37   1.7243e-16 
    5450.66  1.64784e-16 
    5451.95  1.64995e-16 
    5453.24  1.58343e-16 
    5454.53  1.60089e-16 
    5455.82  1.69375e-16 
    5457.11  1.68828e-16 
     5458.4  1.64515e-16 
    5459.69  1.63999e-16 
    5460.98  1.64805e-16 
    5462.27  1.72016e-16 
    5463.56  1.77466e-16 
    5464.85  1.72244e-16 
    5466.14  1.64788e-16 
    5467.43  1.66832e-16 
    5468.72  1.70489e-16 
    5470.01  1.61143e-16 
     5471.3  1.60671e-16 
    5472.59  1.72269e-16 
    5473.88  1.78012e-16 
    5475.17  1.71505e-16 
    5476.46  1.65444e-16 
    5477.75  1.69902e-16 
    5479.04  1.71813e-16 
    5480.33  1.68919e-16 
    5481.63   1.6887e-16 
    5482.92  1.70236e-16 
    5484.21  1.70604e-16 
     5485.5  1.66024e-16 
    5486.79  1.58856e-16 
    5488.08  1.62842e-16 
    5489.37  1.69326e-16 
    5490.66  1.68484e-16 
    5491.95  1.65562e-16 
    5493.24  1.63937e-16 
    5494.53  1.63409e-16 
    5495.82  1.59717e-16 
    5497.11  1.61083e-16 
     5498.4  1.67768e-16 
    5499.69  1.72598e-16 
    5500.98  1.74107e-16 
    5502.27  1.70128e-16 
    5503.56  1.69263e-16 
    5504.85  1.74054e-16 
    5506.14  1.76544e-16 
    5507.43  1.66381e-16 
    5508.72  1.51593e-16 
    5510.01  1.51181e-16 
     5511.3  1.59505e-16 
    5512.59  1.60743e-16 
    5513.88  1.58773e-16 
    5515.17  1.61621e-16 
    5516.46  1.61735e-16 
    5517.75  1.58091e-16 
    5519.04  1.59184e-16 
    5520.33  1.62141e-16 
    5521.62  1.62256e-16 
    5522.91  1.67327e-16 
     5524.2  1.69389e-16 
    5525.49  1.58435e-16 
    5526.78  1.46021e-16 
    5528.07   1.4316e-16 
    5529.36  1.45797e-16 
    5530.65  1.52001e-16 
    5531.94  1.55812e-16 
    5533.23  1.56967e-16 
    5534.52  1.59336e-16 
    5535.81  1.59463e-16 
     5537.1   1.5768e-16 
    5538.39  1.56703e-16 
    5539.68  1.56127e-16 
    5540.97  1.53608e-16 
    5542.26  1.55868e-16 
    5543.56   1.5873e-16 
    5544.85  1.59649e-16 
    5546.14  1.60124e-16 
    5547.43   1.6708e-16 
    5548.72  1.65778e-16 
    5550.01    1.498e-16 
     5551.3  1.44832e-16 
    5552.59  1.49787e-16 
    5553.88  1.48312e-16 
    5555.17   1.3528e-16 
    5556.46  1.43345e-16 
    5557.75  1.60291e-16 
    5559.04  1.61004e-16 
    5560.33  1.61469e-16 
    5561.62  1.53383e-16 
    5562.91  1.46462e-16 
     5564.2  1.52152e-16 
    5565.49  1.63146e-16 
    5566.78  1.65799e-16 
    5568.07  1.58021e-16 
    5569.36  1.47726e-16 
    5570.65  1.48465e-16 
    5571.94  1.50409e-16 
    5573.23  1.42524e-16 
    5574.52  1.39768e-16 
    5575.81  1.45073e-16 
     5577.1  1.57355e-16 
    5578.39  1.76856e-16 
    5579.68  1.72291e-16 
    5580.97  1.52032e-16 
    5582.26  1.43572e-16 
    5583.55  1.49957e-16 
    5584.84   1.5079e-16 
    5586.13  1.49887e-16 
    5587.42  1.49241e-16 
    5588.71  1.52772e-16 
     5590.0  1.59297e-16 
    5591.29  1.60637e-16 
    5592.58  1.53903e-16 
    5593.87  1.48593e-16 
    5595.16  1.47571e-16 
    5596.45   1.4801e-16 
    5597.74  1.48881e-16 
    5599.03  1.51324e-16 
    5600.32   1.4978e-16 
    5601.61  1.39644e-16 
     5602.9  1.36343e-16 
    5604.19  1.42006e-16 
    5605.48   1.4592e-16 
    5606.78    1.443e-16 
    5608.07  1.48549e-16 
    5609.36  1.56523e-16 
    5610.65  1.51523e-16 
    5611.94   1.4605e-16 
    5613.23   1.4671e-16 
    5614.52   1.4632e-16 
    5615.81  1.46212e-16 
     5617.1  1.49011e-16 
    5618.39  1.51353e-16 
    5619.68   1.4658e-16 
    5620.97  1.44011e-16 
    5622.26  1.49162e-16 
    5623.55  1.44554e-16 
    5624.84  1.40582e-16 
    5626.13  1.50262e-16 
    5627.42  1.56702e-16 
    5628.71  1.52042e-16 
     5630.0  1.48318e-16 
    5631.29  1.48927e-16 
    5632.58  1.39645e-16 
    5633.87  1.37774e-16 
    5635.16  1.43351e-16 
    5636.45  1.38973e-16 
    5637.74  1.36895e-16 
    5639.03    1.458e-16 
    5640.32  1.51994e-16 
    5641.61  1.53363e-16 
     5642.9  1.47844e-16 
    5644.19  1.40512e-16 
    5645.48  1.44723e-16 
    5646.77   1.4626e-16 
    5648.06  1.46244e-16 
    5649.35  1.44075e-16 
    5650.64  1.40222e-16 
    5651.93  1.37755e-16 
    5653.22  1.28093e-16 
    5654.51  1.30164e-16 
     5655.8  1.35399e-16 
    5657.09  1.28992e-16 
    5658.38  1.30013e-16 
    5659.67  1.46313e-16 
    5660.96  1.50672e-16 
    5662.25  1.43216e-16 
    5663.54  1.37133e-16 
    5664.83  1.37108e-16 
    5666.12  1.44593e-16 
    5667.41  1.46497e-16 
    5668.71  1.38017e-16 
     5670.0  1.32698e-16 
    5671.29  1.34492e-16 
    5672.58  1.31961e-16 
    5673.87  1.28008e-16 
    5675.16  1.27282e-16 
    5676.45  1.29227e-16 
    5677.74  1.35021e-16 
    5679.03  1.31648e-16 
    5680.32  1.30377e-16 
    5681.61  1.26778e-16 
     5682.9   1.1771e-16 
    5684.19  1.17357e-16 
    5685.48  1.23177e-16 
    5686.77  1.30448e-16 
    5688.06  1.28861e-16 
    5689.35  1.25162e-16 
    5690.64  1.29199e-16 
    5691.93  1.27889e-16 
    5693.22  1.23359e-16 
    5694.51  1.22709e-16 
     5695.8  1.14701e-16 
    5697.09  1.09413e-16 
    5698.38   1.1344e-16 
    5699.67  1.21873e-16 
    5700.96  1.30539e-16 
    5702.25  1.28353e-16 
    5703.54  1.21745e-16 
    5704.83  1.20006e-16 
    5706.12   1.2378e-16 
    5707.41  1.23639e-16 
     5708.7  1.23172e-16 
    5709.99  1.26619e-16 
    5711.28  1.29722e-16 
    5712.57   1.3419e-16 
    5713.86  1.31879e-16 
    5715.15  1.27558e-16 
    5716.44  1.27895e-16 
    5717.73  1.31111e-16 
    5719.02  1.35504e-16 
    5720.31    1.321e-16 
     5721.6   1.2507e-16 
    5722.89  1.23376e-16 
    5724.18  1.21743e-16 
    5725.47  1.23609e-16 
    5726.76  1.20273e-16 
    5728.05  1.12887e-16 
    5729.34  1.12602e-16 
    5730.64  1.21503e-16 
    5731.93  1.18607e-16 
    5733.22  1.12702e-16 
    5734.51  1.17721e-16 
     5735.8  1.21479e-16 
    5737.09  1.16482e-16 
    5738.38   1.1794e-16 
    5739.67  1.19626e-16 
    5740.96  1.20897e-16 
    5742.25  1.24174e-16 
    5743.54  1.25447e-16 
    5744.83  1.30953e-16 
    5746.12  1.33333e-16 
    5747.41   1.2196e-16 
     5748.7  1.16929e-16 
    5749.99  1.19024e-16 
    5751.28  1.24367e-16 
    5752.57  1.32494e-16 
    5753.86  1.32677e-16 
    5755.15  1.32074e-16 
    5756.44   1.2987e-16 
    5757.73  1.28698e-16 
    5759.02  1.24972e-16 
    5760.31     1.24e-16 
     5761.6  1.16277e-16 
    5762.89  1.11314e-16 
    5764.18  1.14061e-16 
    5765.47  1.21051e-16 
    5766.76  1.25084e-16 
    5768.05  1.25962e-16 
    5769.34   1.2948e-16 
    5770.63  1.29629e-16 
    5771.92  1.24242e-16 
    5773.21  1.20934e-16 
     5774.5  1.21043e-16 
    5775.79  1.22641e-16 
    5777.08   1.2446e-16 
    5778.37  1.21579e-16 
    5779.66   1.2103e-16 
    5780.95  1.24724e-16 
    5782.24  1.22698e-16 
    5783.53  1.19242e-16 
    5784.82  1.24803e-16 
    5786.11  1.30639e-16 
     5787.4  1.28845e-16 
    5788.69  1.27566e-16 
    5789.98  1.29464e-16 
    5791.27   1.3035e-16 
    5792.56  1.28687e-16 
    5793.86  1.29517e-16 
    5795.15  1.29741e-16 
    5796.44  1.19507e-16 
    5797.73  1.15755e-16 
    5799.02  1.21004e-16 
    5800.31  1.24639e-16 
     5801.6  1.24098e-16 
    5802.89  1.19923e-16 
    5804.18  1.21604e-16 
    5805.47  1.24614e-16 
    5806.76  1.29344e-16 
    5808.05  1.24745e-16 
    5809.34  1.20781e-16 
    5810.63  1.24123e-16 
    5811.92   1.2691e-16 
    5813.21  1.23183e-16 
     5814.5  1.20652e-16 
    5815.79  1.22796e-16 
    5817.08  1.25626e-16 
    5818.37  1.27848e-16 
    5819.66  1.25688e-16 
    5820.95  1.27683e-16 
    5822.24  1.26158e-16 
    5823.53   1.2802e-16 
    5824.82  1.22899e-16 
    5826.11  1.27708e-16 
     5827.4  1.30952e-16 
    5828.69  1.25762e-16 
    5829.98  1.19574e-16 
    5831.27    1.187e-16 
    5832.56  1.22313e-16 
    5833.85  1.25379e-16 
    5835.14  1.21141e-16 
    5836.43   1.1433e-16 
    5837.72  1.18238e-16 
    5839.01  1.24175e-16 
     5840.3  1.26664e-16 
    5841.59  1.30477e-16 
    5842.88   1.2271e-16 
    5844.17  1.09167e-16 
    5845.46  1.04168e-16 
    5846.75   1.0059e-16 
    5848.04  1.09144e-16 
    5849.33  1.12158e-16 
    5850.62  1.10118e-16 
    5851.91  1.15625e-16 
     5853.2  1.15721e-16 
    5854.49  1.11119e-16 
    5855.79  1.06727e-16 
    5857.08  1.05874e-16 
    5858.37  1.07831e-16 
    5859.66  1.11711e-16 
    5860.95  1.07606e-16 
    5862.24  9.94276e-17 
    5863.53  1.05186e-16 
    5864.82   1.1598e-16 
    5866.11  1.15583e-16 
     5867.4  1.12632e-16 
    5868.69  1.10363e-16 
    5869.98  1.05663e-16 
    5871.27  1.06291e-16 
    5872.56  1.10502e-16 
    5873.85  1.12603e-16 
    5875.14  1.08839e-16 
    5876.43  1.01775e-16 
    5877.72  1.05283e-16 
    5879.01  1.05624e-16 
     5880.3  1.00149e-16 
    5881.59  9.91577e-17 
    5882.88  9.63176e-17 
    5884.17  9.72035e-17 
    5885.46  9.81961e-17 
    5886.75  9.15411e-17 
    5888.04  9.30717e-17 
    5889.33  8.91101e-17 
    5890.62  9.13231e-17 
    5891.91  1.07025e-16 
     5893.2   1.0201e-16 
    5894.49  9.49921e-17 
    5895.78   9.5282e-17 
    5897.07  9.15865e-17 
    5898.36  9.78292e-17 
    5899.65  9.64458e-17 
    5900.94  8.97256e-17 
    5902.23  8.15471e-17 
    5903.52  8.56501e-17 
    5904.81  9.12712e-17 
     5906.1  9.04915e-17 
    5907.39  8.51159e-17 
    5908.68  8.43952e-17 
    5909.97  8.65524e-17 
    5911.26  8.84526e-17 
    5912.55  8.67209e-17 
    5913.84  8.50826e-17 
    5915.13  7.95938e-17 
    5916.42  7.99233e-17 
    5917.71   8.5054e-17 
    5919.01   8.1356e-17 
     5920.3  8.10666e-17 
    5921.59  8.82252e-17 
    5922.88  9.29535e-17 
    5924.17  9.00341e-17 
    5925.46  8.45672e-17 
    5926.75  8.34554e-17 
    5928.04  8.66822e-17 
    5929.33  8.48146e-17 
    5930.62  8.40816e-17 
    5931.91  8.64356e-17 
     5933.2  9.09223e-17 
    5934.49  8.96576e-17 
    5935.78  8.50748e-17 
    5937.07  7.98233e-17 
    5938.36  7.71963e-17 
    5939.65  8.27055e-17 
    5940.94  9.12646e-17 
    5942.23  9.15665e-17 
    5943.52  8.68201e-17 
    5944.81  8.47127e-17 
     5946.1  8.61624e-17 
    5947.39  8.71452e-17 
    5948.68  8.16209e-17 
    5949.97  7.65861e-17 
    5951.26  7.62373e-17 
    5952.55  7.79143e-17 
    5953.84  8.13817e-17 
    5955.13  8.14391e-17 
    5956.42  7.98795e-17 
    5957.71  7.86363e-17 
     5959.0  8.12561e-17 
    5960.29  8.23286e-17 
    5961.58  8.10653e-17 
    5962.87  8.66297e-17 
    5964.16  8.60632e-17 
    5965.45  8.40148e-17 
    5966.74  8.58083e-17 
    5968.03  7.87162e-17 
    5969.32  8.07598e-17 
    5970.61  8.92996e-17 
     5971.9  9.37543e-17 
    5973.19  9.07859e-17 
    5974.48  9.37139e-17 
    5975.77  1.01573e-16 
    5977.06  1.01565e-16 
    5978.35  8.94306e-17 
    5979.64  7.80958e-17 
    5980.94  8.02645e-17 
    5982.23  9.26113e-17 
    5983.52  9.09154e-17 
    5984.81  8.74957e-17 
     5986.1  9.07181e-17 
    5987.39  9.14351e-17 
    5988.68  9.28995e-17 
    5989.97  9.51197e-17 
    5991.26  9.59722e-17 
    5992.55  9.84856e-17 
    5993.84  1.01605e-16 
    5995.13  9.67404e-17 
    5996.42  9.30288e-17 
    5997.71  9.45852e-17 
     5999.0  9.85035e-17 
    6000.29  9.75603e-17 
    6001.58   8.8972e-17 
    6002.87  8.93001e-17 
    6004.16  9.66727e-17 
    6005.45  1.00619e-16 
    6006.74  1.00488e-16 
    6008.03  9.85311e-17 
    6009.32  9.35423e-17 
    6010.61  9.20152e-17 
     6011.9  1.01484e-16 
    6013.19   1.1583e-16 
    6014.48  1.17994e-16 
    6015.77  1.06253e-16 
    6017.06  9.98206e-17 
    6018.35  1.04155e-16 
    6019.64  1.03511e-16 
    6020.93  1.04906e-16 
    6022.22  1.09466e-16 
    6023.51  1.11274e-16 
     6024.8  1.15316e-16 
    6026.09  1.12257e-16 
    6027.38  1.09212e-16 
    6028.67  1.16438e-16 
    6029.96  1.18373e-16 
    6031.25  1.14072e-16 
    6032.54  1.10883e-16 
    6033.83  1.04598e-16 
    6035.12  1.05744e-16 
    6036.41  1.13265e-16 
     6037.7  1.17043e-16 
    6038.99  1.11127e-16 
    6040.28  1.06076e-16 
    6041.57  1.11269e-16 
    6042.86   1.1738e-16 
    6044.16  1.12484e-16 
    6045.45  1.11207e-16 
    6046.74  1.17721e-16 
    6048.03  1.18893e-16 
    6049.32  1.18311e-16 
    6050.61  1.22427e-16 
     6051.9  1.28391e-16 
    6053.19  1.32193e-16 
    6054.48  1.30335e-16 
    6055.77  1.27975e-16 
    6057.06  1.15459e-16 
    6058.35  1.15954e-16 
    6059.64  1.27482e-16 
    6060.93  1.31699e-16 
    6062.22  1.23112e-16 
    6063.51  1.21061e-16 
     6064.8  1.16712e-16 
    6066.09   1.1595e-16 
    6067.38  1.18352e-16 
    6068.67  1.19729e-16 
    6069.96  1.24602e-16 
    6071.25  1.20532e-16 
    6072.54  1.13188e-16 
    6073.83  1.16115e-16 
    6075.12  1.20871e-16 
    6076.41  1.16378e-16 
     6077.7  1.17041e-16 
    6078.99  1.21853e-16 
    6080.28  1.26656e-16 
    6081.57   1.2857e-16 
    6082.86  1.22383e-16 
    6084.15  1.22961e-16 
    6085.44  1.30266e-16 
    6086.73  1.32194e-16 
    6088.02   1.2857e-16 
    6089.31  1.19376e-16 
     6090.6  1.17054e-16 
    6091.89  1.25073e-16 
    6093.18  1.27101e-16 
    6094.47  1.25498e-16 
    6095.76   1.2714e-16 
    6097.05  1.25226e-16 
    6098.34  1.24384e-16 
    6099.63  1.31104e-16 
    6100.92  1.31895e-16 
    6102.21  1.26268e-16 
     6103.5  1.31059e-16 
    6104.79   1.3565e-16 
    6106.09  1.28677e-16 
    6107.38  1.19375e-16 
    6108.67  1.18388e-16 
    6109.96  1.25226e-16 
    6111.25  1.30054e-16 
    6112.54  1.24659e-16 
    6113.83  1.17113e-16 
    6115.12  1.17164e-16 
    6116.41  1.31976e-16 
     6117.7  1.41476e-16 
    6118.99  1.31856e-16 
    6120.28  1.22706e-16 
    6121.57   1.2441e-16 
    6122.86  1.26345e-16 
    6124.15  1.26582e-16 
    6125.44  1.25426e-16 
    6126.73  1.29096e-16 
    6128.02  1.33956e-16 
    6129.31  1.25398e-16 
     6130.6  1.14936e-16 
    6131.89  1.15722e-16 
    6133.18  1.18314e-16 
    6134.47  1.17186e-16 
    6135.76  1.14481e-16 
    6137.05  1.20047e-16 
    6138.34  1.25053e-16 
    6139.63  1.26681e-16 
    6140.92   1.2583e-16 
    6142.21  1.23312e-16 
     6143.5  1.22771e-16 
    6144.79  1.22745e-16 
    6146.08  1.18159e-16 
    6147.37  1.18355e-16 
    6148.66  1.20093e-16 
    6149.95  1.23889e-16 
    6151.24    1.311e-16 
    6152.53  1.28724e-16 
    6153.82  1.22785e-16 
    6155.11  1.24696e-16 
     6156.4  1.22238e-16 
    6157.69  1.16239e-16 
    6158.98  1.11693e-16 
    6160.27  1.11237e-16 
    6161.56  1.11202e-16 
    6162.85  1.08669e-16 
    6164.14  1.11796e-16 
    6165.43  1.12277e-16 
    6166.72  1.11284e-16 
    6168.02  1.16806e-16 
    6169.31  1.18214e-16 
     6170.6   1.1667e-16 
    6171.89  1.13446e-16 
    6173.18  1.08119e-16 
    6174.47  1.09106e-16 
    6175.76  1.12681e-16 
    6177.05  1.11757e-16 
    6178.34   1.1222e-16 
    6179.63  1.15292e-16 
    6180.92   1.1345e-16 
    6182.21  1.10299e-16 
     6183.5  1.14757e-16 
    6184.79  1.18578e-16 
    6186.08  1.19726e-16 
    6187.37    1.227e-16 
    6188.66  1.14766e-16 
    6189.95  1.05061e-16 
    6191.24  1.00897e-16 
    6192.53  1.05078e-16 
    6193.82  1.03228e-16 
    6195.11  1.08524e-16 
     6196.4  1.07608e-16 
    6197.69   9.8962e-17 
    6198.98  1.03451e-16 
    6200.27  1.02513e-16 
    6201.56  9.62302e-17 
    6202.85  1.01571e-16 
    6204.14  1.09598e-16 
    6205.43  1.05805e-16 
    6206.72  1.06768e-16 
    6208.01  1.10028e-16 
     6209.3  1.06996e-16 
    6210.59  1.08542e-16 
    6211.88  1.16625e-16 
    6213.17  1.18732e-16 
    6214.46  1.19297e-16 
    6215.75  1.19829e-16 
    6217.04  1.18565e-16 
    6218.33  1.19146e-16 
    6219.62   1.1553e-16 
    6220.91    1.076e-16 
     6222.2  1.05011e-16 
    6223.49  1.04492e-16 
    6224.78  1.03911e-16 
    6226.07  1.10505e-16 
    6227.36  1.11491e-16 
    6228.65  1.08095e-16 
    6229.94   1.1179e-16 
    6231.24  1.14579e-16 
    6232.53  1.11253e-16 
    6233.82  1.08373e-16 
    6235.11  1.08264e-16 
     6236.4  1.02337e-16 
    6237.69  9.99575e-17 
    6238.98  1.10946e-16 
    6240.27  1.15509e-16 
    6241.56  1.09767e-16 
    6242.85  1.04322e-16 
    6244.14  1.03212e-16 
    6245.43  1.03877e-16 
    6246.72  1.02047e-16 
    6248.01  1.03093e-16 
     6249.3  1.09665e-16 
    6250.59  1.08227e-16 
    6251.88  1.05654e-16 
    6253.17  1.10978e-16 
    6254.46  1.09902e-16 
    6255.75  9.98944e-17 
    6257.04  1.03076e-16 
    6258.33  1.14046e-16 
    6259.62  1.22288e-16 
    6260.91  1.14328e-16 
     6262.2  1.06559e-16 
    6263.49   1.1361e-16 
    6264.78  1.14787e-16 
    6266.07  1.14708e-16 
    6267.36   1.1269e-16 
    6268.65  1.08619e-16 
    6269.94  1.09186e-16 
    6271.23  1.15403e-16 
    6272.52  1.09392e-16 
    6273.81  1.04084e-16 
     6275.1  1.14089e-16 
    6276.39  1.19625e-16 
    6277.68  1.18556e-16 
    6278.97  1.19373e-16 
    6280.26  1.16782e-16 
    6281.55  1.17913e-16 
    6282.84  1.20705e-16 
    6284.13  1.16524e-16 
    6285.42   1.1278e-16 
    6286.71  1.12734e-16 
     6288.0  1.17683e-16 
    6289.29  1.20224e-16 
    6290.58  1.16791e-16 
    6291.87  1.15284e-16 
    6293.17  1.18389e-16 
    6294.46  1.20282e-16 
    6295.75  1.27356e-16 
    6297.04  1.27034e-16 
    6298.33  1.04939e-16 
    6299.62  9.83939e-17 
    6300.91  1.10489e-16 
     6302.2   1.2105e-16 
    6303.49  1.23636e-16 
    6304.78  1.17072e-16 
    6306.07  1.22815e-16 
    6307.36    1.304e-16 
    6308.65  1.26194e-16 
    6309.94  1.19909e-16 
    6311.23  1.21656e-16 
    6312.52  1.25299e-16 
    6313.81  1.24334e-16 
     6315.1  1.22786e-16 
    6316.39  1.20123e-16 
    6317.68  1.16263e-16 
    6318.97  1.17038e-16 
    6320.26  1.26503e-16 
    6321.55   1.3301e-16 
    6322.84  1.23408e-16 
    6324.13  1.15026e-16 
    6325.42  1.18907e-16 
    6326.71  1.24655e-16 
     6328.0  1.27724e-16 
    6329.29  1.26026e-16 
    6330.58  1.23665e-16 
    6331.87  1.30927e-16 
    6333.16  1.37212e-16 
    6334.45  1.38903e-16 
    6335.74   1.2818e-16 
    6337.03  1.23707e-16 
    6338.32   1.2075e-16 
    6339.61  1.20169e-16 
     6340.9  1.21728e-16 
    6342.19  1.16322e-16 
    6343.48  1.27647e-16 
    6344.77  1.31528e-16 
    6346.06  1.29811e-16 
    6347.35   1.2726e-16 
    6348.64  1.21582e-16 
    6349.93  1.30353e-16 
    6351.22  1.41062e-16 
    6352.51  1.38931e-16 
     6353.8   1.3393e-16 
    6355.09  1.33184e-16 
    6356.39  1.38764e-16 
    6357.68  1.39588e-16 
    6358.97  1.38769e-16 
    6360.26  1.33009e-16 
    6361.55  1.25998e-16 
    6362.84   1.2545e-16 
    6364.13   1.2928e-16 
    6365.42  1.28969e-16 
    6366.71  1.29536e-16 
     6368.0  1.30108e-16 
    6369.29  1.27302e-16 
    6370.58  1.25573e-16 
    6371.87  1.26929e-16 
    6373.16  1.32863e-16 
    6374.45  1.34943e-16 
    6375.74  1.32225e-16 
    6377.03  1.31741e-16 
    6378.32   1.3268e-16 
    6379.61  1.34725e-16 
     6380.9  1.38222e-16 
    6382.19  1.42393e-16 
    6383.48  1.36778e-16 
    6384.77  1.30286e-16 
    6386.06  1.33337e-16 
    6387.35  1.39267e-16 
    6388.64   1.3613e-16 
    6389.93   1.3439e-16 
    6391.22  1.36871e-16 
    6392.51  1.37753e-16 
     6393.8  1.31905e-16 
    6395.09  1.29612e-16 
    6396.38   1.3461e-16 
    6397.67  1.34861e-16 
    6398.96  1.27452e-16 
    6400.25  1.26946e-16 
    6401.54  1.34366e-16 
    6402.83   1.3349e-16 
    6404.12  1.29979e-16 
    6405.41  1.33745e-16 
     6406.7  1.23177e-16 
    6407.99  1.25938e-16 
    6409.28  1.38076e-16 
    6410.57  1.39089e-16 
    6411.86  1.41555e-16 
    6413.15  1.36956e-16 
    6414.44  1.38729e-16 
    6415.73  1.33405e-16 
    6417.02  1.26973e-16 
    6418.32  1.31588e-16 
    6419.61  1.37459e-16 
     6420.9  1.39077e-16 
    6422.19  1.39292e-16 
    6423.48  1.43156e-16 
    6424.77  1.41254e-16 
    6426.06  1.35244e-16 
    6427.35  1.38048e-16 
    6428.64  1.38619e-16 
    6429.93  1.34644e-16 
    6431.22  1.37785e-16 
    6432.51  1.37812e-16 
     6433.8  1.29753e-16 
    6435.09  1.32494e-16 
    6436.38  1.43257e-16 
    6437.67  1.40535e-16 
    6438.96  1.35845e-16 
    6440.25  1.40959e-16 
    6441.54  1.44026e-16 
    6442.83  1.43703e-16 
    6444.12  1.43526e-16 
    6445.41  1.47394e-16 
     6446.7  1.42824e-16 
    6447.99  1.44543e-16 
    6449.28   1.4635e-16 
    6450.57  1.37118e-16 
    6451.86  1.39225e-16 
    6453.15  1.50855e-16 
    6454.44  1.54061e-16 
    6455.73   1.4395e-16 
    6457.02  1.46454e-16 
    6458.31  1.58866e-16 
     6459.6  1.64887e-16 
    6460.89  1.59046e-16 
    6462.18  1.51273e-16 
    6463.47  1.53437e-16 
    6464.76  1.50454e-16 
    6466.05  1.46734e-16 
    6467.34  1.45528e-16 
    6468.63  1.50275e-16 
    6469.92  1.53957e-16 
    6471.21  1.53024e-16 
     6472.5  1.48952e-16 
    6473.79   1.4123e-16 
    6475.08  1.43277e-16 
    6476.37   1.4164e-16 
    6477.66  1.36853e-16 
    6478.95  1.45334e-16 
    6480.25  1.50817e-16 
    6481.54  1.43585e-16 
    6482.83  1.40109e-16 
    6484.12  1.45227e-16 
    6485.41   1.4526e-16 
     6486.7  1.44579e-16 
    6487.99  1.43653e-16 
    6489.28   1.3742e-16 
    6490.57  1.40084e-16 
    6491.86  1.51019e-16 
    6493.15  1.54614e-16 
    6494.44  1.54199e-16 
    6495.73  1.47191e-16 
    6497.02  1.44202e-16 
    6498.31  1.54263e-16 
     6499.6  1.54627e-16 
    6500.89  1.49578e-16 
    6502.18  1.42996e-16 
    6503.47  1.42872e-16 
    6504.76  1.51821e-16 
    6506.05  1.54809e-16 
    6507.34  1.51327e-16 
    6508.63  1.47771e-16 
    6509.92   1.4851e-16 
    6511.21  1.56733e-16 
     6512.5  1.52451e-16 
    6513.79  1.46696e-16 
    6515.08  1.48671e-16 
    6516.37  1.53746e-16 
    6517.66  1.61697e-16 
    6518.95  1.59448e-16 
    6520.24  1.54479e-16 
    6521.53  1.56906e-16 
    6522.82  1.65178e-16 
    6524.11   1.6172e-16 
     6525.4  1.50487e-16 
    6526.69  1.54798e-16 
    6527.98  1.52994e-16 
    6529.27  1.48382e-16 
    6530.56  1.48863e-16 
    6531.85  1.50789e-16 
    6533.14   1.4972e-16 
    6534.43  1.48821e-16 
    6535.72  1.46131e-16 
    6537.01  1.47088e-16 
     6538.3    1.508e-16 
    6539.59  1.52371e-16 
    6540.88  1.50899e-16 
    6542.17  1.52928e-16 
    6543.47  1.54686e-16 
    6544.76  1.56891e-16 
    6546.05   1.5964e-16 
    6547.34  1.59408e-16 
    6548.63  1.52276e-16 
    6549.92  1.43761e-16 
    6551.21  1.40265e-16 
     6552.5  1.49514e-16 
    6553.79  1.57485e-16 
    6555.08  1.51445e-16 
    6556.37   1.4664e-16 
    6557.66  1.48187e-16 
    6558.95  1.46842e-16 
    6560.24  1.44082e-16 
    6561.53   1.4767e-16 
    6562.82  1.47926e-16 
    6564.11  1.49877e-16 
     6565.4  1.51415e-16 
    6566.69   1.4562e-16 
    6567.98  1.43838e-16 
    6569.27  1.44651e-16 
    6570.56  1.45262e-16 
    6571.85  1.45646e-16 
    6573.14  1.46269e-16 
    6574.43  1.50012e-16 
    6575.72  1.51124e-16 
    6577.01  1.38515e-16 
     6578.3  1.35881e-16 
    6579.59  1.39364e-16 
    6580.88  1.39912e-16 
    6582.17  1.40512e-16 
    6583.46  1.45809e-16 
    6584.75  1.46986e-16 
    6586.04  1.46377e-16 
    6587.33  1.37523e-16 
    6588.62  1.37322e-16 
    6589.91  1.48918e-16 
     6591.2  1.49466e-16 
    6592.49  1.42951e-16 
    6593.78  1.35868e-16 
    6595.07  1.35104e-16 
    6596.36  1.36579e-16 
    6597.65  1.37784e-16 
    6598.94  1.39007e-16 
    6600.23  1.40207e-16 
    6601.52  1.40433e-16 
    6602.81  1.41768e-16 
     6604.1  1.46555e-16 
     6605.4  1.44328e-16 
    6606.69  1.41616e-16 
    6607.98  1.42779e-16 
    6609.27  1.39233e-16 
    6610.56  1.35811e-16 
    6611.85  1.39853e-16 
    6613.14  1.46993e-16 
    6614.43  1.51443e-16 
    6615.72  1.51056e-16 
    6617.01  1.47753e-16 
     6618.3  1.46105e-16 
    6619.59  1.45282e-16 
    6620.88  1.44368e-16 
    6622.17  1.43436e-16 
    6623.46  1.42513e-16 
    6624.75   1.4159e-16 
    6626.04  1.40666e-16 
    6627.33  1.39742e-16 
    6628.62  1.38843e-16 
    6629.91  1.37857e-16 
     6631.2  1.36789e-16 
    6632.49  1.38077e-16 
    6633.78  1.41287e-16 
    6635.07  1.37698e-16 
    6636.36  1.38972e-16 
    6637.65  1.50909e-16 
    6638.94  1.51006e-16 
    6640.23  1.49696e-16 
    6641.52  1.49784e-16 
    6642.81  1.47117e-16 
     6644.1  1.39017e-16 
    6645.39   1.4323e-16 
    6646.68  1.39894e-16 
    6647.97  1.35053e-16 
    6649.26  1.41973e-16 
    6650.55   1.3555e-16 
    6651.84   1.3513e-16 
    6653.13  1.43154e-16 
    6654.42  1.49044e-16 
    6655.71  1.48226e-16 
     6657.0  1.47243e-16 
    6658.29  1.46314e-16 
    6659.58  1.39793e-16 
    6660.87  1.34427e-16 
    6662.16  1.42466e-16 
    6663.45  1.46446e-16 
    6664.74  1.42904e-16 
    6666.03  1.44834e-16 
    6667.32  1.50397e-16 
    6668.62  1.47447e-16 
    6669.91  1.43672e-16 
     6671.2  1.47516e-16 
    6672.49  1.48921e-16 
    6673.78  1.44436e-16 
    6675.07  1.45329e-16 
    6676.36  1.47401e-16 
    6677.65  1.43813e-16 
    6678.94   1.4678e-16 
    6680.23  1.47477e-16 
    6681.52  1.44333e-16 
    6682.81  1.42322e-16 
     6684.1   1.3393e-16 
    6685.39   1.3215e-16 
    6686.68  1.38635e-16 
    6687.97   1.4471e-16 
    6689.26  1.46367e-16 
    6690.55  1.52342e-16 
    6691.84  1.41844e-16 
    6693.13  1.27141e-16 
    6694.42  1.33974e-16 
    6695.71  1.32241e-16 
     6697.0   1.2825e-16 
    6698.29  1.41109e-16 
    6699.58  1.38288e-16 
    6700.87  1.31167e-16 
    6702.16  1.41656e-16 
    6703.45  1.36931e-16 
    6704.74     1.42e-16 
    6706.03  1.47421e-16 
    6707.32  1.49283e-16 
    6708.61  1.43701e-16 
     6709.9   1.4491e-16 
    6711.19  1.52289e-16 
    6712.48  1.49054e-16 
    6713.77  1.42054e-16 
    6715.06  1.46659e-16 
    6716.35  1.56388e-16 
    6717.64  1.52016e-16 
    6718.93  1.44574e-16 
    6720.22   1.4817e-16 
    6721.51   1.5108e-16 
     6722.8  1.46995e-16 
    6724.09  1.38125e-16 
    6725.38   1.3261e-16 
    6726.67  1.39058e-16 
    6727.96  1.40327e-16 
    6729.25  1.33329e-16 
    6730.55  1.36344e-16 
    6731.84  1.45794e-16 
    6733.13  1.50218e-16 
    6734.42    1.473e-16 
    6735.71  1.43836e-16 
     6737.0  1.43964e-16 
    6738.29  1.39149e-16 
    6739.58  1.36312e-16 
    6740.87  1.42388e-16 
    6742.16  1.32565e-16 
    6743.45  1.25054e-16 
    6744.74  1.38439e-16 
    6746.03  1.80336e-16 
    6747.32  2.21736e-16 
    6748.61  2.18845e-16 
     6749.9  1.78103e-16 
    6751.19   1.5702e-16 
    6752.48  1.49507e-16 
    6753.77  1.45845e-16 
    6755.06  1.49506e-16 
    6756.35  1.56972e-16 
    6757.64  1.53248e-16 
    6758.93  1.36244e-16 
    6760.22  2.47954e-16 
    6761.51   6.1326e-16 
     6762.8  8.42332e-16 
    6764.09  7.44947e-16 
    6765.38  5.02979e-16 
    6766.67  2.66702e-16 
    6767.96  1.19146e-16 
    6769.25  1.36189e-16 
    6770.54  1.33942e-16 
    6771.83  1.49519e-16 
    6773.12   1.4058e-16 
    6774.41  1.35455e-16 
     6775.7  1.36425e-16 
    6776.99  1.24142e-16 
    6778.28  1.12467e-16 
    6779.57  1.09518e-16 
    6780.86  1.40508e-16 
    6782.15  2.37256e-16 
    6783.44  3.50798e-16 
    6784.73  3.81688e-16 
    6786.02  3.24266e-16 
    6787.31  2.41596e-16 
     6788.6  1.74553e-16 
    6789.89  1.46728e-16 
    6791.18  1.40432e-16 
    6792.47  1.40136e-16 
    6793.77  1.41559e-16 
    6795.06  1.42264e-16 
    6796.35  1.32385e-16 
    6797.64  1.25043e-16 
    6798.93  1.26658e-16 
    6800.22  1.31963e-16 
    6801.51  1.37942e-16 
     6802.8  1.40197e-16 
    6804.09  1.40215e-16 
    6805.38  1.37282e-16 
    6806.67  1.36683e-16 
    6807.96  1.37556e-16 
    6809.25  1.38346e-16 
    6810.54  1.35044e-16 
    6811.83  1.31841e-16 
    6813.12  1.41169e-16 
    6814.41  1.33999e-16 
     6815.7  1.29521e-16 
    6816.99  1.34827e-16 
    6818.28  1.33106e-16 
    6819.57  1.31586e-16 
    6820.86  1.35753e-16 
    6822.15  1.35501e-16 
    6823.44  1.33788e-16 
    6824.73  1.32757e-16 
    6826.02   1.3371e-16 
    6827.31  1.33156e-16 
     6828.6  1.32496e-16 
    6829.89  1.32155e-16 
    6831.18    1.318e-16 
    6832.47  1.31433e-16 
    6833.76   1.3107e-16 
    6835.05  1.30706e-16 
    6836.34  1.30342e-16 
    6837.63  1.29979e-16 
    6838.92  1.29615e-16 
    6840.21   1.2925e-16 
     6841.5  1.28899e-16 
    6842.79  1.28521e-16 
    6844.08  1.28031e-16 
    6845.37  1.28635e-16 
    6846.66  1.31961e-16 
    6847.95  1.31607e-16 
    6849.24  1.18945e-16 
    6850.53  1.04242e-16 
    6851.82  1.04762e-16 
    6853.11  1.17569e-16 
     6854.4  1.28686e-16 
     6855.7  1.31645e-16 
    6856.99  1.24268e-16 
    6858.28   1.1479e-16 
    6859.57  1.13998e-16 
    6860.86  1.24838e-16 
    6862.15   1.1887e-16 
    6863.44  1.21269e-16 
    6864.73  1.32196e-16 
    6866.02  1.39652e-16 
    6867.31  1.36741e-16 
     6868.6  1.25988e-16 
    6869.89  1.12325e-16 
    6871.18  1.12227e-16 
    6872.47   1.1635e-16 
    6873.76    1.128e-16 
    6875.05  1.09556e-16 
    6876.34  1.13044e-16 
    6877.63  1.17277e-16 
    6878.92  1.19955e-16 
    6880.21  1.19666e-16 
     6881.5  1.26543e-16 
    6882.79   1.3697e-16 
    6884.08  1.40397e-16 
    6885.37  1.32968e-16 
    6886.66  1.20195e-16 
    6887.95  1.13674e-16 
    6889.24  1.10932e-16 
    6890.53  1.11277e-16 
    6891.82  1.25775e-16 
    6893.11  1.38698e-16 
     6894.4  1.30724e-16 
    6895.69  1.18479e-16 
    6896.98  1.16429e-16 
    6898.27  1.18025e-16 
    6899.56   1.1505e-16 
    6900.85  1.13412e-16 
    6902.14  1.19693e-16 
    6903.43  1.18134e-16 
    6904.72  1.17154e-16 
    6906.01   1.1993e-16 
     6907.3  1.14673e-16 
    6908.59  1.08925e-16 
    6909.88  1.05801e-16 
    6911.17  1.04264e-16 
    6912.46  1.13351e-16 
    6913.75  1.16281e-16 
    6915.04  1.07311e-16 
    6916.33  9.81262e-17 
    6917.63  9.73709e-17 
    6918.92  1.41957e-16 
    6920.21   1.9964e-16 
     6921.5  2.24284e-16 
    6922.79   2.0465e-16 
    6924.08  1.59955e-16 
    6925.37  1.27708e-16 
    6926.66  1.08529e-16 
    6927.95  1.00219e-16 
    6929.24   9.5916e-17 
    6930.53  9.01239e-17 
    6931.82  9.16819e-17 
    6933.11  1.20387e-16 
     6934.4  1.69104e-16 
    6935.69  1.90313e-16 
    6936.98  1.84903e-16 
    6938.27  1.68621e-16 
    6939.56  1.43427e-16 
    6940.85  1.21336e-16 
    6942.14  1.11671e-16 
    6943.43  1.10521e-16 
    6944.72  1.09879e-16 
    6946.01  1.06575e-16 
     6947.3  1.10468e-16 
    6948.59  1.16535e-16 
    6949.88  1.08771e-16 
    6951.17  1.01369e-16 
    6952.46  9.75608e-17 
    6953.75  9.89024e-17 
    6955.04  1.06407e-16 
    6956.33  1.05808e-16 
    6957.62  1.01355e-16 
    6958.91  1.01212e-16 
     6960.2   1.0178e-16 
    6961.49  1.07118e-16 
    6962.78  1.10979e-16 
    6964.07  1.03415e-16 
    6965.36  1.00408e-16 
    6966.65  1.04767e-16 
    6967.94  1.05816e-16 
    6969.23   1.0822e-16 
    6970.52  1.07318e-16 
    6971.81  1.11151e-16 
     6973.1  1.15037e-16 
    6974.39  1.07079e-16 
    6975.68  1.00241e-16 
    6976.97  9.49272e-17 
    6978.26   9.1688e-17 
    6979.55  9.66399e-17 
    6980.85  1.09812e-16 
    6982.14  1.14503e-16 
    6983.43  1.08869e-16 
    6984.72  1.03227e-16 
    6986.01  1.04694e-16 
     6987.3  9.71844e-17 
    6988.59  9.30722e-17 
    6989.88  9.62783e-17 
    6991.17  1.00468e-16 
    6992.46    1.004e-16 
    6993.75  9.33258e-17 
    6995.04  9.04356e-17 
    6996.33  9.19017e-17 
    6997.62  9.40072e-17 
    6998.91  9.82323e-17 
     7000.2   9.6183e-17 
    7001.49  9.16297e-17 
    7002.78  9.44975e-17 
    7004.07  9.86238e-17 
    7005.36  9.60117e-17 
    7006.65  9.20925e-17 
    7007.94  9.65201e-17 
    7009.23  9.48133e-17 
    7010.52  9.05447e-17 
    7011.81   9.0886e-17 
     7013.1  9.25686e-17 
    7014.39   9.4034e-17 
    7015.68  9.54312e-17 
    7016.97  9.70954e-17 
    7018.26  9.87558e-17 
    7019.55  9.54153e-17 
    7020.84  9.15981e-17 
    7022.13  1.00414e-16 
    7023.42  9.81512e-17 
    7024.71  9.42005e-17 
     7026.0  9.49268e-17 
    7027.29  9.95771e-17 
    7028.58  9.84791e-17 
    7029.87  9.53441e-17 
    7031.16  8.92022e-17 
    7032.45  8.80172e-17 
    7033.74  8.71658e-17 
    7035.03  8.63447e-17 
    7036.32  9.28437e-17 
    7037.61  9.91302e-17 
     7038.9  1.00893e-16 
    7040.19  9.92002e-17 
    7041.48  9.92677e-17 
    7042.78  9.93363e-17 
    7044.07  9.91474e-17 
    7045.36  9.44542e-17 
    7046.65  8.80863e-17 
    7047.94  8.75864e-17 
    7049.23  8.89497e-17 
    7050.52  9.00384e-17 
    7051.81  9.10899e-17 
     7053.1  9.22139e-17 
    7054.39  9.33944e-17 
    7055.68  9.19332e-17 
    7056.97  8.42684e-17 
    7058.26  8.11491e-17 
    7059.55  8.99781e-17 
    7060.84  9.11077e-17 
    7062.13  9.36978e-17 
    7063.42  9.63529e-17 
    7064.71  9.01974e-17 
     7066.0  8.59451e-17 
    7067.29  9.14639e-17 
    7068.58  8.88796e-17 
    7069.87   8.0608e-17 
    7071.16  8.69334e-17 
    7072.45  9.75623e-17 
    7073.74  9.77323e-17 
    7075.03  8.51988e-17 
    7076.32  7.78608e-17 
    7077.61  8.63161e-17 
     7078.9  9.62812e-17 
    7080.19  9.77281e-17 
    7081.48  8.54759e-17 
    7082.77   7.9261e-17 
    7084.06  8.18644e-17 
    7085.35  8.53547e-17 
    7086.64  8.96944e-17 
    7087.93  8.72576e-17 
    7089.22  8.39352e-17 
    7090.51  8.59666e-17 
     7091.8  8.96584e-17 
    7093.09  9.02122e-17 
    7094.38  8.90511e-17 
    7095.67  9.32454e-17 
    7096.96  9.85552e-17 
    7098.25  9.72765e-17 
    7099.54  9.19977e-17 
    7100.83  8.86253e-17 
    7102.12   9.2316e-17 
    7103.41  9.60309e-17 
     7104.7  9.35856e-17 
     7106.0  8.92283e-17 
    7107.29  8.47903e-17 
    7108.58  8.51211e-17 
    7109.87  8.51379e-17 
    7111.16  8.11247e-17 
    7112.45  8.42084e-17 
    7113.74  9.40282e-17 
    7115.03  9.56953e-17 
    7116.32  8.87885e-17 
    7117.61   8.6261e-17 
     7118.9   9.0587e-17 
    7120.19  9.13752e-17 
    7121.48  9.37023e-17 
    7122.77  9.91642e-17 
    7124.06  9.90752e-17 
    7125.35  9.46415e-17 
    7126.64  9.85717e-17 
    7127.93  9.28752e-17 
    7129.22  8.58961e-17 
    7130.51  9.07483e-17 
     7131.8  9.57385e-17 
    7133.09  9.49159e-17 
    7134.38  9.16414e-17 
    7135.67  8.97336e-17 
    7136.96  8.90315e-17 
    7138.25  8.63778e-17 
    7139.54  8.54357e-17 
    7140.83  8.96526e-17 
    7142.12  9.39817e-17 
    7143.41  9.46742e-17 
     7144.7  8.77408e-17 
    7145.99  8.21966e-17 
    7147.28  8.78584e-17 
    7148.57  8.97103e-17 
    7149.86   8.5719e-17 
    7151.15  8.50873e-17 
    7152.44  8.44586e-17 
    7153.73  9.05515e-17 
    7155.02  9.80977e-17 
    7156.31  9.85811e-17 
     7157.6  9.50884e-17 
    7158.89  9.27579e-17 
    7160.18  9.17812e-17 
    7161.47  8.94759e-17 
    7162.76  9.15104e-17 
    7164.05   9.2979e-17 
    7165.34  9.52406e-17 
    7166.63  9.44738e-17 
    7167.93  8.67823e-17 
    7169.22  7.99417e-17 
    7170.51  7.87682e-17 
     7171.8  8.39001e-17 
    7173.09  7.95279e-17 
    7174.38  7.45687e-17 
    7175.67  7.29292e-17 
    7176.96  7.72875e-17 
    7178.25  8.45167e-17 
    7179.54  8.93556e-17 
    7180.83  9.49098e-17 
    7182.12  1.00332e-16 
    7183.41  9.52689e-17 
     7184.7  9.02526e-17 
    7185.99   8.8881e-17 
    7187.28  8.32524e-17 
    7188.57  7.82468e-17 
    7189.86  8.55573e-17 
    7191.15  9.16985e-17 
    7192.44  8.94223e-17 
    7193.73  8.65557e-17 
    7195.02  8.53816e-17 
    7196.31  8.66054e-17 
     7197.6  8.89597e-17 
    7198.89  9.06712e-17 
    7200.18  9.31327e-17 
    7201.47  9.43608e-17 
    7202.76  9.13479e-17 
    7204.05  9.09331e-17 
    7205.34   9.4476e-17 
    7206.63  9.28567e-17 
    7207.92  8.84517e-17 
    7209.21  9.22321e-17 
     7210.5  9.27222e-17 
    7211.79  9.40974e-17 
    7213.08  9.58503e-17 
    7214.37  9.42308e-17 
    7215.66   9.4522e-17 
    7216.95  9.61728e-17 
    7218.24  9.82753e-17 
    7219.53  9.99266e-17 
    7220.82  1.06549e-16 
    7222.11  1.08746e-16 
     7223.4  1.05253e-16 
    7224.69  9.55466e-17 
    7225.98  1.00842e-16 
    7227.27   1.0413e-16 
    7228.56  9.90241e-17 
    7229.85  1.00426e-16 
    7231.15  9.55261e-17 
    7232.44  8.95216e-17 
    7233.73  9.00151e-17 
    7235.02  8.77911e-17 
    7236.31  9.19223e-17 
     7237.6  1.01629e-16 
    7238.89   1.0147e-16 
    7240.18  9.66327e-17 
    7241.47  1.01909e-16 
    7242.76  1.05616e-16 
    7244.05    1.002e-16 
    7245.34  9.70173e-17 
    7246.63  1.02573e-16 
    7247.92  1.09149e-16 
    7249.21    1.017e-16 
     7250.5  9.42048e-17 
    7251.79  9.77402e-17 
    7253.08  9.51801e-17 
    7254.37  9.29939e-17 
    7255.66  1.02681e-16 
    7256.95  1.04599e-16 
    7258.24  9.77354e-17 
    7259.53  9.59138e-17 
    7260.82   9.7094e-17 
    7262.11  9.57474e-17 
     7263.4  8.72267e-17 
    7264.69  8.54538e-17 
    7265.98  9.16385e-17 
    7267.27  1.02981e-16 
    7268.56  1.14094e-16 
    7269.85  1.19158e-16 
    7271.14  1.08616e-16 
    7272.43  9.59456e-17 
    7273.72  8.83255e-17 
    7275.01  8.66801e-17 
     7276.3  8.84837e-17 
    7277.59  9.24963e-17 
    7278.88  9.42194e-17 
    7280.17  9.49779e-17 
    7281.46  9.58083e-17 
    7282.75  9.66265e-17 
    7284.04  9.76052e-17 
    7285.33  9.85638e-17 
    7286.62  9.74689e-17 
    7287.91  9.78079e-17 
     7289.2  1.06262e-16 
    7290.49   1.0777e-16 
    7291.78  9.72293e-17 
    7293.08  8.80027e-17 
    7294.37  9.26492e-17 
    7295.66  1.00707e-16 
    7296.95  1.04193e-16 
    7298.24  1.05587e-16 
    7299.53  1.07924e-16 
    7300.82  1.02495e-16 
    7302.11  9.21731e-17 
     7303.4  9.44381e-17 
    7304.69  1.01875e-16 
    7305.98  1.07874e-16 
    7307.27  1.07974e-16 
    7308.56  1.05076e-16 
    7309.85  9.85999e-17 
    7311.14  1.04015e-16 
    7312.43  1.08151e-16 
    7313.72   1.0463e-16 
    7315.01  1.04096e-16 
     7316.3  1.07977e-16 
    7317.59  1.03637e-16 
    7318.88  1.02159e-16 
    7320.17    1.033e-16 
    7321.46  1.06628e-16 
    7322.75  1.05092e-16 
    7324.04  1.06277e-16 
    7325.33  1.08679e-16 
    7326.62  1.11688e-16 
    7327.91  1.11997e-16 
     7329.2   1.1578e-16 
    7330.49  1.11367e-16 
    7331.78  1.12026e-16 
    7333.07  1.22766e-16 
    7334.36  1.24373e-16 
    7335.65  1.19978e-16 
    7336.94  1.19003e-16 
    7338.23  1.14894e-16 
    7339.52  1.03558e-16 
    7340.81  1.01106e-16 
     7342.1  1.17579e-16 
    7343.39  1.28322e-16 
    7344.68   1.2287e-16 
    7345.97  1.17332e-16 
    7347.26  1.15699e-16 
    7348.55  1.13747e-16 
    7349.84  1.08538e-16 
    7351.13  1.16056e-16 
    7352.42  1.28958e-16 
    7353.71  1.29588e-16 
    7355.01  1.23312e-16 
     7356.3  1.16764e-16 
    7357.59  1.22761e-16 
    7358.88  1.23403e-16 
    7360.17   1.1087e-16 
    7361.46  1.16944e-16 
    7362.75  1.23997e-16 
    7364.04  1.29595e-16 
    7365.33  1.30601e-16 
    7366.62  1.13351e-16 
    7367.91   1.0547e-16 
     7369.2  1.12203e-16 
    7370.49   1.2814e-16 
    7371.78  1.38388e-16 
    7373.07  1.38848e-16 
    7374.36  1.37786e-16 
    7375.65  1.35577e-16 
    7376.94  1.39473e-16 
    7378.23   1.4142e-16 
    7379.52  1.40365e-16 
    7380.81  1.41144e-16 
     7382.1  1.36962e-16 
    7383.39  1.32338e-16 
    7384.68  1.37225e-16 
    7385.97  1.41102e-16 
    7387.26  1.39311e-16 
    7388.55  1.39593e-16 
    7389.84  1.44423e-16 
    7391.13  1.50198e-16 
    7392.42  1.47302e-16 
    7393.71  1.45765e-16 
     7395.0  1.47406e-16 
    7396.29  1.39344e-16 
    7397.58  1.38726e-16 
    7398.87  1.51714e-16 
    7400.16  1.67019e-16 
    7401.45  1.67319e-16 
    7402.74  1.66576e-16 
    7404.03   1.6835e-16 
    7405.32  1.64308e-16 
    7406.61  1.61277e-16 
     7407.9  1.54619e-16 
    7409.19  1.51635e-16 
    7410.48   1.4409e-16 
    7411.77  1.48635e-16 
    7413.06  1.54732e-16 
    7414.35  1.57344e-16 
    7415.64  1.61433e-16 
    7416.93  1.56484e-16 
    7418.23  1.41475e-16 
    7419.52   1.4339e-16 
    7420.81  1.57066e-16 
     7422.1  1.64107e-16 
    7423.39   1.6636e-16 
    7424.68  1.63548e-16 
    7425.97  1.59845e-16 
    7427.26  1.61316e-16 
    7428.55  1.64586e-16 
    7429.84  1.61689e-16 
    7431.13  1.58454e-16 
    7432.42  1.58278e-16 
    7433.71  1.54746e-16 
     7435.0  1.57156e-16 
    7436.29  1.60705e-16 
    7437.58  1.62243e-16 
    7438.87  1.70215e-16 
    7440.16  1.72219e-16 
    7441.45  1.58678e-16 
    7442.74  1.56007e-16 
    7444.03  1.58857e-16 
    7445.32  1.57518e-16 
    7446.61  1.49944e-16 
     7447.9  1.59867e-16 
    7449.19  1.70285e-16 
    7450.48  1.68093e-16 
    7451.77  1.79131e-16 
    7453.06  1.70754e-16 
    7454.35  1.59586e-16 
    7455.64  1.69945e-16 
    7456.93   1.7172e-16 
    7458.22  1.67618e-16 
    7459.51   1.7404e-16 
     7460.8  1.75706e-16 
    7462.09  1.76412e-16 
    7463.38  1.70919e-16 
    7464.67  1.68999e-16 
    7465.96  1.81202e-16 
    7467.25   1.9121e-16 
    7468.54  1.93696e-16 
    7469.83  1.91398e-16 
    7471.12   1.8608e-16 
    7472.41  1.86632e-16 
     7473.7   1.9416e-16 
    7474.99  2.01968e-16 
    7476.28   2.0194e-16 
    7477.57  1.96186e-16 
    7478.86  1.97459e-16 
    7480.16  2.00828e-16 
    7481.45  1.96553e-16 
    7482.74  1.81694e-16 
    7484.03  1.73168e-16 
    7485.32  1.86768e-16 
    7486.61  2.01823e-16 
     7487.9  2.01449e-16 
    7489.19  1.91427e-16 
    7490.48  1.90338e-16 
    7491.77  2.00631e-16 
    7493.06   2.0195e-16 
    7494.35  2.07932e-16 
    7495.64  2.11675e-16 
    7496.93  2.13545e-16 
    7498.22  2.10274e-16 
    7499.51  1.99624e-16 
     7500.8  1.89056e-16 
    7502.09  1.99229e-16 
    7503.38   2.0052e-16 
    7504.67  2.07311e-16 
    7505.96  2.12387e-16 
    7507.25  2.09592e-16 
    7508.54  2.10931e-16 
    7509.83  2.20853e-16 
    7511.12   2.1948e-16 
    7512.41  2.19472e-16 
     7513.7  2.21983e-16 
    7514.99  2.09534e-16 
    7516.28   2.0509e-16 
    7517.57  2.17619e-16 
    7518.86  2.24567e-16 
    7520.15   2.1891e-16 
    7521.44  2.15753e-16 
    7522.73  2.29991e-16 
    7524.02  2.39414e-16 
    7525.31  2.22464e-16 
     7526.6  2.14243e-16 
    7527.89  2.27636e-16 
    7529.18   2.2995e-16 
    7530.47  2.25374e-16 
    7531.76  2.12823e-16 
    7533.05  2.12963e-16 
    7534.34  2.15971e-16 
    7535.63   2.1827e-16 
    7536.92  2.04076e-16 
    7538.21  2.09522e-16 
     7539.5  2.14104e-16 
    7540.79  2.12449e-16 
    7542.08  2.22702e-16 
    7543.38  2.26882e-16 
    7544.67  2.16922e-16 
    7545.96  2.01221e-16 
    7547.25  2.15007e-16 
    7548.54  2.18632e-16 
    7549.83  1.99658e-16 
    7551.12  1.91922e-16 
    7552.41  2.03639e-16 
     7553.7  2.03598e-16 
    7554.99  1.99351e-16 
    7556.28  2.04185e-16 
    7557.57   2.0772e-16 
    7558.86   2.0708e-16 
    7560.15  2.10292e-16 
    7561.44  2.08788e-16 
    7562.73  1.96284e-16 
    7564.02  1.91478e-16 
    7565.31  2.00801e-16 
     7566.6   2.0342e-16 
    7567.89  1.99408e-16 
    7569.18  2.02715e-16 
    7570.47   2.0695e-16 
    7571.76  2.06057e-16 
    7573.05  1.93482e-16 
    7574.34  1.86686e-16 
    7575.63  1.90045e-16 
    7576.92  1.86531e-16 
    7578.21  1.88042e-16 
     7579.5  1.78026e-16 
    7580.79    1.709e-16 
    7582.08  1.90453e-16 
    7583.37  1.91322e-16 
    7584.66  1.84271e-16 
    7585.95  1.92354e-16 
    7587.24  1.97047e-16 
    7588.53  1.97416e-16 
    7589.82  1.82382e-16 
    7591.11  1.78698e-16 
     7592.4  1.81223e-16 
    7593.69  1.80441e-16 
    7594.98  1.81448e-16 
    7596.27  1.78362e-16 
    7597.56  1.70184e-16 
    7598.85  1.83071e-16 
    7600.14  2.01062e-16 
    7601.43   1.8374e-16 
    7602.72  1.59592e-16 
    7604.01  1.64245e-16 
    7605.31  1.72316e-16 
     7606.6  1.69336e-16 
    7607.89  1.75853e-16 
    7609.18  1.85615e-16 
    7610.47  1.84658e-16 
    7611.76  1.76422e-16 
    7613.05  1.73435e-16 
    7614.34  1.84582e-16 
    7615.63  1.78503e-16 
    7616.92  1.62939e-16 
    7618.21  1.66119e-16 
     7619.5  1.67422e-16 
    7620.79  1.63568e-16 
    7622.08  1.63802e-16 
    7623.37  1.67709e-16 
    7624.66  1.48057e-16 
    7625.95   1.4515e-16 
    7627.24  1.52029e-16 
    7628.53  1.52086e-16 
    7629.82  1.56211e-16 
    7631.11   1.6769e-16 
     7632.4  1.60523e-16 
    7633.69  1.50518e-16 
    7634.98  1.52992e-16 
    7636.27  1.64677e-16 
    7637.56  1.61047e-16 
    7638.85  1.55298e-16 
    7640.14  1.50832e-16 
    7641.43  1.48593e-16 
    7642.72  1.53323e-16 
    7644.01  1.45284e-16 
     7645.3  1.39349e-16 
    7646.59  1.51681e-16 
    7647.88  1.62578e-16 
    7649.17  1.59822e-16 
    7650.46  1.54382e-16 
    7651.75  1.52562e-16 
    7653.04  1.42562e-16 
    7654.33  1.29082e-16 
    7655.62  1.26788e-16 
    7656.91  1.29944e-16 
     7658.2  1.35752e-16 
    7659.49  1.43805e-16 
    7660.78  1.38721e-16 
    7662.07  1.27363e-16 
    7663.36   1.2325e-16 
    7664.65  1.24778e-16 
    7665.94  1.31074e-16 
    7667.23  1.23465e-16 
    7668.53  1.19246e-16 
    7669.82  1.24348e-16 
    7671.11  1.22329e-16 
     7672.4  1.25183e-16 
    7673.69  1.18352e-16 
    7674.98  1.07026e-16 
    7676.27  1.08121e-16 
    7677.56  1.15607e-16 
    7678.85  1.14721e-16 
    7680.14  1.11484e-16 
    7681.43  1.10489e-16 
    7682.72  1.07127e-16 
    7684.01  1.04361e-16 
     7685.3  1.09454e-16 
    7686.59    1.181e-16 
    7687.88  1.19648e-16 
    7689.17   1.1718e-16 
    7690.46  1.10266e-16 
    7691.75  1.04156e-16 
    7693.04   1.0851e-16 
    7694.33   1.1186e-16 
    7695.62  1.04955e-16 
    7696.91  9.72106e-17 
     7698.2  9.68697e-17 
    7699.49  9.99402e-17 
    7700.78  9.92982e-17 
    7702.07  9.43196e-17 
    7703.36  9.14995e-17 
    7704.65  9.17417e-17 
    7705.94  9.19777e-17 
    7707.23  9.70122e-17 
    7708.52  1.00993e-16 
    7709.81  9.45918e-17 
     7711.1  9.42167e-17 
    7712.39  8.78115e-17 
    7713.68  7.83803e-17 
    7714.97  8.05079e-17 
    7716.26   8.3268e-17 
    7717.55  8.80301e-17 
    7718.84  8.90231e-17 
    7720.13  8.44281e-17 
    7721.42  8.75762e-17 
    7722.71  8.47642e-17 
     7724.0  7.56052e-17 
    7725.29  8.00651e-17 
    7726.58  9.13198e-17 
    7727.87  9.72231e-17 
    7729.16  9.48768e-17 
    7730.46  8.64467e-17 
    7731.75  8.22732e-17 
    7733.04  8.89713e-17 
    7734.33  9.36429e-17 
    7735.62  8.71399e-17 
    7736.91  8.25024e-17 
     7738.2  8.55827e-17 
    7739.49  8.96069e-17 
    7740.78  9.73549e-17 
    7742.07  1.02634e-16 
    7743.36  9.05063e-17 
    7744.65  7.98412e-17 
    7745.94  9.13402e-17 
    7747.23  8.88744e-17 
    7748.52   5.9556e-17 
    7749.81   6.3712e-17 
     7751.1  7.94825e-17 
    7752.39  8.05537e-17 
    7753.68    9.768e-17 
    7754.97  9.10574e-17 
    7756.26  8.28492e-17 
    7757.55  8.60439e-17 
    7758.84  8.18004e-17 
    7760.13  7.29203e-17 
    7761.42   7.4216e-17 
    7762.71  8.55233e-17 
     7764.0  8.63564e-17 
    7765.29  7.44916e-17 
    7766.58  7.09271e-17 
    7767.87  7.98404e-17 
    7769.16  8.24321e-17 
    7770.45  7.52657e-17 
    7771.74  7.26318e-17 
    7773.03  7.31862e-17 
    7774.32   7.2819e-17 
    7775.61  7.79266e-17 
     7776.9  8.32506e-17 
    7778.19  8.41103e-17 
    7779.48  8.47932e-17 
    7780.77  8.62408e-17 
    7782.06  8.68066e-17 
    7783.35  8.70062e-17 
    7784.64  8.54678e-17 
    7785.93  8.02957e-17 
    7787.22  7.52761e-17 
    7788.51  7.35393e-17 
     7789.8  8.17142e-17 
    7791.09  8.37333e-17 
    7792.39   7.1192e-17 
    7793.68  6.10061e-17 
    7794.97  6.95542e-17 
    7796.26    8.434e-17 
    7797.55  9.17972e-17 
    7798.84  9.04415e-17 
    7800.13   8.5445e-17 
    7801.42  7.91821e-17 
    7802.71  7.83221e-17 
     7804.0  8.10392e-17 
    7805.29  8.36961e-17 
    7806.58  8.26337e-17 
    7807.87  8.46223e-17 
    7809.16  8.45512e-17 
    7810.45  8.46403e-17 
    7811.74  8.34099e-17 
    7813.03  7.68702e-17 
    7814.32  7.58084e-17 
    7815.61  8.18135e-17 
     7816.9  8.75943e-17 
    7818.19  8.84168e-17 
    7819.48  8.56033e-17 
    7820.77  8.66258e-17 
    7822.06  7.89896e-17 
    7823.35  7.79147e-17 
    7824.64   9.5622e-17 
    7825.93  8.97861e-17 
    7827.22    8.433e-17 
    7828.51  8.19715e-17 
     7829.8  8.06247e-17 
    7831.09   8.4644e-17 
    7832.38  8.62534e-17 
    7833.67  9.50516e-17 
    7834.96  9.53394e-17 
    7836.25  8.79642e-17 
    7837.54   8.7882e-17 
    7838.83   8.6354e-17 
    7840.12  8.49159e-17 
    7841.41  8.71894e-17 
     7842.7  8.80155e-17 
    7843.99  9.35147e-17 
    7845.28  9.57097e-17 
    7846.57  9.24455e-17 
    7847.86  8.89252e-17 
    7849.15  9.05751e-17 
    7850.44    8.243e-17 
    7851.73  6.43378e-17 
    7853.02  6.69493e-17 
    7854.31  8.81665e-17 
    7855.61  1.03379e-16 
     7856.9  1.05453e-16 
    7858.19  9.33393e-17 
    7859.48  8.14961e-17 
    7860.77  8.41563e-17 
    7862.06  8.59875e-17 
    7863.35  8.54323e-17 
    7864.64  8.01308e-17 
    7865.93  7.31819e-17 
    7867.22  7.40988e-17 
    7868.51  7.30487e-17 
     7869.8  7.66595e-17 
    7871.09  8.05782e-17 
    7872.38  8.36888e-17 
    7873.67  9.58399e-17 
    7874.96  9.36304e-17 
    7876.25  8.34994e-17 
    7877.54  7.70279e-17 
    7878.83  8.15894e-17 
    7880.12  8.66325e-17 
    7881.41  8.05892e-17 
     7882.7   7.5225e-17 
    7883.99  8.05698e-17 
    7885.28  7.99645e-17 
    7886.57  7.04357e-17 
    7887.86  5.79904e-17 
    7889.15  6.20882e-17 
    7890.44  8.24365e-17 
    7891.73  9.48649e-17 
    7893.02  9.41235e-17 
    7894.31  8.96665e-17 
     7895.6  8.93468e-17 
    7896.89  9.01524e-17 
    7898.18   8.8297e-17 
    7899.47   8.5224e-17 
    7900.76  8.18922e-17 
    7902.05  8.81104e-17 
    7903.34  9.22003e-17 
    7904.63  8.69581e-17 
    7905.92  9.05839e-17 
    7907.21  9.11216e-17 
     7908.5  8.90365e-17 
    7909.79  9.56305e-17 
    7911.08  8.65179e-17 
    7912.37  8.03424e-17 
    7913.66  9.16432e-17 
    7914.95  1.08217e-16 
    7916.24  1.12362e-16 
    7917.54  1.07631e-16 
    7918.83   9.4579e-17 
    7920.12  9.78605e-17 
    7921.41    1.064e-16 
     7922.7  1.08962e-16 
    7923.99  1.03766e-16 
    7925.28  1.02702e-16 
    7926.57  1.07525e-16 
    7927.86  1.05778e-16 
    7929.15   1.0112e-16 
    7930.44  9.45481e-17 
    7931.73  8.42803e-17 
    7933.02  8.46413e-17 
    7934.31  9.59294e-17 
     7935.6  1.05423e-16 
    7936.89  1.08213e-16 
    7938.18  1.02975e-16 
    7939.47   9.7428e-17 
    7940.76  1.01313e-16 
    7942.05  1.10843e-16 
    7943.34  1.12637e-16 
    7944.63  1.04544e-16 
    7945.92  9.73138e-17 
    7947.21  1.00105e-16 
     7948.5  1.06575e-16 
    7949.79  1.16317e-16 
    7951.08  1.23743e-16 
    7952.37  1.19844e-16 
    7953.66  1.09049e-16 
    7954.95  1.02441e-16 
    7956.24  1.07765e-16 
    7957.53  1.14741e-16 
    7958.82  1.10598e-16 
    7960.11  1.10277e-16 
     7961.4  1.07022e-16 
    7962.69  9.41981e-17 
    7963.98  8.46974e-17 
    7965.27  9.76685e-17 
    7966.56  1.23623e-16 
    7967.85  1.23284e-16 
    7969.14  1.14783e-16 
    7970.43  1.13357e-16 
    7971.72  1.14375e-16 
    7973.01  1.15938e-16 
     7974.3  1.25557e-16 
    7975.59  1.34752e-16 
    7976.88  1.32011e-16 
    7978.17  1.28081e-16 
    7979.46  1.24444e-16 
    7980.76  1.25074e-16 
    7982.05  1.31384e-16 
    7983.34  1.33739e-16 
    7984.63  1.29661e-16 
    7985.92  1.18754e-16 
    7987.21  1.06735e-16 
     7988.5  1.15413e-16 
    7989.79  1.29186e-16 
    7991.08  1.19945e-16 
    7992.37  1.31364e-16 
    7993.66  1.46229e-16 
    7994.95  1.46167e-16 
    7996.24   1.4806e-16 
    7997.53   1.3835e-16 
    7998.82  1.33727e-16 
    8000.11  1.37679e-16 
     8001.4  1.34832e-16 
    8002.69   1.3313e-16 
    8003.98  1.31078e-16 
    8005.27  1.21438e-16 
    8006.56  1.07539e-16 
    8007.85    1.087e-16 
    8009.14  1.26271e-16 
    8010.43  1.35127e-16 
    8011.72   1.3009e-16 
    8013.01  1.25195e-16 
     8014.3  1.28624e-16 
    8015.59  1.33353e-16 
    8016.88  1.31696e-16 
    8018.17    1.377e-16 
    8019.46   1.4333e-16 
    8020.75  1.30143e-16 
    8022.04  1.25701e-16 
    8023.33  1.26039e-16 
    8024.62    1.256e-16 
    8025.91  1.19659e-16 
     8027.2  1.24337e-16 
    8028.49  1.31652e-16 
    8029.78  1.30234e-16 
    8031.07  1.21266e-16 
    8032.36  1.17675e-16 
    8033.65  1.23777e-16 
    8034.94  1.30404e-16 
    8036.23  1.37433e-16 
    8037.52  1.38603e-16 
    8038.81  1.40906e-16 
     8040.1  1.45463e-16 
    8041.39  1.36981e-16 
    8042.69  1.26442e-16 
    8043.98  1.27506e-16 
    8045.27  1.28852e-16 
    8046.56  1.25899e-16 
    8047.85  1.29806e-16 
    8049.14  1.33186e-16 
    8050.43  1.24998e-16 
    8051.72  1.15536e-16 
    8053.01  1.18035e-16 
     8054.3  1.26477e-16 
    8055.59  1.25538e-16 
    8056.88  1.22797e-16 
    8058.17  1.25452e-16 
    8059.46  1.17694e-16 
    8060.75  1.08472e-16 
    8062.04  1.05955e-16 
    8063.33  1.07826e-16 
    8064.62  1.22808e-16 
    8065.91  1.18785e-16 
     8067.2  1.09851e-16 
    8068.49  1.13341e-16 
    8069.78  1.15837e-16 
    8071.07  1.22963e-16 
    8072.36  1.18212e-16 
    8073.65   1.1747e-16 
    8074.94  1.22947e-16 
    8076.23  1.26529e-16 
    8077.52  1.23679e-16 
    8078.81  1.19779e-16 
     8080.1  1.20804e-16 
    8081.39  1.17367e-16 
    8082.68  1.13142e-16 
    8083.97  1.14814e-16 
    8085.26  1.15944e-16 
    8086.55  1.12312e-16 
    8087.84  1.07077e-16 
    8089.13  1.05475e-16 
    8090.42  1.10036e-16 
    8091.71  1.12463e-16 
     8093.0  1.12524e-16 
    8094.29  1.11286e-16 
    8095.58  1.04372e-16 
    8096.87  1.02989e-16 
    8098.16  1.04285e-16 
    8099.45  9.70322e-17 
    8100.74  9.07871e-17 
    8102.03  9.99176e-17 
    8103.32  1.07958e-16 
    8104.62  1.14734e-16 
    8105.91  1.16873e-16 
     8107.2  1.02148e-16 
    8108.49   9.6144e-17 
    8109.78  1.01799e-16 
    8111.07   1.0837e-16 
    8112.36  1.06459e-16 
    8113.65  9.77702e-17 
    8114.94   1.0388e-16 
    8116.23  1.10061e-16 
    8117.52  1.09832e-16 
    8118.81  1.12004e-16 
     8120.1  1.16125e-16 
    8121.39  1.14066e-16 
    8122.68  1.07572e-16 
    8123.97  1.03592e-16 
    8125.26  1.00843e-16 
    8126.55  1.00819e-16 
    8127.84  1.05603e-16 
    8129.13  1.10013e-16 
    8130.42  1.08172e-16 
    8131.71  1.02558e-16 
     8133.0  1.00645e-16 
    8134.29  9.95161e-17 
    8135.58  9.88502e-17 
    8136.87  1.02471e-16 
    8138.16  1.04155e-16 
    8139.45  1.03508e-16 
    8140.74  9.60908e-17 
    8142.03  9.53062e-17 
    8143.32  1.00674e-16 
    8144.61  9.60434e-17 
     8145.9  9.36459e-17 
    8147.19  1.03954e-16 
    8148.48  1.07683e-16 
    8149.77  1.06319e-16 
    8151.06  9.87052e-17 
    8152.35  9.91444e-17 
    8153.64  1.01054e-16 
    8154.93  9.48882e-17 
    8156.22  9.52666e-17 
    8157.51   1.0114e-16 
     8158.8  1.02902e-16 
    8160.09  1.05623e-16 
    8161.38  1.03208e-16 
    8162.67  9.61158e-17 
    8163.96  9.32545e-17 
    8165.25  9.49341e-17 
    8166.54  9.70568e-17 
    8167.84  9.44706e-17 
    8169.13  9.03068e-17 
    8170.42  8.76492e-17 
    8171.71  8.56992e-17 
     8173.0  8.84779e-17 
    8174.29  8.75999e-17 
    8175.58  8.77003e-17 
    8176.87  8.49349e-17 
    8178.16  8.10926e-17 
    8179.45  8.76114e-17 
    8180.74  9.22548e-17 
    8182.03  9.12172e-17 
    8183.32  8.90933e-17 
    8184.61  9.84779e-17 
     8185.9  1.05281e-16 
    8187.19  9.68558e-17 
    8188.48  8.53583e-17 
    8189.77  9.06489e-17 
    8191.06  9.00008e-17 
    8192.35  8.79312e-17 
    8193.64  9.73505e-17 
    8194.93  1.01219e-16 
    8196.22  9.02056e-17 
    8197.51   8.2394e-17 
     8198.8  8.13219e-17 
    8200.09  8.47274e-17 
    8201.38  9.26254e-17 
    8202.67  9.38177e-17 
    8203.96  8.49841e-17 
    8205.25   8.6789e-17 
    8206.54  9.72598e-17 
    8207.83   9.7412e-17 
    8209.12  9.62361e-17 
    8210.41   9.5785e-17 
     8211.7  9.76813e-17 
    8212.99  9.90874e-17 
    8214.28  9.24897e-17 
    8215.57  8.80953e-17 
    8216.86  9.10713e-17 
    8218.15  9.66117e-17 
    8219.44  9.79773e-17 
    8220.73  1.07881e-16 
    8222.02  1.06678e-16 
    8223.31   9.2044e-17 
     8224.6  8.36289e-17 
    8225.89  8.44998e-17 
    8227.18  8.04466e-17 
    8228.47  7.09326e-17 
    8229.77  7.14674e-17 
    8231.06  7.85467e-17 
    8232.35  7.75869e-17 
    8233.64  7.35648e-17 
    8234.93  8.23769e-17 
    8236.22  9.20669e-17 
    8237.51  9.61397e-17 
     8238.8  9.57105e-17 
    8240.09  8.71229e-17 
    8241.38  8.22255e-17 
    8242.67  8.86322e-17 
    8243.96  9.49833e-17 
    8245.25   9.5426e-17 
    8246.54  9.81981e-17 
    8247.83  1.05035e-16 
    8249.12  1.12329e-16 
    8250.41  1.12945e-16 
     8251.7  1.02113e-16 
    8252.99  8.56105e-17 
    8254.28  8.91875e-17 
    8255.57  1.01016e-16 
    8256.86  1.01383e-16 
    8258.15  9.26245e-17 
    8259.44  9.06348e-17 
    8260.73  9.03322e-17 
    8262.02  9.22695e-17 
    8263.31  9.48814e-17 
     8264.6  9.73403e-17 
    8265.89  9.71721e-17 
    8267.18  8.90685e-17 
    8268.47  8.24536e-17 
    8269.76  8.52337e-17 
    8271.05   9.3389e-17 
    8272.34  9.60968e-17 
    8273.63   8.8864e-17 
    8274.92  8.03159e-17 
    8276.21  8.12005e-17 
     8277.5  7.97159e-17 
    8278.79  7.26453e-17 
    8280.08   8.5347e-17 
    8281.37  1.03089e-16 
    8282.66  9.40958e-17 
    8283.95  8.49764e-17 
    8285.24  9.73531e-17 
    8286.53  9.50705e-17 
    8287.82  8.26925e-17 
    8289.11  1.04918e-16 
     8290.4  1.06911e-16 
    8291.69  9.39163e-17 
    8292.99  8.86654e-17 
    8294.28  7.72078e-17 
    8295.57  6.85301e-17 
    8296.86  7.24343e-17 
    8298.15  9.15247e-17 
    8299.44  9.80055e-17 
    8300.73  1.02302e-16 
    8302.02  1.04527e-16 
    8303.31  9.23889e-17 
     8304.6  8.78425e-17 
    8305.89  8.62688e-17 
    8307.18  7.63632e-17 
    8308.47  7.70645e-17 
    8309.76  8.34494e-17 
    8311.05  8.44176e-17 
    8312.34  8.71151e-17 
    8313.63   9.1222e-17 
    8314.92  9.21383e-17 
    8316.21  9.36511e-17 
     8317.5  9.60334e-17 
    8318.79  9.17026e-17 
    8320.08   8.7426e-17 
    8321.37   8.4425e-17 
    8322.66  7.59854e-17 
    8323.95  7.46844e-17 
    8325.24  7.96396e-17 
    8326.53    8.481e-17 
    8327.82  8.87911e-17 
    8329.11  9.30887e-17 
     8330.4  8.92306e-17 
    8331.69  8.44084e-17 
    8332.98    8.862e-17 
    8334.27  8.74646e-17 
    8335.56  8.95917e-17 
    8336.85  9.08268e-17 
    8338.14  8.07444e-17 
    8339.43  7.70057e-17 
    8340.72  7.93276e-17 
    8342.01  7.87161e-17 
     8343.3  8.39613e-17 
    8344.59  9.66216e-17 
    8345.88  1.06195e-16 
    8347.17  1.07605e-16 
    8348.46  9.87486e-17 
    8349.75  8.47683e-17 
    8351.04  8.12935e-17 
    8352.33  8.42226e-17 
    8353.62  8.77082e-17 
    8354.92  9.73578e-17 
    8356.21  9.52769e-17 
     8357.5   8.4569e-17 
    8358.79  8.61654e-17 
    8360.08  8.84132e-17 
    8361.37  8.87292e-17 
    8362.66  8.99831e-17 
    8363.95  8.47549e-17 
    8365.24  8.95702e-17 
    8366.53  9.04451e-17 
    8367.82  8.48899e-17 
    8369.11  7.84505e-17 
     8370.4  7.43718e-17 
    8371.69  8.14048e-17 
    8372.98  8.66629e-17 
    8374.27  8.53505e-17 
    8375.56  8.74605e-17 
    8376.85  8.62328e-17 
    8378.14  8.62678e-17 
    8379.43  8.90666e-17 
    8380.72  8.48196e-17 
    8382.01  8.12805e-17 
     8383.3  8.95857e-17 
    8384.59  9.93586e-17 
    8385.88   9.5989e-17 
    8387.17  8.75883e-17 
    8388.46  8.70051e-17 
    8389.75  8.88801e-17 
    8391.04  8.79223e-17 
    8392.33  8.31932e-17 
    8393.62   7.9877e-17 
    8394.91  7.84782e-17 
     8396.2  7.44906e-17 
    8397.49  7.17815e-17 
    8398.78  7.49535e-17 
    8400.07  8.87124e-17 
    8401.36  1.02944e-16 
    8402.65  9.13492e-17 
    8403.94  8.33973e-17 
    8405.23  9.13771e-17 
    8406.52  8.34943e-17 
    8407.81  7.04232e-17 
     8409.1  7.58095e-17 
    8410.39   8.6145e-17 
    8411.68  8.23085e-17 
    8412.97  7.26905e-17 
    8414.26  7.14208e-17 
    8415.55  7.89736e-17 
    8416.84  9.43438e-17 
    8418.14   1.0382e-16 
    8419.43  9.71346e-17 
    8420.72  8.80464e-17 
    8422.01  8.43497e-17 
     8423.3  8.50479e-17 
    8424.59  8.19376e-17 
    8425.88  7.56254e-17 
    8427.17  6.61965e-17 
    8428.46  4.97223e-17 
    8429.75  5.88525e-17 
    8431.04  8.10651e-17 
    8432.33   9.5818e-17 
    8433.62  9.34248e-17 
    8434.91  8.23966e-17 
     8436.2  8.08076e-17 
    8437.49  8.45964e-17 
    8438.78  8.67044e-17 
    8440.07  8.65297e-17 
    8441.36  8.03453e-17 
    8442.65  7.07568e-17 
    8443.94  7.26107e-17 
    8445.23  8.00432e-17 
    8446.52  8.17366e-17 
    8447.81  8.28642e-17 
     8449.1  7.74534e-17 
    8450.39  6.22475e-17 
    8451.68  5.86533e-17 
    8452.97    6.797e-17 
    8454.26  7.24775e-17 
    8455.55  6.81102e-17 
    8456.84  6.47032e-17 
    8458.13  7.36564e-17 
    8459.42  7.78615e-17 
    8460.71  7.27696e-17 
     8462.0  6.97436e-17 
    8463.29  6.04396e-17 
    8464.58  6.07615e-17 
    8465.87  7.48525e-17 
    8467.16  8.81274e-17 
    8468.45  9.49318e-17 
    8469.74  9.11755e-17 
    8471.03  7.61068e-17 
    8472.32  7.44705e-17 
    8473.61  7.79177e-17 
     8474.9  7.10205e-17 
    8476.19   5.8516e-17 
    8477.48  6.12028e-17 
    8478.77  6.85406e-17 
    8480.07  6.95622e-17 
    8481.36  7.12108e-17 
    8482.65  8.00777e-17 
    8483.94  8.63922e-17 
    8485.23  8.16953e-17 
    8486.52  6.91006e-17 
    8487.81  5.86948e-17 
     8489.1  5.78683e-17 
    8490.39  6.31273e-17 
    8491.68   6.1863e-17 
    8492.97  6.07505e-17 
    8494.26  6.88199e-17 
    8495.55  6.95836e-17 
    8496.84  6.58659e-17 
    8498.13  6.46008e-17 
    8499.42  6.62097e-17 
    8500.71  6.25476e-17 
     8502.0  6.56012e-17 
    8503.29  6.51088e-17 
    8504.58  4.49737e-17 
    8505.87  4.54568e-17 
    8507.16  5.72147e-17 
    8508.45  6.22892e-17 
    8509.74  5.76105e-17 
    8511.03  5.72567e-17 
    8512.32  6.37811e-17 
    8513.61  6.31103e-17 
     8514.9  6.41629e-17 
    8516.19  6.73812e-17 
    8517.48  6.78315e-17 
    8518.77  6.73851e-17 
    8520.06  6.27907e-17 
    8521.35  5.73442e-17 
    8522.64  6.01731e-17 
    8523.93  6.75327e-17 
    8525.22  6.73523e-17 
    8526.51   6.2583e-17 
     8527.8  6.10932e-17 
    8529.09  5.89158e-17 
    8530.38  6.00773e-17 
    8531.67  6.57756e-17 
    8532.96  6.51147e-17 
    8534.25  5.97228e-17 
    8535.54  6.65139e-17 
    8536.83  6.98856e-17 
    8538.12  6.54048e-17 
    8539.41   7.4915e-17 
     8540.7  8.57441e-17 
     8542.0  7.22188e-17 
    8543.29   5.8243e-17 
    8544.58  5.85201e-17 
    8545.87  6.37006e-17 
    8547.16  5.98214e-17 
    8548.45  5.53553e-17 
    8549.74  6.03045e-17 
    8551.03  6.82446e-17 
    8552.32  7.32918e-17 
    8553.61  7.18987e-17 
     8554.9   6.2815e-17 
    8556.19  5.46333e-17 
    8557.48  5.92931e-17 
    8558.77  6.88799e-17 
    8560.06  6.75254e-17 
    8561.35  6.26762e-17 
    8562.64   6.1412e-17 
    8563.93  6.16647e-17 
    8565.22  6.57418e-17 
    8566.51  6.78454e-17 
     8567.8  6.72675e-17 
    8569.09  7.09138e-17 
    8570.38  7.49319e-17 
    8571.67  7.42577e-17 
    8572.96  7.05064e-17 
    8574.25   7.2672e-17 
    8575.54  6.99087e-17 
    8576.83  6.63994e-17 
    8578.12  6.62901e-17 
    8579.41  6.54617e-17 
     8580.7  6.53085e-17 
    8581.99  6.55146e-17 
    8583.28  6.76472e-17 
    8584.57  7.54803e-17 
    8585.86   8.2763e-17 
    8587.15  7.78173e-17 
    8588.44  7.17756e-17 
    8589.73  7.22759e-17 
    8591.02  7.14204e-17 
    8592.31  7.04001e-17 
     8593.6  7.44354e-17 
    8594.89  8.17596e-17 
    8596.18  8.88057e-17 
    8597.47   9.0607e-17 
    8598.76  8.35358e-17 
    8600.05  7.84467e-17 
    8601.34  7.83939e-17 
    8602.63  8.67987e-17 
    8603.92  8.69852e-17 
    8605.22  7.62895e-17 
    8606.51  7.70948e-17 
     8607.8  8.15316e-17 
    8609.09  8.83002e-17 
    8610.38   9.3698e-17 
    8611.67  8.87296e-17 
    8612.96  9.27518e-17 
    8614.25  9.95421e-17 
    8615.54  9.72301e-17 
    8616.83   8.5869e-17 
    8618.12  7.66649e-17 
    8619.41  7.97145e-17 
     8620.7  8.69419e-17 
    8621.99  9.65857e-17 
    8623.28  1.02586e-16 
    8624.57  1.04395e-16 
    8625.86  1.02401e-16 
    8627.15  9.49136e-17 
    8628.44  9.65149e-17 
    8629.73  1.02423e-16 
    8631.02  9.80871e-17 
    8632.31  9.02927e-17 
     8633.6  8.54857e-17 
    8634.89  7.87703e-17 
    8636.18  8.45219e-17 
    8637.47   1.0392e-16 
    8638.76  1.19326e-16 
    8640.05  1.12779e-16 
    8641.34  1.07971e-16 
    8642.63  1.07442e-16 
    8643.92  1.03788e-16 
    8645.21  9.96472e-17 
     8646.5   9.8951e-17 
    8647.79   1.0723e-16 
    8649.08  1.16529e-16 
    8650.37  1.13255e-16 
    8651.66  1.00763e-16 
    8652.95   9.2714e-17 
    8654.24   1.0038e-16 
    8655.53  1.13575e-16 
    8656.82  1.22864e-16 
    8658.11   1.2326e-16 
     8659.4  1.18594e-16 
    8660.69  1.19538e-16 
    8661.98  1.23038e-16 
    8663.27  1.29565e-16 
    8664.56  1.33079e-16 
    8665.85  1.30572e-16 
    8667.15  1.22699e-16 
    8668.44   1.2873e-16 
    8669.73  1.41249e-16 
    8671.02  1.42784e-16 
    8672.31  1.51537e-16 
     8673.6  1.45849e-16 
    8674.89  1.41765e-16 
    8676.18  1.43327e-16 
    8677.47  1.43194e-16 
    8678.76  1.44888e-16 
    8680.05  1.40596e-16 
    8681.34  1.31076e-16 
    8682.63   1.3283e-16 
    8683.92  1.43837e-16 
    8685.21  1.49152e-16 
     8686.5  1.46106e-16 
    8687.79  1.50753e-16 
    8689.08  1.57566e-16 
    8690.37  1.61742e-16 
    8691.66  1.65475e-16 
    8692.95  1.61876e-16 
    8694.24  1.57159e-16 
    8695.53  1.58752e-16 
    8696.82  1.60868e-16 
    8698.11  1.55472e-16 
     8699.4   1.5687e-16 
    8700.69  1.57966e-16 
    8701.98  1.51602e-16 
    8703.27  1.52213e-16 
    8704.56  1.48217e-16 
    8705.85  1.51652e-16 
    8707.14  1.59821e-16 
    8708.43  1.58525e-16 
    8709.72  1.58313e-16 
    8711.01  1.59678e-16 
     8712.3  1.61147e-16 
    8713.59  1.55846e-16 
    8714.88  1.60578e-16 
    8716.17  1.69563e-16 
    8717.46  1.72469e-16 
    8718.75  1.65057e-16 
    8720.04   1.5684e-16 
    8721.33  1.58074e-16 
    8722.62  1.64041e-16 
    8723.91  1.66312e-16 
     8725.2  1.65142e-16 
    8726.49  1.67104e-16 
    8727.78  1.71836e-16 
    8729.07  1.72072e-16 
    8730.37  1.70853e-16 
    8731.66  1.69661e-16 
    8732.95  1.71184e-16 
    8734.24  1.80833e-16 
    8735.53   1.7816e-16 
    8736.82  1.68783e-16 
    8738.11  1.71869e-16 
     8739.4  1.80327e-16 
    8740.69  1.86126e-16 
    8741.98  1.83801e-16 
    8743.27  1.89329e-16 
    8744.56  1.99054e-16 
    8745.85  2.07223e-16 
    8747.14    2.125e-16 
    8748.43  2.10962e-16 
    8749.72  2.11088e-16 
    8751.01  2.12018e-16 
     8752.3  2.11433e-16 
    8753.59  2.06406e-16 
    8754.88  1.99076e-16 
    8756.17  1.89253e-16 
    8757.46  1.84573e-16 
    8758.75  2.02163e-16 
    8760.04  2.13152e-16 
    8761.33  2.10807e-16 
    8762.62   2.2822e-16 
    8763.91  2.36508e-16 
     8765.2  2.31143e-16 
    8766.49   2.2379e-16 
    8767.78  2.12129e-16 
    8769.07  2.32564e-16 
    8770.36  2.48322e-16 
    8771.65  2.39519e-16 
    8772.94  2.39151e-16 
    8774.23  2.31083e-16 
    8775.52  2.19747e-16 
    8776.81  2.38192e-16 
     8778.1  2.60734e-16 
    8779.39  2.52407e-16 
    8780.68   2.4634e-16 
    8781.97  2.46848e-16 
    8783.26  2.44905e-16 
    8784.55  2.42844e-16 
    8785.84  2.48414e-16 
    8787.13  2.63045e-16 
    8788.42    2.673e-16 
    8789.71  2.66006e-16 
     8791.0  2.80917e-16 
     8792.3  2.97852e-16 
    8793.59  2.91203e-16 
    8794.88  2.77436e-16 
    8796.17  2.74374e-16 
    8797.46  2.68774e-16 
    8798.75  2.62348e-16 
    8800.04  2.57503e-16 
    8801.33  2.64992e-16 
    8802.62  2.67109e-16 
    8803.91  2.67442e-16 
     8805.2  2.68792e-16 
    8806.49  2.61262e-16 
    8807.78  2.61629e-16 
    8809.07  2.74727e-16 
    8810.36  2.81352e-16 
    8811.65  2.86937e-16 
    8812.94  2.89669e-16 
    8814.23   2.8855e-16 
    8815.52  2.89415e-16 
    8816.81  2.86942e-16 
     8818.1   2.8475e-16 
    8819.39  2.83545e-16 
    8820.68  2.80919e-16 
    8821.97  2.77026e-16 
    8823.26  2.76268e-16 
    8824.55  2.76976e-16 
    8825.84  2.74404e-16 
    8827.13   3.1752e-16 
    8828.42  3.62498e-16 
    8829.71  3.32206e-16 
     8831.0  3.15583e-16 
    8832.29  3.19983e-16 
    8833.58  3.07035e-16 
    8834.87  3.02771e-16 
    8836.16  3.07735e-16 
    8837.45  3.02002e-16 
    8838.74  3.04884e-16 
    8840.03  3.17766e-16 
    8841.32  3.25055e-16 
    8842.61  3.27785e-16 
     8843.9  3.23467e-16 
    8845.19  3.31892e-16 
    8846.48  3.35961e-16 
    8847.77  3.26808e-16 
    8849.06  3.31698e-16 
    8850.35  3.50262e-16 
    8851.64  3.56733e-16 
    8852.93  3.42905e-16 
    8854.22  3.31858e-16 
    8855.52  3.42475e-16 
    8856.81  3.49412e-16 
     8858.1  3.45414e-16 
    8859.39  3.44563e-16 
    8860.68  3.50487e-16 
    8861.97  3.65682e-16 
    8863.26  3.50686e-16 
    8864.55  3.25459e-16 
    8865.84  3.33297e-16 
    8867.13  3.47948e-16 
    8868.42  3.65381e-16 
    8869.71  3.77411e-16 
     8871.0  3.72385e-16 
    8872.29  3.47857e-16 
    8873.58  3.41864e-16 
    8874.87  3.52412e-16 
    8876.16  3.48793e-16 
    8877.45  3.28797e-16 
    8878.74  3.26779e-16 
    8880.03  3.41164e-16 
    8881.32  3.46031e-16 
    8882.61  3.39067e-16 
     8883.9  3.28152e-16 
    8885.19  3.34767e-16 
    8886.48  3.80016e-16 
    8887.77  4.10367e-16 
    8889.06  3.80403e-16 
    8890.35  3.46772e-16 
    8891.64  3.39972e-16 
    8892.93  3.45359e-16 
    8894.22  3.40015e-16 
    8895.51  3.23458e-16 
     8896.8    3.478e-16 
    8898.09  3.69739e-16 
    8899.38  3.69646e-16 
    8900.67    3.645e-16 
    8901.96  3.82884e-16 
    8903.25  4.10723e-16 
    8904.54  4.00481e-16 
    8905.83  3.75234e-16 
    8907.12  3.76454e-16 
    8908.41  3.82953e-16 
     8909.7  3.84565e-16 
    8910.99  3.82716e-16 
    8912.28  3.67548e-16 
    8913.57  3.51245e-16 
    8914.86  3.40233e-16 
    8916.15  3.40203e-16 
    8917.45   3.4464e-16 
    8918.74  3.43748e-16 
    8920.03  3.77181e-16 
    8921.32   4.1346e-16 
    8922.61  4.02863e-16 
     8923.9   3.8136e-16 
    8925.19  3.68317e-16 
    8926.48  3.52344e-16 
    8927.77  3.52449e-16 
    8929.06  3.54328e-16 
    8930.35  3.52218e-16 
    8931.64  3.35928e-16 
    8932.93  3.27823e-16 
    8934.22  3.38604e-16 
    8935.51  3.40071e-16 
     8936.8  3.49662e-16 
    8938.09  3.46689e-16 
    8939.38  3.37062e-16 
    8940.67  3.34659e-16 
    8941.96  3.38678e-16 
    8943.25  3.56733e-16 
    8944.54  3.69373e-16 
    8945.83  3.65009e-16 
    8947.12   3.5258e-16 
    8948.41  3.47103e-16 
     8949.7  3.54146e-16 
    8950.99  3.53234e-16 
    8952.28  3.43854e-16 
    8953.57  3.13697e-16 
    8954.86  2.89386e-16 
    8956.15  2.97351e-16 
    8957.44  3.25038e-16 
    8958.73  3.64772e-16 
    8960.02  3.64481e-16 
    8961.31  3.40307e-16 
     8962.6  3.22771e-16 
    8963.89  3.01747e-16 
    8965.18  2.98104e-16 
    8966.47  3.12436e-16 
    8967.76  3.22667e-16 
    8969.05  3.22644e-16 
    8970.34  3.15971e-16 
    8971.63  3.02608e-16 
    8972.92  2.92418e-16 
    8974.21  2.97544e-16 
     8975.5  3.08717e-16 
    8976.79  3.12941e-16 
    8978.08  3.08926e-16 
    8979.38  3.00012e-16 
    8980.67  2.98372e-16 
    8981.96   3.0776e-16 
    8983.25  3.11321e-16 
    8984.54  3.01637e-16 
    8985.83  2.85454e-16 
    8987.12   2.5427e-16 
    8988.41  2.35782e-16 
     8989.7  2.44037e-16 
    8990.99  2.32716e-16 
    8992.28  2.29231e-16 
    8993.57  2.57283e-16 
    8994.86  2.90098e-16 
    8996.15  3.03118e-16 
    8997.44  2.94226e-16 
    8998.73  2.76865e-16 
    9000.02  2.73204e-16 
    9001.31  2.70039e-16 
     9002.6  2.65738e-16 
    9003.89  2.62258e-16 
    9005.18  2.54276e-16 
    9006.47  2.49004e-16 
    9007.76  2.47834e-16 
    9009.05  2.42184e-16 
    9010.34  2.51046e-16 
    9011.63  2.65776e-16 
    9012.92  2.66356e-16 
    9014.21  2.69731e-16 
     9015.5  2.64052e-16 
    9016.79  2.44398e-16 
    9018.08  2.37581e-16 
    9019.37  2.49612e-16 
    9020.66    2.604e-16 
    9021.95  2.62943e-16 
    9023.24  2.51517e-16 
    9024.53  2.39148e-16 
    9025.82  2.28784e-16 
    9027.11   2.3276e-16 
     9028.4  2.47875e-16 
    9029.69  2.56033e-16 
    9030.98  2.50352e-16 
    9032.27  2.43924e-16 
    9033.56  2.50733e-16 
    9034.85  2.60633e-16 
    9036.14  2.57122e-16 
    9037.43  2.49722e-16 
    9038.72  2.52372e-16 
    9040.01  2.51083e-16 
     9041.3  2.41167e-16 
     9042.6   2.3493e-16 
    9043.89  2.32649e-16 
    9045.18  2.37041e-16 
    9046.47  2.33488e-16 
    9047.76  2.21988e-16 
    9049.05  2.31945e-16 
    9050.34  2.37768e-16 
    9051.63   2.2571e-16 
    9052.92  2.21728e-16 
    9054.21  2.26036e-16 
     9055.5  2.31105e-16 
    9056.79  2.24371e-16 
    9058.08  2.18879e-16 
    9059.37  2.14519e-16 
    9060.66  1.98357e-16 
    9061.95  1.89185e-16 
    9063.24  1.93105e-16 
    9064.53  2.03646e-16 
    9065.82  2.08824e-16 
    9067.11  2.10639e-16 
     9068.4  2.15346e-16 
    9069.69  2.11026e-16 
    9070.98  1.95258e-16 
    9072.27   1.8476e-16 
    9073.56  1.83467e-16 
    9074.85  1.88679e-16 
    9076.14  1.98069e-16 
    9077.43  1.94573e-16 
    9078.72  1.84728e-16 
    9080.01  1.80234e-16 
     9081.3  1.68624e-16 
    9082.59  1.69864e-16 
    9083.88  1.92108e-16 
    9085.17  2.02209e-16 
    9086.46  1.86712e-16 
    9087.75   1.7856e-16 
    9089.04  1.80008e-16 
    9090.33   1.8138e-16 
    9091.62  1.84158e-16 
    9092.91   1.7878e-16 
     9094.2  1.71663e-16 
    9095.49  1.74722e-16 
    9096.78  1.76194e-16 
    9098.07  1.79702e-16 
    9099.36  1.83602e-16 
    9100.65  1.61528e-16 
    9101.94  1.01112e-16 
    9103.23  6.12749e-17 
    9104.53   1.0635e-16 
    9105.82  1.56724e-16 
    9107.11  1.55901e-16 
     9108.4  1.53094e-16 
    9109.69  1.64318e-16 
    9110.98  1.81746e-16 
    9112.27  1.89014e-16 
    9113.56  1.79349e-16 
    9114.85  1.69943e-16 
    9116.14  1.74012e-16 
    9117.43  1.65523e-16 
    9118.72  1.44839e-16 
    9120.01  1.40352e-16 
     9121.3  1.51507e-16 
    9122.59  1.56758e-16 
    9123.88  1.63871e-16 
    9125.17    1.647e-16 
    9126.46  1.53018e-16 
    9127.75  1.43662e-16 
    9129.04   1.3595e-16 
    9130.33  1.23498e-16 
    9131.62  1.19117e-16 
    9132.91  1.30621e-16 
     9134.2  1.38747e-16 
    9135.49  1.32491e-16 
    9136.78  1.24587e-16 
    9138.07  1.32755e-16 
    9139.36  1.41304e-16 
    9140.65  1.37194e-16 
    9141.94  1.50951e-16 
    9143.23  1.56411e-16 
    9144.52  1.46926e-16 
    9145.81  1.42492e-16 
     9147.1  1.42888e-16 
    9148.39  1.40976e-16 
    9149.68   1.4049e-16 
    9150.97  1.31176e-16 
    9152.26  1.22796e-16 
    9153.55  1.17467e-16 
    9154.84  1.11574e-16 
    9156.13  1.14261e-16 
    9157.42  1.23169e-16 
    9158.71  1.33644e-16 
     9160.0   1.3647e-16 
    9161.29  1.25637e-16 
    9162.58  1.22541e-16 
    9163.87  1.29209e-16 
    9165.16  1.29714e-16 
    9166.45  1.32905e-16 
    9167.75  1.36863e-16 
    9169.04  1.30256e-16 
    9170.33  1.30058e-16 
    9171.62   1.2921e-16 
    9172.91  1.15195e-16 
     9174.2  1.06095e-16 
    9175.49  1.05062e-16 
    9176.78    1.008e-16 
    9178.07  1.00603e-16 
    9179.36    1.144e-16 
    9180.65  1.30561e-16 
    9181.94  1.27509e-16 
    9183.23  1.17092e-16 
    9184.52  1.20799e-16 
    9185.81  1.27408e-16 
     9187.1  1.23388e-16 
    9188.39  1.19549e-16 
    9189.68  1.21327e-16 
    9190.97  1.24913e-16 
    9192.26  1.27905e-16 
    9193.55  1.24309e-16 
    9194.84  1.15886e-16 
    9196.13  1.07042e-16 
    9197.42  1.08075e-16 
