# STATUS =
# OBJECT = 2017egm
# TELESCOPE = FLWO-1.5m
# INSTRUMENT = FAST
# DATE-OBS = 2017-06-17 04:19:12.00
# MJD = 57921.18000000017
# EXPTIME = 900
# AIRMASS = --
# SLIT = 1.5
# DISPERSER = --
# SOURCE = 2018ApJ...853...57B
# FILTER =
# RESOLUTION =
# FLUX_STANDARD =
# EXTINCTION_CORRECTED = --
# PHOTOMETRY_CALIBRATED =
# TELLURIC_CORRECTED =
# FLUX_UNITS = Other
# WAVE_UNITS = Angstrom
# QUALITY = --
# MIN_WAVE = 3501.346
# MAX_WAVE = 7419.6783
# COMMENT = [Data obtained from:Bose, S.] [Prev. spec info - createdby: ilanm-UploadSet; modifiedby: ilanm]
 Wavelength                Flux 
  3502.8169   112475590000000.0 
  3504.2877   103239110000000.0 
  3505.7586   102571130000000.0 
  3507.2294   105038700000000.0 
  3508.7003   105221450000000.0 
  3510.1711   103711830000000.0 
  3511.6419  9972243200000000.0 
  3513.1128   102581350000000.0 
  3514.5836  9759674000000000.0 
  3516.0545  9988471600000000.0 
  3517.5253   100906540000000.0 
  3518.9962   104768070000000.0 
   3520.467   106388790000000.0 
  3521.9379   102250070000000.0 
  3523.4087  9927453600000000.0 
  3524.8796   103184680000000.0 
  3526.3504   106093230000000.0 
  3527.8212  9859221800000000.0 
  3529.2921   103953750000000.0 
  3530.7629   110117790000000.0 
  3532.2338   105399420000000.0 
  3533.7046   104431570000000.0 
  3535.1755   101269530000000.0 
  3536.6463   101935620000000.0 
  3538.1172   107777840000000.0 
   3539.588   105846480000000.0 
  3541.0589   107944800000000.0 
  3542.5297   101142840000000.0 
  3544.0005   106104540000000.0 
  3545.4714   105508660000000.0 
  3546.9422   100460870000000.0 
  3548.4131   102141320000000.0 
  3549.8839   104541000000000.0 
  3551.3548   103138180000000.0 
  3552.8256   107638810000000.0 
  3554.2965   106406750000000.0 
  3555.7673   107391360000000.0 
  3557.2382  9800724700000000.0 
   3558.709  9705239400000000.0 
  3560.1798  9525279100000000.0 
  3561.6507   101779260000000.0 
  3563.1215  9196645900000000.0 
  3564.5924  9638880600000000.0 
  3566.0632   103631640000000.0 
  3567.5341   101910260000000.0 
  3569.0049  9809643600000000.0 
  3570.4758  9800772600000000.0 
  3571.9466  9492091100000000.0 
  3573.4175  9119017600000000.0 
  3574.8883  9665263400000000.0 
  3576.3591  9782037600000000.0 
    3577.83  9651859300000000.0 
  3579.3008  9373328700000000.0 
  3580.7717  9637612500000000.0 
  3582.2425  9412812800000000.0 
  3583.7134  9389159100000000.0 
  3585.1842  9448589200000000.0 
  3586.6551  9090119900000000.0 
  3588.1259  9321137300000000.0 
  3589.5968  9788431000000000.0 
  3591.0676  9278321900000000.0 
  3592.5384  9566146800000000.0 
  3594.0093  9669996700000000.0 
  3595.4801  9504398200000000.0 
   3596.951  9316255800000000.0 
  3598.4218  9107254700000000.0 
  3599.8927  9423463100000000.0 
  3601.3635  9171396100000000.0 
  3602.8344  9245298400000000.0 
  3604.3052  9441577600000000.0 
  3605.7761  9114656100000000.0 
  3607.2469  9344352700000000.0 
  3608.7177  9318996100000000.0 
  3610.1886  9165595500000000.0 
  3611.6594  9313663200000000.0 
  3613.1303  9302293400000000.0 
  3614.6011  8901900800000000.0 
   3616.072  9042069700000000.0 
  3617.5428  8997103000000000.0 
  3619.0137  9498691600000000.0 
  3620.4845  9037196400000000.0 
  3621.9554  8549661400000000.0 
  3623.4262  9056153500000000.0 
   3624.897  9438653700000000.0 
  3626.3679  9076226700000000.0 
  3627.8387  9277049900000000.0 
  3629.3096  8957623800000000.0 
  3630.7804  9027908200000000.0 
  3632.2513  9012864900000000.0 
  3633.7221  9175881600000000.0 
   3635.193  9015425700000000.0 
  3636.6638  9429414100000000.0 
  3638.1347  9257257700000000.0 
  3639.6055  9259150000000000.0 
  3641.0763  8865501400000000.0 
  3642.5472  9381779100000000.0 
   3644.018  9257572300000000.0 
  3645.4889  9377911400000000.0 
  3646.9597  8661531800000000.0 
  3648.4306  8754081700000000.0 
  3649.9014  9113746500000000.0 
  3651.3723  9112095000000000.0 
  3652.8431  9394098700000000.0 
   3654.314  8739398800000000.0 
  3655.7848  8921499500000000.0 
  3657.2556  8985811600000000.0 
  3658.7265  8874674800000000.0 
  3660.1973  8824550700000000.0 
  3661.6682  8911268400000000.0 
   3663.139  8904625800000000.0 
  3664.6099  8809481600000000.0 
  3666.0807  8656777400000000.0 
  3667.5516  8483262800000000.0 
  3669.0224  8736032800000000.0 
  3670.4933  8652784100000000.0 
  3671.9641  8721192900000000.0 
  3673.4349  9018829300000000.0 
  3674.9058  8689718700000000.0 
  3676.3766  8439070400000000.0 
  3677.8475  8630407800000000.0 
  3679.3183  8853903300000000.0 
  3680.7892  8762331900000000.0 
    3682.26  8658618100000000.0 
  3683.7309  8247562500000000.0 
  3685.2017  8688845600000000.0 
  3686.6726  8636647300000000.0 
  3688.1434  8471036100000000.0 
  3689.6142  8832372500000000.0 
  3691.0851  8844901000000000.0 
  3692.5559  8233914700000000.0 
  3694.0268  8316963300000000.0 
  3695.4976  8619095700000000.0 
  3696.9685  8685639400000000.0 
  3698.4393  8150707400000000.0 
  3699.9102  8331481300000000.0 
   3701.381  8301057000000000.0 
  3702.8519  8296908900000000.0 
  3704.3227  8469204100000000.0 
  3705.7935  8513289300000000.0 
  3707.2644  8260356900000000.0 
  3708.7352  8480340700000000.0 
  3710.2061  8567087100000000.0 
  3711.6769  8477161000000000.0 
  3713.1478  8706048400000000.0 
  3714.6186  8781688300000000.0 
  3716.0895  8200679500000000.0 
  3717.5603  8841093300000000.0 
  3719.0312  8489819400000000.0 
   3720.502  8781055700000000.0 
  3721.9728  8246720100000000.0 
  3723.4437  8329187800000000.0 
  3724.9145  8347942100000000.0 
  3726.3854  8347332200000000.0 
  3727.8562  8491013000000000.0 
  3729.3271  8431549500000000.0 
  3730.7979  8247182500000000.0 
  3732.2688  8401298000000000.0 
  3733.7396  8543512700000000.0 
  3735.2105  8779913900000000.0 
  3736.6813  8322712200000000.0 
  3738.1521  8141381700000000.0 
   3739.623  8248117600000000.0 
  3741.0938  8326559200000000.0 
  3742.5647  8667805300000000.0 
  3744.0355  8702978100000000.0 
  3745.5064  8259050300000000.0 
  3746.9772  8095741900000000.0 
  3748.4481  8512558700000000.0 
  3749.9189  8236549300000000.0 
  3751.3898  8285127100000000.0 
  3752.8606  8392126700000000.0 
  3754.3314  8149854300000000.0 
  3755.8023  8251980300000000.0 
  3757.2731  8468765400000000.0 
   3758.744  8397643000000000.0 
  3760.2148  8207311100000000.0 
  3761.6857  8387150600000000.0 
  3763.1565  8433376600000000.0 
  3764.6274  8339127800000000.0 
  3766.0982  8553229900000000.0 
  3767.5691  8475324300000000.0 
  3769.0399  8715291700000000.0 
  3770.5107  8613459700000000.0 
  3771.9816  8379434900000000.0 
  3773.4524  8354292900000000.0 
  3774.9233  8342469000000000.0 
  3776.3941  8549162500000000.0 
   3777.865  8449589000000000.0 
  3779.3358  8523415900000000.0 
  3780.8067  8569533300000000.0 
  3782.2775  8458235400000000.0 
  3783.7484  8628413200000000.0 
  3785.2192  8669208100000000.0 
    3786.69  8718546200000000.0 
  3788.1609  8521113500000000.0 
  3789.6317  8626513600000000.0 
  3791.1026  8675290000000000.0 
  3792.5734  8577046800000000.0 
  3794.0443  8531704700000000.0 
  3795.5151  8343758100000000.0 
   3796.986  8631931900000000.0 
  3798.4568  8403928500000000.0 
  3799.9277  8351971400000000.0 
  3801.3985  8301124600000000.0 
  3802.8693  8494763900000000.0 
  3804.3402  8411189900000000.0 
   3805.811  8679660200000000.0 
  3807.2819  8811870100000000.0 
  3808.7527  8849781200000000.0 
  3810.2236  8815417400000000.0 
  3811.6944  8662646700000000.0 
  3813.1653  8794427600000000.0 
  3814.6361  8506971100000000.0 
   3816.107  9160410400000000.0 
  3817.5778  8613120000000000.0 
  3819.0486  8781222300000000.0 
  3820.5195  8801415900000000.0 
  3821.9903  8642511900000000.0 
  3823.4612  8700969800000000.0 
   3824.932  8778667100000000.0 
  3826.4029  8507193400000000.0 
  3827.8737  8877984600000000.0 
  3829.3446  8984705800000000.0 
  3830.8154  8654428600000000.0 
  3832.2863  8751859800000000.0 
  3833.7571  8843113800000000.0 
  3835.2279  8809258800000000.0 
  3836.6988  8966419800000000.0 
  3838.1696  9038508200000000.0 
  3839.6405  9345876200000000.0 
  3841.1113  9267522100000000.0 
  3842.5822  9258227600000000.0 
   3844.053  9113524400000000.0 
  3845.5239  8929695200000000.0 
  3846.9947  8794182200000000.0 
  3848.4656  8819831700000000.0 
  3849.9364  8930282400000000.0 
  3851.4072  8783829200000000.0 
  3852.8781  8828064700000000.0 
  3854.3489  8838032000000000.0 
  3855.8198  8859497600000000.0 
  3857.2906  8742507100000000.0 
  3858.7615  8710651500000000.0 
  3860.2323  8920176000000000.0 
  3861.7032  9030073800000000.0 
   3863.174  8938227800000000.0 
  3864.6449  8987962400000000.0 
  3866.1157  9011017400000000.0 
  3867.5865  8924857600000000.0 
  3869.0574  8615972200000000.0 
  3870.5282  8620061300000000.0 
  3871.9991  8984266200000000.0 
  3873.4699  8821122600000000.0 
  3874.9408  8584440100000000.0 
  3876.4116  8674204600000000.0 
  3877.8825  8560639500000000.0 
  3879.3533  8582846300000000.0 
  3880.8242  8657464700000000.0 
   3882.295  8754409500000000.0 
  3883.7658  8762690100000000.0 
  3885.2367  8505188500000000.0 
  3886.7075  8502892900000000.0 
  3888.1784  8490714800000000.0 
  3889.6492  8736806100000000.0 
  3891.1201  8751471100000000.0 
  3892.5909  8736870500000000.0 
  3894.0618  8708934300000000.0 
  3895.5326  8334141500000000.0 
  3897.0035  8324599300000000.0 
  3898.4743  8458262200000000.0 
  3899.9451  8374565500000000.0 
   3901.416  8361024600000000.0 
  3902.8868  8240010500000000.0 
  3904.3577  8355975600000000.0 
  3905.8285  8591966700000000.0 
  3907.2994  8310027100000000.0 
  3908.7702  8412910600000000.0 
  3910.2411  8282170100000000.0 
  3911.7119  8411399300000000.0 
  3913.1828  8110168400000000.0 
  3914.6536  8169980100000000.0 
  3916.1244  8399583500000000.0 
  3917.5953  8387707400000000.0 
  3919.0661  8213756800000000.0 
   3920.537  8406936400000000.0 
  3922.0078  8405359300000000.0 
  3923.4787  8439892400000000.0 
  3924.9495  8266139000000000.0 
  3926.4204  8342282300000000.0 
  3927.8912  8406255800000000.0 
  3929.3621  8029498800000000.0 
  3930.8329  7998233000000000.0 
  3932.3037  7666570500000000.0 
  3933.7746  7869194900000000.0 
  3935.2454  8106986100000000.0 
  3936.7163  7970517700000000.0 
  3938.1871  8268144700000000.0 
   3939.658  8437637900000000.0 
  3941.1288  8136862400000000.0 
  3942.5997  8251043100000000.0 
  3944.0705  8198198400000000.0 
  3945.5414  8293148900000000.0 
  3947.0122  8090779200000000.0 
   3948.483  8189986400000000.0 
  3949.9539  8137785800000000.0 
  3951.4247  8141685300000000.0 
  3952.8956  8147810900000000.0 
  3954.3664  8019464600000000.0 
  3955.8373  8178992700000000.0 
  3957.3081  8304880600000000.0 
   3958.779  8113194300000000.0 
  3960.2498  8109373000000000.0 
  3961.7207  8355704000000000.0 
  3963.1915  8213520500000000.0 
  3964.6623  8247756600000000.0 
  3966.1332  8111130100000000.0 
   3967.604  8039763900000000.0 
  3969.0749  8101977600000000.0 
  3970.5457  8284331000000000.0 
  3972.0166  8500131700000000.0 
  3973.4874  8559695200000000.0 
  3974.9583  8411400800000000.0 
  3976.4291  8436513900000000.0 
     3977.9  8571377400000000.0 
  3979.3708  8549461800000000.0 
  3980.8416  8449080400000000.0 
  3982.3125  8243384800000000.0 
  3983.7833  8489093600000000.0 
  3985.2542  8610023100000000.0 
   3986.725  8420430300000000.0 
  3988.1959  8526247400000000.0 
  3989.6667  8574636600000000.0 
  3991.1376  8611339500000000.0 
  3992.6084  8390696500000000.0 
  3994.0793  8496016300000000.0 
  3995.5501  8467871900000000.0 
  3997.0209  8400812900000000.0 
  3998.4918  8332745800000000.0 
  3999.9626  8365902300000000.0 
  4001.4335  8489262900000000.0 
  4002.9043  8493880100000000.0 
  4004.3752  8442575900000000.0 
   4005.846  8511138100000000.0 
  4007.3169  8484687100000000.0 
  4008.7877  8402631100000000.0 
  4010.2586  8379636600000000.0 
  4011.7294  8455373200000000.0 
  4013.2002  8457973300000000.0 
  4014.6711  8682067300000000.0 
  4016.1419  8605773300000000.0 
  4017.6128  8792962900000000.0 
  4019.0836  8723739700000000.0 
  4020.5545  8590785100000000.0 
  4022.0253  8760437300000000.0 
  4023.4962  8870321300000000.0 
   4024.967  8511734800000000.0 
  4026.4379  8587243400000000.0 
  4027.9087  8504019700000000.0 
  4029.3795  8678344400000000.0 
  4030.8504  8658914200000000.0 
  4032.3212  8421737800000000.0 
  4033.7921  8539818300000000.0 
  4035.2629  8553282900000000.0 
  4036.7338  8568400300000000.0 
  4038.2046  8380033500000000.0 
  4039.6755  8356129300000000.0 
  4041.1463  8339949200000000.0 
  4042.6172  8414791100000000.0 
   4044.088  8294608800000000.0 
  4045.5588  8224066000000000.0 
  4047.0297  7998657200000000.0 
  4048.5005  7918096400000000.0 
  4049.9714  8000723900000000.0 
  4051.4422  7748915700000000.0 
  4052.9131  7849484300000000.0 
  4054.3839  7714228700000000.0 
  4055.8548  7879109600000000.0 
  4057.3256  7881958300000000.0 
  4058.7965  7898003800000000.0 
  4060.2673  7985383000000000.0 
  4061.7381  8118202600000000.0 
   4063.209  7939545900000000.0 
  4064.6798  7833381500000000.0 
  4066.1507  7693542300000000.0 
  4067.6215  7831323100000000.0 
  4069.0924  7805990200000000.0 
  4070.5632  7769457400000000.0 
  4072.0341  7802101900000000.0 
  4073.5049  7686410800000000.0 
  4074.9758  7796862100000000.0 
  4076.4466  7897817900000000.0 
  4077.9174  7770685100000000.0 
  4079.3883  7795972600000000.0 
  4080.8591  7611614000000000.0 
    4082.33  7330159700000000.0 
  4083.8008  7330423500000000.0 
  4085.2717  7417293700000000.0 
  4086.7425  7422246100000000.0 
  4088.2134  7357091200000000.0 
  4089.6842  7359637500000000.0 
  4091.1551  7312556000000000.0 
  4092.6259  7196752800000000.0 
  4094.0967  7422193900000000.0 
  4095.5676  7348088400000000.0 
  4097.0384  7354486700000000.0 
  4098.5093  7467770300000000.0 
  4099.9801  7652893600000000.0 
   4101.451  7669037000000000.0 
  4102.9218  7635023900000000.0 
  4104.3927  7756916300000000.0 
  4105.8635  7721362900000000.0 
  4107.3344  7759092000000000.0 
  4108.8052  7750252100000000.0 
   4110.276  7785710200000000.0 
  4111.7469  7859638400000000.0 
  4113.2177  7725717100000000.0 
  4114.6886  7788445900000000.0 
  4116.1594  7961339200000000.0 
  4117.6303  7946649800000000.0 
  4119.1011  7923419100000000.0 
   4120.572  8126415400000000.0 
  4122.0428  8124503400000000.0 
  4123.5137  8095106100000000.0 
  4124.9845  8067306300000000.0 
  4126.4553  7944794100000000.0 
  4127.9262  8081758400000000.0 
   4129.397  8189873200000000.0 
  4130.8679  8200377900000000.0 
  4132.3387  8147374500000000.0 
  4133.8096  8370304400000000.0 
  4135.2804  8386211500000000.0 
  4136.7513  8301697100000000.0 
  4138.2221  8244170300000000.0 
   4139.693  8508930800000000.0 
  4141.1638  8370207500000000.0 
  4142.6346  8302954600000000.0 
  4144.1055  8434493400000000.0 
  4145.5763  8253298600000000.0 
  4147.0472  8428040200000000.0 
   4148.518  8420788300000000.0 
  4149.9889  8394280200000000.0 
  4151.4597  8298603600000000.0 
  4152.9306  8462154400000000.0 
  4154.4014  8509566900000000.0 
  4155.8723  8476936200000000.0 
  4157.3431  8442753900000000.0 
  4158.8139  8472508800000000.0 
  4160.2848  8517462600000000.0 
  4161.7556  8481871700000000.0 
  4163.2265  8422267400000000.0 
  4164.6973  8293065900000000.0 
  4166.1682  8393830200000000.0 
   4167.639  8543267900000000.0 
  4169.1099  8321183800000000.0 
  4170.5807  8532047100000000.0 
  4172.0516  8405873400000000.0 
  4173.5224  8407041500000000.0 
  4174.9932  8255329200000000.0 
  4176.4641  8278295900000000.0 
  4177.9349  8294627900000000.0 
  4179.4058  8292859400000000.0 
  4180.8766  8099165100000000.0 
  4182.3475  8067941900000000.0 
  4183.8183  8200379800000000.0 
  4185.2892  8207520400000000.0 
    4186.76  7936390800000000.0 
  4188.2309  8115963200000000.0 
  4189.7017  8182995300000000.0 
  4191.1725  8113215900000000.0 
  4192.6434  8047147500000000.0 
  4194.1142  8045249700000000.0 
  4195.5851  8126623900000000.0 
  4197.0559  7868249900000000.0 
  4198.5268  7866159400000000.0 
  4199.9976  7974052400000000.0 
  4201.4685  7905527200000000.0 
  4202.9393  7801945200000000.0 
  4204.4102  7852545900000000.0 
   4205.881  7824176800000000.0 
  4207.3518  7704896000000000.0 
  4208.8227  7683957300000000.0 
  4210.2935  7719057400000000.0 
  4211.7644  7567516400000000.0 
  4213.2352  7512734500000000.0 
  4214.7061  7344244700000000.0 
  4216.1769  7499093900000000.0 
  4217.6478  7569736200000000.0 
  4219.1186  7435172600000000.0 
  4220.5895  7526860500000000.0 
  4222.0603  7597278100000000.0 
  4223.5311  7294389500000000.0 
   4225.002  7395348000000000.0 
  4226.4728  7351311200000000.0 
  4227.9437  7347037800000000.0 
  4229.4145  7224053000000000.0 
  4230.8854  7126680200000000.0 
  4232.3562  7268117000000000.0 
  4233.8271  7228418600000000.0 
  4235.2979  7202146800000000.0 
  4236.7688  7036912900000000.0 
  4238.2396  6924131500000000.0 
  4239.7104  7007383600000000.0 
  4241.1813  7101539600000000.0 
  4242.6521  7043575400000000.0 
   4244.123  7109138300000000.0 
  4245.5938  6890086100000000.0 
  4247.0647  7048819700000000.0 
  4248.5355  7114816200000000.0 
  4250.0064  6905185700000000.0 
  4251.4772  6766161100000000.0 
  4252.9481  6887573000000000.0 
  4254.4189  6989516000000000.0 
  4255.8897  6838863600000000.0 
  4257.3606  6763835200000000.0 
  4258.8314  6815548500000000.0 
  4260.3023  6689024900000000.0 
  4261.7731  6814606700000000.0 
   4263.244  6792465300000000.0 
  4264.7148  6656578100000000.0 
  4266.1857  6681439600000000.0 
  4267.6565  6705583600000000.0 
  4269.1274  6761358700000000.0 
  4270.5982  6607704200000000.0 
   4272.069  6601021300000000.0 
  4273.5399  6529591900000000.0 
  4275.0107  6506507500000000.0 
  4276.4816  6605633500000000.0 
  4277.9524  6542651500000000.0 
  4279.4233  6490707500000000.0 
  4280.8941  6506131400000000.0 
   4282.365  6489620800000000.0 
  4283.8358  6324789000000000.0 
  4285.3067  6401741100000000.0 
  4286.7775  6546956000000000.0 
  4288.2483  6484101500000000.0 
  4289.7192  6454859000000000.0 
    4291.19  6258191100000000.0 
  4292.6609  6259812000000000.0 
  4294.1317  6340302700000000.0 
  4295.6026  6299361100000000.0 
  4297.0734  6316713400000000.0 
  4298.5443  6303326800000000.0 
  4300.0151  6211080700000000.0 
   4301.486  6120756400000000.0 
  4302.9568  6204695000000000.0 
  4304.4276  6185815500000000.0 
  4305.8985  6113088000000000.0 
  4307.3693  6218796500000000.0 
  4308.8402  6254769400000000.0 
   4310.311  6223554000000000.0 
  4311.7819  6189474400000000.0 
  4313.2527  6104318800000000.0 
  4314.7236  6165698600000000.0 
  4316.1944  6267495400000000.0 
  4317.6653  6232772900000000.0 
  4319.1361  6061180800000000.0 
  4320.6069  6113787600000000.0 
  4322.0778  6274880100000000.0 
  4323.5486  6123052700000000.0 
  4325.0195  6135059600000000.0 
  4326.4903  6151828500000000.0 
  4327.9612  6142672100000000.0 
   4329.432  6127421100000000.0 
  4330.9029  6052637600000000.0 
  4332.3737  6128467300000000.0 
  4333.8446  6030135600000000.0 
  4335.3154  6108963200000000.0 
  4336.7862  6071028800000000.0 
  4338.2571  6053528800000000.0 
  4339.7279  6137758800000000.0 
  4341.1988  6107014600000000.0 
  4342.6696  6155943900000000.0 
  4344.1405  6205204400000000.0 
  4345.6113  6160615000000000.0 
  4347.0822  6144736500000000.0 
   4348.553  6276678500000000.0 
  4350.0239  6263145800000000.0 
  4351.4947  6357974200000000.0 
  4352.9655  6216888400000000.0 
  4354.4364  6260466000000000.0 
  4355.9072  6080649200000000.0 
  4357.3781  6307084400000000.0 
  4358.8489  6291082800000000.0 
  4360.3198  6297545200000000.0 
  4361.7906  6245806100000000.0 
  4363.2615  6246698300000000.0 
  4364.7323  6303872400000000.0 
  4366.2032  6417367500000000.0 
   4367.674  6313525800000000.0 
  4369.1448  6286913200000000.0 
  4370.6157  6395309200000000.0 
  4372.0865  6374420200000000.0 
  4373.5574  6299576000000000.0 
  4375.0282  6406047800000000.0 
  4376.4991  6213725200000000.0 
  4377.9699  6327632100000000.0 
  4379.4408  6403187500000000.0 
  4380.9116  6424695800000000.0 
  4382.3825  6262188900000000.0 
  4383.8533  6401038100000000.0 
  4385.3241  6423454800000000.0 
   4386.795  6339695700000000.0 
  4388.2658  6476746600000000.0 
  4389.7367  6410914600000000.0 
  4391.2075  6334852900000000.0 
  4392.6784  6224668700000000.0 
  4394.1492  6447689800000000.0 
  4395.6201  6454392200000000.0 
  4397.0909  6384570600000000.0 
  4398.5618  6140011000000000.0 
  4400.0326  6394589800000000.0 
  4401.5034  6343943700000000.0 
  4402.9743  6369582700000000.0 
  4404.4451  6317742900000000.0 
   4405.916  6464282400000000.0 
  4407.3868  6458377500000000.0 
  4408.8577  6399829900000000.0 
  4410.3285  6421377500000000.0 
  4411.7994  6371164200000000.0 
  4413.2702  6301383200000000.0 
  4414.7411  6447580200000000.0 
  4416.2119  6221819000000000.0 
  4417.6827  6279102300000000.0 
  4419.1536  6446327900000000.0 
  4420.6244  6447881600000000.0 
  4422.0953  6561705200000000.0 
  4423.5661  6404177600000000.0 
   4425.037  6429161800000000.0 
  4426.5078  6284186600000000.0 
  4427.9787  6418152500000000.0 
  4429.4495  6379177000000000.0 
  4430.9204  6285667400000000.0 
  4432.3912  6330875600000000.0 
   4433.862  6248792500000000.0 
  4435.3329  6412614700000000.0 
  4436.8037  6213292100000000.0 
  4438.2746  6299811600000000.0 
  4439.7454  6299599800000000.0 
  4441.2163  6287823300000000.0 
  4442.6871  6308164000000000.0 
   4444.158  6304024300000000.0 
  4445.6288  6241413600000000.0 
  4447.0997  6164091600000000.0 
  4448.5705  6189384100000000.0 
  4450.0413  6282985200000000.0 
  4451.5122  6196616700000000.0 
   4452.983  6177714200000000.0 
  4454.4539  6326071200000000.0 
  4455.9247  6190044700000000.0 
  4457.3956  6257291800000000.0 
  4458.8664  6237047300000000.0 
  4460.3373  6269404600000000.0 
  4461.8081  6123076800000000.0 
   4463.279  6045803100000000.0 
  4464.7498  6120226100000000.0 
  4466.2206  6200204000000000.0 
  4467.6915  6082379900000000.0 
  4469.1623  6015412700000000.0 
  4470.6332  6115633500000000.0 
   4472.104  6098937600000000.0 
  4473.5749  6011464000000000.0 
  4475.0457  6009603700000000.0 
  4476.5166  6011974100000000.0 
  4477.9874  5976230400000000.0 
  4479.4583  5949097700000000.0 
  4480.9291  5975931600000000.0 
  4482.3999  6093257400000000.0 
  4483.8708  5970138100000000.0 
  4485.3416  5907142700000000.0 
  4486.8125  6070677400000000.0 
  4488.2833  5919868100000000.0 
  4489.7542  6059408500000000.0 
   4491.225  5972470100000000.0 
  4492.6959  5958529100000000.0 
  4494.1667  5829856600000000.0 
  4495.6376  5846805700000000.0 
  4497.1084  5825549100000000.0 
  4498.5792  5792367200000000.0 
  4500.0501  5797898400000000.0 
  4501.5209  5792594100000000.0 
  4502.9918  5657076500000000.0 
  4504.4626  5734509500000000.0 
  4505.9335  5842579400000000.0 
  4507.4043  5627829400000000.0 
  4508.8752  5600469600000000.0 
   4510.346  5599670100000000.0 
  4511.8169  5665674900000000.0 
  4513.2877  5650360800000000.0 
  4514.7585  5642689800000000.0 
  4516.2294  5621577800000000.0 
  4517.7002  5604416600000000.0 
  4519.1711  5597837200000000.0 
  4520.6419  5524747500000000.0 
  4522.1128  5528385900000000.0 
  4523.5836  5571335300000000.0 
  4525.0545  5624326700000000.0 
  4526.5253  5546244800000000.0 
  4527.9962  5583230100000000.0 
   4529.467  5604441900000000.0 
  4530.9378  5440788700000000.0 
  4532.4087  5543395700000000.0 
  4533.8795  5538559300000000.0 
  4535.3504  5459069100000000.0 
  4536.8212  5526151500000000.0 
  4538.2921  5450498400000000.0 
  4539.7629  5497183300000000.0 
  4541.2338  5426254200000000.0 
  4542.7046  5301609000000000.0 
  4544.1755  5406861800000000.0 
  4545.6463  5441388700000000.0 
  4547.1172  5399988700000000.0 
   4548.588  5403172100000000.0 
  4550.0588  5280660500000000.0 
  4551.5297  5332539300000000.0 
  4553.0005  5348832600000000.0 
  4554.4714  5207819400000000.0 
  4555.9422  5346706000000000.0 
  4557.4131  5416899900000000.0 
  4558.8839  5355296900000000.0 
  4560.3548  5299947700000000.0 
  4561.8256  5292717400000000.0 
  4563.2965  5270648400000000.0 
  4564.7673  5265829300000000.0 
  4566.2381  5260703500000000.0 
   4567.709  5279175400000000.0 
  4569.1798  5207797800000000.0 
  4570.6507  5243990200000000.0 
  4572.1215  5189727000000000.0 
  4573.5924  5205953800000000.0 
  4575.0632  5272562500000000.0 
  4576.5341  5241321900000000.0 
  4578.0049  5183149000000000.0 
  4579.4758  5225825200000000.0 
  4580.9466  5223036200000000.0 
  4582.4174  5283907700000000.0 
  4583.8883  5255105200000000.0 
  4585.3591  5187182400000000.0 
    4586.83  5219126700000000.0 
  4588.3008  5261132600000000.0 
  4589.7717  5205528700000000.0 
  4591.2425  5215899700000000.0 
  4592.7134  5297045200000000.0 
  4594.1842  5280887400000000.0 
  4595.6551  5198497000000000.0 
  4597.1259  5188295900000000.0 
  4598.5967  5206748500000000.0 
  4600.0676  5092391900000000.0 
  4601.5384  5229779600000000.0 
  4603.0093  5194131200000000.0 
  4604.4801  5214944300000000.0 
   4605.951  5202034300000000.0 
  4607.4218  5245345700000000.0 
  4608.8927  5265115500000000.0 
  4610.3635  5167321300000000.0 
  4611.8344  5239235400000000.0 
  4613.3052  5235735900000000.0 
   4614.776  5230297500000000.0 
  4616.2469  5303696000000000.0 
  4617.7177  5232242500000000.0 
  4619.1886  5230313200000000.0 
  4620.6594  5326697000000000.0 
  4622.1303  5218124200000000.0 
  4623.6011  5217003400000000.0 
   4625.072  5215959000000000.0 
  4626.5428  5231310100000000.0 
  4628.0137  5257991300000000.0 
  4629.4845  5323540200000000.0 
  4630.9553  5226346700000000.0 
  4632.4262  5217407600000000.0 
   4633.897  5370434800000000.0 
  4635.3679  5323204300000000.0 
  4636.8387  5292308400000000.0 
  4638.3096  5310465700000000.0 
  4639.7804  5267577400000000.0 
  4641.2513  5202032000000000.0 
  4642.7221  5223276200000000.0 
   4644.193  5228557100000000.0 
  4645.6638  5370889900000000.0 
  4647.1346  5399792800000000.0 
  4648.6055  5438311400000000.0 
  4650.0763  5387344600000000.0 
  4651.5472  5376673700000000.0 
   4653.018  5388342800000000.0 
  4654.4889  5478206300000000.0 
  4655.9597  5511566100000000.0 
  4657.4306  5426479400000000.0 
  4658.9014  5494817700000000.0 
  4660.3723  5432511500000000.0 
  4661.8431  5594430700000000.0 
  4663.3139  5550979100000000.0 
  4664.7848  5622930800000000.0 
  4666.2556  5496155000000000.0 
  4667.7265  5457218600000000.0 
  4669.1973  5587809300000000.0 
  4670.6682  5576015000000000.0 
   4672.139  5539098200000000.0 
  4673.6099  5649978400000000.0 
  4675.0807  5671455800000000.0 
  4676.5516  5760043600000000.0 
  4678.0224  5748184800000000.0 
  4679.4932  5656183600000000.0 
  4680.9641  5689846100000000.0 
  4682.4349  5618365600000000.0 
  4683.9058  5726052600000000.0 
  4685.3766  5755713000000000.0 
  4686.8475  5787244300000000.0 
  4688.3183  5819171900000000.0 
  4689.7892  5821661700000000.0 
    4691.26  5813246300000000.0 
  4692.7309  5830191100000000.0 
  4694.2017  5876713700000000.0 
  4695.6725  5920764300000000.0 
  4697.1434  5958581400000000.0 
  4698.6142  6054360500000000.0 
  4700.0851  5900988800000000.0 
  4701.5559  6009048200000000.0 
  4703.0268  5982500100000000.0 
  4704.4976  5997733800000000.0 
  4705.9685  6036875300000000.0 
  4707.4393  6042796200000000.0 
  4708.9102  6049357900000000.0 
   4710.381  5971610300000000.0 
  4711.8518  6100965000000000.0 
  4713.3227  6101434100000000.0 
  4714.7935  6128417100000000.0 
  4716.2644  6134423600000000.0 
  4717.7352  6179729200000000.0 
  4719.2061  6177199000000000.0 
  4720.6769  6093509500000000.0 
  4722.1478  6075620400000000.0 
  4723.6186  6177801300000000.0 
  4725.0895  6048364400000000.0 
  4726.5603  6134661900000000.0 
  4728.0311  6204988600000000.0 
   4729.502  6115115400000000.0 
  4730.9728  6066386700000000.0 
  4732.4437  6140096000000000.0 
  4733.9145  6146972600000000.0 
  4735.3854  6087748600000000.0 
  4736.8562  5946114700000000.0 
  4738.3271  5996028100000000.0 
  4739.7979  5998955900000000.0 
  4741.2688  6088803600000000.0 
  4742.7396  6046006800000000.0 
  4744.2104  6084707200000000.0 
  4745.6813  6035401700000000.0 
  4747.1521  6060077600000000.0 
   4748.623  6038961600000000.0 
  4750.0938  5985669400000000.0 
  4751.5647  6029473300000000.0 
  4753.0355  6062348000000000.0 
  4754.5064  6049390800000000.0 
  4755.9772  6085391600000000.0 
  4757.4481  5927952600000000.0 
  4758.9189  5950103800000000.0 
  4760.3897  5984869300000000.0 
  4761.8606  5920147800000000.0 
  4763.3314  5872766400000000.0 
  4764.8023  5942540400000000.0 
  4766.2731  6044648200000000.0 
   4767.744  5995440600000000.0 
  4769.2148  5805238300000000.0 
  4770.6857  5916418700000000.0 
  4772.1565  5938242700000000.0 
  4773.6274  5900316900000000.0 
  4775.0982  5929249400000000.0 
   4776.569  5907244300000000.0 
  4778.0399  5840059000000000.0 
  4779.5107  5915788000000000.0 
  4780.9816  5840970100000000.0 
  4782.4524  5700028800000000.0 
  4783.9233  5768194900000000.0 
  4785.3941  5610089700000000.0 
   4786.865  5671158300000000.0 
  4788.3358  5653223900000000.0 
  4789.8067  5781785300000000.0 
  4791.2775  5596168100000000.0 
  4792.7483  5663277300000000.0 
  4794.2192  5529702200000000.0 
    4795.69  5561182900000000.0 
  4797.1609  5512951000000000.0 
  4798.6317  5495696700000000.0 
  4800.1026  5469957300000000.0 
  4801.5734  5501845700000000.0 
  4803.0443  5559796100000000.0 
  4804.5151  5604876000000000.0 
   4805.986  5463976300000000.0 
  4807.4568  5517468000000000.0 
  4808.9276  5497922900000000.0 
  4810.3985  5539085700000000.0 
  4811.8693  5474542100000000.0 
  4813.3402  5479227900000000.0 
   4814.811  5522159600000000.0 
  4816.2819  5377608800000000.0 
  4817.7527  5503583500000000.0 
  4819.2236  5530787000000000.0 
  4820.6944  5452602200000000.0 
  4822.1653  5389360300000000.0 
  4823.6361  5360824400000000.0 
  4825.1069  5326351600000000.0 
  4826.5778  5288216100000000.0 
  4828.0486  5268268100000000.0 
  4829.5195  5362680000000000.0 
  4830.9903  5361073600000000.0 
  4832.4612  5264850300000000.0 
   4833.932  5249309100000000.0 
  4835.4029  5266496300000000.0 
  4836.8737  5367103000000000.0 
  4838.3446  5327359200000000.0 
  4839.8154  5249349800000000.0 
  4841.2862  5189761500000000.0 
  4842.7571  5226107500000000.0 
  4844.2279  5113148900000000.0 
  4845.6988  5136200500000000.0 
  4847.1696  5174944200000000.0 
  4848.6405  5134550200000000.0 
  4850.1113  5188799700000000.0 
  4851.5822  5226413400000000.0 
   4853.053  5215331200000000.0 
  4854.5239  5212630500000000.0 
  4855.9947  5085162300000000.0 
  4857.4655  5096742700000000.0 
  4858.9364  5117773000000000.0 
  4860.4072  5142986800000000.0 
  4861.8781  5196662600000000.0 
  4863.3489  5123481700000000.0 
  4864.8198  5126113700000000.0 
  4866.2906  5197836800000000.0 
  4867.7615  5176822600000000.0 
  4869.2323  5103274600000000.0 
  4870.7032  5145342700000000.0 
   4872.174  5089318300000000.0 
  4873.6448  5145999900000000.0 
  4875.1157  5111448900000000.0 
  4876.5865  5129614600000000.0 
  4878.0574  5149788400000000.0 
  4879.5282  5129821100000000.0 
  4880.9991  5134466300000000.0 
  4882.4699  5129848600000000.0 
  4883.9408  5042550500000000.0 
  4885.4116  5143934200000000.0 
  4886.8825  5077341500000000.0 
  4888.3533  5120251800000000.0 
  4889.8241  5023042500000000.0 
   4891.295  5127948800000000.0 
  4892.7658  4982137000000000.0 
  4894.2367  5022248500000000.0 
  4895.7075  5085022000000000.0 
  4897.1784  5129258400000000.0 
  4898.6492  4990124700000000.0 
  4900.1201  4991920100000000.0 
  4901.5909  5054703200000000.0 
  4903.0618  4989774300000000.0 
  4904.5326  5006679000000000.0 
  4906.0034  4886560800000000.0 
  4907.4743  4975235600000000.0 
  4908.9451  4910071700000000.0 
   4910.416  4950336400000000.0 
  4911.8868  5026212700000000.0 
  4913.3577  4946399400000000.0 
  4914.8285  4959316100000000.0 
  4916.2994  4989459700000000.0 
  4917.7702  5004892900000000.0 
  4919.2411  4947262300000000.0 
  4920.7119  4920787200000000.0 
  4922.1827  4860425500000000.0 
  4923.6536  4979089000000000.0 
  4925.1244  4921925800000000.0 
  4926.5953  4954670100000000.0 
  4928.0661  4973454400000000.0 
   4929.537  4962782000000000.0 
  4931.0078  4989356000000000.0 
  4932.4787  4932849400000000.0 
  4933.9495  4960875300000000.0 
  4935.4204  4913396200000000.0 
  4936.8912  4895221200000000.0 
   4938.362  4887749300000000.0 
  4939.8329  4989775000000000.0 
  4941.3037  4959941000000000.0 
  4942.7746  4959161300000000.0 
  4944.2454  4902330300000000.0 
  4945.7163  4833253900000000.0 
  4947.1871  4873578500000000.0 
   4948.658  4882174200000000.0 
  4950.1288  4941125500000000.0 
  4951.5997  4887932200000000.0 
  4953.0705  4858135200000000.0 
  4954.5413  4807169600000000.0 
  4956.0122  4877673100000000.0 
   4957.483  4885178600000000.0 
  4958.9539  4864055200000000.0 
  4960.4247  4973786800000000.0 
  4961.8956  4834936100000000.0 
  4963.3664  4844074200000000.0 
  4964.8373  4845708000000000.0 
  4966.3081  4774109700000000.0 
   4967.779  4763505600000000.0 
  4969.2498  4864650700000000.0 
  4970.7206  4813924400000000.0 
  4972.1915  4883011000000000.0 
  4973.6623  4883942600000000.0 
  4975.1332  4776211400000000.0 
   4976.604  4792860300000000.0 
  4978.0749  4848899400000000.0 
  4979.5457  4776417300000000.0 
  4981.0166  4778933700000000.0 
  4982.4874  4780004000000000.0 
  4983.9583  4638579000000000.0 
  4985.4291  4726619400000000.0 
  4986.8999  4753277800000000.0 
  4988.3708  4688776400000000.0 
  4989.8416  4823735200000000.0 
  4991.3125  4651813800000000.0 
  4992.7833  4709490100000000.0 
  4994.2542  4719132500000000.0 
   4995.725  4722573200000000.0 
  4997.1959  4729353700000000.0 
  4998.6667  4677947800000000.0 
  5000.1376  4651093100000000.0 
  5001.6084  4677120600000000.0 
  5003.0792  4598400400000000.0 
  5004.5501  4744589400000000.0 
  5006.0209  4798511000000000.0 
  5007.4918  4790825700000000.0 
  5008.9626  4867803700000000.0 
  5010.4335  4964077400000000.0 
  5011.9043  4856551000000000.0 
  5013.3752  4645571900000000.0 
   5014.846  4607738600000000.0 
  5016.3169  4632851300000000.0 
  5017.7877  4488434300000000.0 
  5019.2585  4546495900000000.0 
  5020.7294  4510003700000000.0 
  5022.2002  4556308400000000.0 
  5023.6711  4555909900000000.0 
  5025.1419  4563419200000000.0 
  5026.6128  4540190500000000.0 
  5028.0836  4521645000000000.0 
  5029.5545  4429732600000000.0 
  5031.0253  4553565600000000.0 
  5032.4962  4478824000000000.0 
   5033.967  4535443900000000.0 
  5035.4378  4393510900000000.0 
  5036.9087  4428511200000000.0 
  5038.3795  4494819600000000.0 
  5039.8504  4409852400000000.0 
  5041.3212  4371761400000000.0 
  5042.7921  4390013300000000.0 
  5044.2629  4445111100000000.0 
  5045.7338  4379164300000000.0 
  5047.2046  4445796400000000.0 
  5048.6755  4346113900000000.0 
  5050.1463  4340700900000000.0 
  5051.6171  4449149200000000.0 
   5053.088  4333617600000000.0 
  5054.5588  4369811900000000.0 
  5056.0297  4394119600000000.0 
  5057.5005  4362877900000000.0 
  5058.9714  4335967500000000.0 
  5060.4422  4339639500000000.0 
  5061.9131  4281656200000000.0 
  5063.3839  4290939300000000.0 
  5064.8548  4296515800000000.0 
  5066.3256  4244254600000000.0 
  5067.7964  4288761900000000.0 
  5069.2673  4272351900000000.0 
  5070.7381  4231001500000000.0 
   5072.209  4347773800000000.0 
  5073.6798  4291113500000000.0 
  5075.1507  4303865000000000.0 
  5076.6215  4270256400000000.0 
  5078.0924  4248976400000000.0 
  5079.5632  4270556600000000.0 
  5081.0341  4245073400000000.0 
  5082.5049  4243593500000000.0 
  5083.9757  4213455600000000.0 
  5085.4466  4185711800000000.0 
  5086.9174  4210684700000000.0 
  5088.3883  4186912200000000.0 
  5089.8591  4190631800000000.0 
    5091.33  4248995200000000.0 
  5092.8008  4157428400000000.0 
  5094.2717  4160276600000000.0 
  5095.7425  4209611600000000.0 
  5097.2134  4179320900000000.0 
  5098.6842  4194396600000000.0 
   5100.155  4223741100000000.0 
  5101.6259  4192551000000000.0 
  5103.0967  4147236600000000.0 
  5104.5676  4169679600000000.0 
  5106.0384  4158200700000000.0 
  5107.5093  4108821900000000.0 
  5108.9801  4088875000000000.0 
   5110.451  4164921700000000.0 
  5111.9218  4134898000000000.0 
  5113.3927  4145035000000000.0 
  5114.8635  4090365100000000.0 
  5116.3343  4045453000000000.0 
  5117.8052  4071424500000000.0 
   5119.276  4035513800000000.0 
  5120.7469  4017801000000000.0 
  5122.2177  4018151900000000.0 
  5123.6886  4057245300000000.0 
  5125.1594  4056258800000000.0 
  5126.6303  3967485000000000.0 
  5128.1011  4001412700000000.0 
   5129.572  4048700200000000.0 
  5131.0428  3988239100000000.0 
  5132.5136  4033063700000000.0 
  5133.9845  3963058100000000.0 
  5135.4553  3957702500000000.0 
  5136.9262  3976462400000000.0 
   5138.397  3993053900000000.0 
  5139.8679  4013302100000000.0 
  5141.3387  4023861400000000.0 
  5142.8096  4025154600000000.0 
  5144.2804  3961142700000000.0 
  5145.7513  3921343500000000.0 
  5147.2221  3962052200000000.0 
  5148.6929  4021224200000000.0 
  5150.1638  3912716600000000.0 
  5151.6346  3872481900000000.0 
  5153.1055  3914306600000000.0 
  5154.5763  3909819800000000.0 
  5156.0472  3965111800000000.0 
   5157.518  3988226200000000.0 
  5158.9889  4011674900000000.0 
  5160.4597  3972926500000000.0 
  5161.9306  4028817000000000.0 
  5163.4014  3990037900000000.0 
  5164.8722  3891337800000000.0 
  5166.3431  3912562900000000.0 
  5167.8139  3925709700000000.0 
  5169.2848  3860313400000000.0 
  5170.7556  3871387900000000.0 
  5172.2265  3904781200000000.0 
  5173.6973  3866094100000000.0 
  5175.1682  3927837900000000.0 
   5176.639  3900686700000000.0 
  5178.1099  3867633500000000.0 
  5179.5807  3886252600000000.0 
  5181.0515  3882263700000000.0 
  5182.5224  3912505400000000.0 
  5183.9932  3889912800000000.0 
  5185.4641  3918623500000000.0 
  5186.9349  3890502100000000.0 
  5188.4058  3898343000000000.0 
  5189.8766  3938917900000000.0 
  5191.3475  3912308400000000.0 
  5192.8183  3882518900000000.0 
  5194.2892  3866227500000000.0 
    5195.76  3915426000000000.0 
  5197.2308  3890749100000000.0 
  5198.7017  3889328400000000.0 
  5200.1725  3936291900000000.0 
  5201.6434  3953110300000000.0 
  5203.1142  3897081900000000.0 
  5204.5851  3861384700000000.0 
  5206.0559  3939060800000000.0 
  5207.5268  3887383900000000.0 
  5208.9976  3863746900000000.0 
  5210.4685  3943941800000000.0 
  5211.9393  3909142200000000.0 
  5213.4101  3864829100000000.0 
   5214.881  3926233800000000.0 
  5216.3518  3933144400000000.0 
  5217.8227  3837767000000000.0 
  5219.2935  3824122000000000.0 
  5220.7644  3929182500000000.0 
  5222.2352  3879927300000000.0 
  5223.7061  3865174600000000.0 
  5225.1769  3933324100000000.0 
  5226.6478  3902094200000000.0 
  5228.1186  3894991100000000.0 
  5229.5894  3888192000000000.0 
  5231.0603  3904861500000000.0 
  5232.5311  3875524000000000.0 
   5234.002  3839969000000000.0 
  5235.4728  3864024500000000.0 
  5236.9437  3849460200000000.0 
  5238.4145  3869727300000000.0 
  5239.8854  3904107300000000.0 
  5241.3562  3868055900000000.0 
  5242.8271  3860746100000000.0 
  5244.2979  3877784700000000.0 
  5245.7687  3901365100000000.0 
  5247.2396  3917225800000000.0 
  5248.7104  3896373700000000.0 
  5250.1813  3851020300000000.0 
  5251.6521  3861455600000000.0 
   5253.123  3881176900000000.0 
  5254.5938  3836775700000000.0 
  5256.0647  3760925300000000.0 
  5257.5355  3799574400000000.0 
  5259.0064  3880857100000000.0 
  5260.4772  3798055400000000.0 
   5261.948  3847634000000000.0 
  5263.4189  3852412900000000.0 
  5264.8897  3736968900000000.0 
  5266.3606  3800682000000000.0 
  5267.8314  3814838100000000.0 
  5269.3023  3840034800000000.0 
  5270.7731  3786830100000000.0 
   5272.244  3825505500000000.0 
  5273.7148  3842212100000000.0 
  5275.1857  3782754800000000.0 
  5276.6565  3744773600000000.0 
  5278.1273  3748329600000000.0 
  5279.5982  3764536800000000.0 
   5281.069  3791834100000000.0 
  5282.5399  3801825700000000.0 
  5284.0107  3753339300000000.0 
  5285.4816  3775698000000000.0 
  5286.9524  3737444600000000.0 
  5288.4233  3794066800000000.0 
  5289.8941  3773491400000000.0 
   5291.365  3757339300000000.0 
  5292.8358  3712755100000000.0 
  5294.3066  3671673900000000.0 
  5295.7775  3778722400000000.0 
  5297.2483  3749783500000000.0 
  5298.7192  3723406800000000.0 
    5300.19  3619588100000000.0 
  5301.6609  3727031500000000.0 
  5303.1317  3705214500000000.0 
  5304.6026  3708178300000000.0 
  5306.0734  3630016900000000.0 
  5307.5443  3645180100000000.0 
  5309.0151  3649665400000000.0 
  5310.4859  3639076700000000.0 
  5311.9568  3630841200000000.0 
  5313.4276  3683092300000000.0 
  5314.8985  3547118100000000.0 
  5316.3693  3566783900000000.0 
  5317.8402  3709219200000000.0 
   5319.311  3603195200000000.0 
  5320.7819  3597204100000000.0 
  5322.2527  3592277400000000.0 
  5323.7236  3584206300000000.0 
  5325.1944  3518042200000000.0 
  5326.6652  3600364200000000.0 
  5328.1361  3520780500000000.0 
  5329.6069  3562859900000000.0 
  5331.0778  3476781500000000.0 
  5332.5486  3477492600000000.0 
  5334.0195  3576498400000000.0 
  5335.4903  3566632900000000.0 
  5336.9612  3588933100000000.0 
   5338.432  3566763800000000.0 
  5339.9029  3597983000000000.0 
  5341.3737  3578134000000000.0 
  5342.8445  3523810700000000.0 
  5344.3154  3498460600000000.0 
  5345.7862  3582984300000000.0 
  5347.2571  3522332800000000.0 
  5348.7279  3527284200000000.0 
  5350.1988  3455081600000000.0 
  5351.6696  3522856300000000.0 
  5353.1405  3482775700000000.0 
  5354.6113  3540691800000000.0 
  5356.0822  3498736700000000.0 
   5357.553  3544191900000000.0 
  5359.0238  3464837900000000.0 
  5360.4947  3504538100000000.0 
  5361.9655  3467567100000000.0 
  5363.4364  3456800600000000.0 
  5364.9072  3490236800000000.0 
  5366.3781  3511422100000000.0 
  5367.8489  3464371600000000.0 
  5369.3198  3396574000000000.0 
  5370.7906  3506055200000000.0 
  5372.2615  3417590400000000.0 
  5373.7323  3436485900000000.0 
  5375.2031  3476549500000000.0 
   5376.674  3423773500000000.0 
  5378.1448  3479190100000000.0 
  5379.6157  3411180400000000.0 
  5381.0865  3441615500000000.0 
  5382.5574  3402032700000000.0 
  5384.0282  3380958500000000.0 
  5385.4991  3415763800000000.0 
  5386.9699  3409877600000000.0 
  5388.4408  3364119200000000.0 
  5389.9116  3414766500000000.0 
  5391.3824  3402150800000000.0 
  5392.8533  3390420800000000.0 
  5394.3241  3428543100000000.0 
   5395.795  3363858100000000.0 
  5397.2658  3344994000000000.0 
  5398.7367  3392684400000000.0 
  5400.2075  3373307200000000.0 
  5401.6784  3326321100000000.0 
  5403.1492  3400763200000000.0 
  5404.6201  3356491200000000.0 
  5406.0909  3445688400000000.0 
  5407.5617  3356529300000000.0 
  5409.0326  3325067900000000.0 
  5410.5034  3328059800000000.0 
  5411.9743  3361435400000000.0 
  5413.4451  3206404700000000.0 
   5414.916  3335902700000000.0 
  5416.3868  3348768400000000.0 
  5417.8577  3408173700000000.0 
  5419.3285  3359078100000000.0 
  5420.7994  3289304000000000.0 
  5422.2702  3261077400000000.0 
   5423.741  3334252600000000.0 
  5425.2119  3293255900000000.0 
  5426.6827  3238651200000000.0 
  5428.1536  3267384500000000.0 
  5429.6244  3222968900000000.0 
  5431.0953  3256556700000000.0 
  5432.5661  3273221200000000.0 
   5434.037  3271800600000000.0 
  5435.5078  3230694400000000.0 
  5436.9787  3305272300000000.0 
  5438.4495  3300340600000000.0 
  5439.9203  3228925700000000.0 
  5441.3912  3268551700000000.0 
   5442.862  3250432800000000.0 
  5444.3329  3281188100000000.0 
  5445.8037  3258380800000000.0 
  5447.2746  3241900700000000.0 
  5448.7454  3162652800000000.0 
  5450.2163  3289480700000000.0 
  5451.6871  3241247600000000.0 
   5453.158  3186023600000000.0 
  5454.6288  3246801500000000.0 
  5456.0996  3244985000000000.0 
  5457.5705  3232950600000000.0 
  5459.0413  3161370600000000.0 
  5460.5122  3205756000000000.0 
   5461.983  3240112300000000.0 
  5463.4539  3312912100000000.0 
  5464.9247  3276892400000000.0 
  5466.3956  3190065000000000.0 
  5467.8664  3230881700000000.0 
  5469.3373  3229778300000000.0 
  5470.8081  3178299700000000.0 
  5472.2789  3284212400000000.0 
  5473.7498  3250586000000000.0 
  5475.2206  3164477000000000.0 
  5476.6915  3163270500000000.0 
  5478.1623  3214019200000000.0 
  5479.6332  3223176900000000.0 
   5481.104  3218837300000000.0 
  5482.5749  3151983800000000.0 
  5484.0457  3214377500000000.0 
  5485.5166  3267354500000000.0 
  5486.9874  3218311700000000.0 
  5488.4582  3199588200000000.0 
  5489.9291  3207036600000000.0 
  5491.3999  3136318400000000.0 
  5492.8708  3145328100000000.0 
  5494.3416  3189288600000000.0 
  5495.8125  3161046800000000.0 
  5497.2833  3205929600000000.0 
  5498.7542  3155781900000000.0 
   5500.225  3185858000000000.0 
  5501.6959  3218714400000000.0 
  5503.1667  3168288700000000.0 
  5504.6375  3170086400000000.0 
  5506.1084  3169792800000000.0 
  5507.5792  3206712800000000.0 
  5509.0501  3161527700000000.0 
  5510.5209  3174953600000000.0 
  5511.9918  3196979800000000.0 
  5513.4626  3185477700000000.0 
  5514.9335  3170368700000000.0 
  5516.4043  3201408800000000.0 
  5517.8752  3179781000000000.0 
   5519.346  3126360600000000.0 
  5520.8168  3116627400000000.0 
  5522.2877  3139218100000000.0 
  5523.7585  3170982800000000.0 
  5525.2294  3181277000000000.0 
  5526.7002  3166246800000000.0 
  5528.1711  3158147400000000.0 
  5529.6419  3161854200000000.0 
  5531.1128  3166567100000000.0 
  5532.5836  3188553100000000.0 
  5534.0545  3155976800000000.0 
  5535.5253  3137440400000000.0 
  5536.9961  3130232200000000.0 
   5538.467  3154221400000000.0 
  5539.9378  3157164400000000.0 
  5541.4087  3124662300000000.0 
  5542.8795  3124330500000000.0 
  5544.3504  3131190300000000.0 
  5545.8212  3129486300000000.0 
  5547.2921  3179278300000000.0 
  5548.7629  3162097900000000.0 
  5550.2338  3110609800000000.0 
  5551.7046  3129431800000000.0 
  5553.1754  3141494700000000.0 
  5554.6463  3117641800000000.0 
  5556.1171  3045340000000000.0 
   5557.588  3048169300000000.0 
  5559.0588  3061533900000000.0 
  5560.5297  3088104300000000.0 
  5562.0005  3068640600000000.0 
  5563.4714  3052435500000000.0 
  5564.9422  3077066100000000.0 
  5566.4131  3066318700000000.0 
  5567.8839  3069921000000000.0 
  5569.3547  3045775200000000.0 
  5570.8256  3055248100000000.0 
  5572.2964  3065186800000000.0 
  5573.7673  2980296700000000.0 
  5575.2381  2999032800000000.0 
   5576.709  3101555600000000.0 
  5578.1798  3094768800000000.0 
  5579.6507  3110992900000000.0 
  5581.1215  3078056700000000.0 
  5582.5924  3036102200000000.0 
  5584.0632  3067934000000000.0 
   5585.534  3046430600000000.0 
  5587.0049  3037147200000000.0 
  5588.4757  3054578100000000.0 
  5589.9466  3007596900000000.0 
  5591.4174  2968116800000000.0 
  5592.8883  3051566800000000.0 
  5594.3591  3018400600000000.0 
    5595.83  2964288600000000.0 
  5597.3008  3017348500000000.0 
  5598.7717  3030308100000000.0 
  5600.2425  2993997200000000.0 
  5601.7133  2930621800000000.0 
  5603.1842  2917574400000000.0 
   5604.655  2938987500000000.0 
  5606.1259  2969061600000000.0 
  5607.5967  2981740100000000.0 
  5609.0676  3003876000000000.0 
  5610.5384  2942714200000000.0 
  5612.0093  2904137600000000.0 
  5613.4801  2973746900000000.0 
   5614.951  2961793100000000.0 
  5616.4218  2968386100000000.0 
  5617.8926  2928768400000000.0 
  5619.3635  2844822800000000.0 
  5620.8343  2896715000000000.0 
  5622.3052  2891823200000000.0 
   5623.776  2956514800000000.0 
  5625.2469  2899897900000000.0 
  5626.7177  2881239400000000.0 
  5628.1886  2878778000000000.0 
  5629.6594  2924616600000000.0 
  5631.1303  2866240300000000.0 
  5632.6011  2823686800000000.0 
  5634.0719  2868321900000000.0 
  5635.5428  2839443900000000.0 
  5637.0136  2925494200000000.0 
  5638.4845  2863761800000000.0 
  5639.9553  2865631200000000.0 
  5641.4262  2869207200000000.0 
   5642.897  2784836200000000.0 
  5644.3679  2844150900000000.0 
  5645.8387  2846128200000000.0 
  5647.3096  2851643000000000.0 
  5648.7804  2803246300000000.0 
  5650.2512  2812657800000000.0 
  5651.7221  2831674700000000.0 
  5653.1929  2827569600000000.0 
  5654.6638  2844841900000000.0 
  5656.1346  2896626700000000.0 
  5657.6055  2832081700000000.0 
  5659.0763  2791719500000000.0 
  5660.5472  2792077000000000.0 
   5662.018  2755935200000000.0 
  5663.4889  2812549100000000.0 
  5664.9597  2765836100000000.0 
  5666.4305  2783596100000000.0 
  5667.9014  2807213700000000.0 
  5669.3722  2772782200000000.0 
  5670.8431  2788430300000000.0 
  5672.3139  2810159900000000.0 
  5673.7848  2755636400000000.0 
  5675.2556  2777931500000000.0 
  5676.7265  2785091000000000.0 
  5678.1973  2757160100000000.0 
  5679.6682  2733828500000000.0 
   5681.139  2717132000000000.0 
  5682.6098  2659763700000000.0 
  5684.0807  2758201400000000.0 
  5685.5515  2767457600000000.0 
  5687.0224  2687676000000000.0 
  5688.4932  2706534200000000.0 
  5689.9641  2691661800000000.0 
  5691.4349  2822834000000000.0 
  5692.9058  2688251000000000.0 
  5694.3766  2711419600000000.0 
  5695.8475  2715152000000000.0 
  5697.3183  2743217800000000.0 
  5698.7891  2725434700000000.0 
    5700.26  2731588100000000.0 
  5701.7308  2701065700000000.0 
  5703.2017  2740550400000000.0 
  5704.6725  2729353100000000.0 
  5706.1434  2716787600000000.0 
  5707.6142  2728490600000000.0 
  5709.0851  2725638600000000.0 
  5710.5559  2693682800000000.0 
  5712.0268  2755264600000000.0 
  5713.4976  2730922000000000.0 
  5714.9684  2764726100000000.0 
  5716.4393  2742939600000000.0 
  5717.9101  2696928700000000.0 
   5719.381  2723413500000000.0 
  5720.8518  2712571800000000.0 
  5722.3227  2746361800000000.0 
  5723.7935  2754072100000000.0 
  5725.2644  2678235700000000.0 
  5726.7352  2711101500000000.0 
  5728.2061  2713647200000000.0 
  5729.6769  2736737800000000.0 
  5731.1477  2765433200000000.0 
  5732.6186  2687695300000000.0 
  5734.0894  2708492000000000.0 
  5735.5603  2730524500000000.0 
  5737.0311  2730854900000000.0 
   5738.502  2705424000000000.0 
  5739.9728  2728058400000000.0 
  5741.4437  2770243400000000.0 
  5742.9145  2739535700000000.0 
  5744.3854  2719405000000000.0 
  5745.8562  2715619900000000.0 
   5747.327  2709132500000000.0 
  5748.7979  2723663500000000.0 
  5750.2687  2731378800000000.0 
  5751.7396  2682334700000000.0 
  5753.2104  2689729300000000.0 
  5754.6813  2736399000000000.0 
  5756.1521  2729378400000000.0 
   5757.623  2733844200000000.0 
  5759.0938  2700205500000000.0 
  5760.5647  2677375800000000.0 
  5762.0355  2736067800000000.0 
  5763.5063  2711344700000000.0 
  5764.9772  2655695800000000.0 
   5766.448  2702002800000000.0 
  5767.9189  2722410800000000.0 
  5769.3897  2700619200000000.0 
  5770.8606  2751843100000000.0 
  5772.3314  2734022300000000.0 
  5773.8023  2695661100000000.0 
  5775.2731  2677695300000000.0 
   5776.744  2695995600000000.0 
  5778.2148  2739672700000000.0 
  5779.6856  2710927800000000.0 
  5781.1565  2677227100000000.0 
  5782.6273  2690709600000000.0 
  5784.0982  2702678600000000.0 
   5785.569  2675581800000000.0 
  5787.0399  2742792400000000.0 
  5788.5107  2714400200000000.0 
  5789.9816  2662375800000000.0 
  5791.4524  2725286700000000.0 
  5792.9233  2710165600000000.0 
  5794.3941  2744395900000000.0 
  5795.8649  2708440300000000.0 
  5797.3358  2693032900000000.0 
  5798.8066  2696395300000000.0 
  5800.2775  2671348800000000.0 
  5801.7483  2663618900000000.0 
  5803.2192  2689841500000000.0 
    5804.69  2691076800000000.0 
  5806.1609  2692775100000000.0 
  5807.6317  2714688800000000.0 
  5809.1026  2654960600000000.0 
  5810.5734  2733157900000000.0 
  5812.0442  2699402000000000.0 
  5813.5151  2675002200000000.0 
  5814.9859  2703924800000000.0 
  5816.4568  2727630200000000.0 
  5817.9276  2674870100000000.0 
  5819.3985  2663257100000000.0 
  5820.8693  2682282800000000.0 
  5822.3402  2657562400000000.0 
   5823.811  2675835200000000.0 
  5825.2819  2747588000000000.0 
  5826.7527  2660714300000000.0 
  5828.2235  2702644900000000.0 
  5829.6944  2651894400000000.0 
  5831.1652  2646821600000000.0 
  5832.6361  2609299800000000.0 
  5834.1069  2632172500000000.0 
  5835.5778  2684076900000000.0 
  5837.0486  2629904500000000.0 
  5838.5195  2604841600000000.0 
  5839.9903  2628673600000000.0 
  5841.4612  2633083700000000.0 
   5842.932  2614830600000000.0 
  5844.4028  2611804500000000.0 
  5845.8737  2619685900000000.0 
  5847.3445  2666329700000000.0 
  5848.8154  2619331200000000.0 
  5850.2862  2630801900000000.0 
  5851.7571  2559508400000000.0 
  5853.2279  2549432000000000.0 
  5854.6988  2540577400000000.0 
  5856.1696  2626620500000000.0 
  5857.6405  2582431400000000.0 
  5859.1113  2562955700000000.0 
  5860.5821  2564365400000000.0 
   5862.053  2564749100000000.0 
  5863.5238  2621005900000000.0 
  5864.9947  2621523000000000.0 
  5866.4655  2566987900000000.0 
  5867.9364  2529363200000000.0 
  5869.4072  2601851100000000.0 
  5870.8781  2559227000000000.0 
  5872.3489  2538035800000000.0 
  5873.8198  2581904900000000.0 
  5875.2906  2586940900000000.0 
  5876.7614  2500181600000000.0 
  5878.2323  2568304300000000.0 
  5879.7031  2534079900000000.0 
   5881.174  2556930300000000.0 
  5882.6448  2522850300000000.0 
  5884.1157  2498274900000000.0 
  5885.5865  2543771500000000.0 
  5887.0574  2539272100000000.0 
  5888.5282  2546643500000000.0 
  5889.9991  2460714700000000.0 
  5891.4699  2440834100000000.0 
  5892.9407  2441803400000000.0 
  5894.4116  2547261300000000.0 
  5895.8824  2493540600000000.0 
  5897.3533  2491565300000000.0 
  5898.8241  2473039600000000.0 
   5900.295  2450652500000000.0 
  5901.7658  2496313900000000.0 
  5903.2367  2524032600000000.0 
  5904.7075  2527653900000000.0 
  5906.1784  2537864200000000.0 
  5907.6492  2513499700000000.0 
    5909.12  2507913800000000.0 
  5910.5909  2535002500000000.0 
  5912.0617  2501740000000000.0 
  5913.5326  2523272900000000.0 
  5915.0034  2506577300000000.0 
  5916.4743  2570979300000000.0 
  5917.9451  2494804600000000.0 
   5919.416  2466878700000000.0 
  5920.8868  2538078100000000.0 
  5922.3577  2526570100000000.0 
  5923.8285  2497937000000000.0 
  5925.2993  2452020000000000.0 
  5926.7702  2532374100000000.0 
   5928.241  2532293200000000.0 
  5929.7119  2528410600000000.0 
  5931.1827  2497426000000000.0 
  5932.6536  2484270400000000.0 
  5934.1244  2465612100000000.0 
  5935.5953  2534975600000000.0 
  5937.0661  2492168000000000.0 
   5938.537  2501321200000000.0 
  5940.0078  2523725900000000.0 
  5941.4786  2527510600000000.0 
  5942.9495  2494905700000000.0 
  5944.4203  2469933500000000.0 
  5945.8912  2568578000000000.0 
   5947.362  2517328000000000.0 
  5948.8329  2505339500000000.0 
  5950.3037  2554050700000000.0 
  5951.7746  2537312100000000.0 
  5953.2454  2526140200000000.0 
  5954.7163  2496046500000000.0 
  5956.1871  2561637800000000.0 
  5957.6579  2544085900000000.0 
  5959.1288  2482037200000000.0 
  5960.5996  2568126200000000.0 
  5962.0705  2528508600000000.0 
  5963.5413  2551806800000000.0 
  5965.0122  2509151600000000.0 
   5966.483  2536556500000000.0 
  5967.9539  2517853700000000.0 
  5969.4247  2484744800000000.0 
  5970.8956  2523874300000000.0 
  5972.3664  2532996100000000.0 
  5973.8372  2537159200000000.0 
  5975.3081  2537481100000000.0 
  5976.7789  2532644300000000.0 
  5978.2498  2488756300000000.0 
  5979.7206  2474856000000000.0 
  5981.1915  2507688700000000.0 
  5982.6623  2479921600000000.0 
  5984.1332  2474286700000000.0 
   5985.604  2477869800000000.0 
  5987.0749  2526092700000000.0 
  5988.5457  2540180800000000.0 
  5990.0165  2489497700000000.0 
  5991.4874  2443386500000000.0 
  5992.9582  2495726600000000.0 
  5994.4291  2531443900000000.0 
  5995.8999  2442523700000000.0 
  5997.3708  2479964900000000.0 
  5998.8416  2498977000000000.0 
  6000.3125  2461614500000000.0 
  6001.7833  2464959100000000.0 
  6003.2542  2483507300000000.0 
   6004.725  2477784900000000.0 
  6006.1958  2465756800000000.0 
  6007.6667  2449176400000000.0 
  6009.1375  2460633100000000.0 
  6010.6084  2421727000000000.0 
  6012.0792  2437965600000000.0 
  6013.5501  2436658900000000.0 
  6015.0209  2457815800000000.0 
  6016.4918  2435107700000000.0 
  6017.9626  2488946700000000.0 
  6019.4335  2431138600000000.0 
  6020.9043  2411611900000000.0 
  6022.3751  2422253800000000.0 
   6023.846  2393972100000000.0 
  6025.3168  2401852200000000.0 
  6026.7877  2432501600000000.0 
  6028.2585  2383340300000000.0 
  6029.7294  2435473600000000.0 
  6031.2002  2465527300000000.0 
  6032.6711  2411055300000000.0 
  6034.1419  2408161200000000.0 
  6035.6128  2399876700000000.0 
  6037.0836  2406213500000000.0 
  6038.5544  2351089900000000.0 
  6040.0253  2426197900000000.0 
  6041.4961  2464212600000000.0 
   6042.967  2414884800000000.0 
  6044.4378  2425883200000000.0 
  6045.9087  2375464400000000.0 
  6047.3795  2372120400000000.0 
  6048.8504  2383176300000000.0 
  6050.3212  2377686200000000.0 
  6051.7921  2380675800000000.0 
  6053.2629  2404040500000000.0 
  6054.7337  2420806600000000.0 
  6056.2046  2445411800000000.0 
  6057.6754  2365355200000000.0 
  6059.1463  2405549200000000.0 
  6060.6171  2409621300000000.0 
   6062.088  2416826200000000.0 
  6063.5588  2370034800000000.0 
  6065.0297  2370094200000000.0 
  6066.5005  2368762700000000.0 
  6067.9714  2351623000000000.0 
  6069.4422  2343306800000000.0 
   6070.913  2314129100000000.0 
  6072.3839  2288311700000000.0 
  6073.8547  2300126200000000.0 
  6075.3256  2277336700000000.0 
  6076.7964  2334503500000000.0 
  6078.2673  2281494600000000.0 
  6079.7381  2325616500000000.0 
   6081.209  2338068600000000.0 
  6082.6798  2443217200000000.0 
  6084.1507  2586091200000000.0 
  6085.6215  2358443500000000.0 
  6087.0923  2315010300000000.0 
  6088.5632  2310905000000000.0 
   6090.034  2364815900000000.0 
  6091.5049  2323722800000000.0 
  6092.9757  2348878000000000.0 
  6094.4466  2298805500000000.0 
  6095.9174  2307132500000000.0 
  6097.3883  2254851100000000.0 
  6098.8591  2366011900000000.0 
    6100.33  2307327700000000.0 
  6101.8008  2348286600000000.0 
  6103.2716  2290364400000000.0 
  6104.7425  2310333900000000.0 
  6106.2133  2280526600000000.0 
  6107.6842  2272964200000000.0 
   6109.155  2329847300000000.0 
  6110.6259  2261329300000000.0 
  6112.0967  2291186200000000.0 
  6113.5676  2292994800000000.0 
  6115.0384  2286610300000000.0 
  6116.5093  2319306000000000.0 
  6117.9801  2268076200000000.0 
  6119.4509  2245858000000000.0 
  6120.9218  2271313700000000.0 
  6122.3926  2227812400000000.0 
  6123.8635  2275041600000000.0 
  6125.3343  2259607200000000.0 
  6126.8052  2233901100000000.0 
   6128.276  2210779700000000.0 
  6129.7469  2248032400000000.0 
  6131.2177  2261127500000000.0 
  6132.6886  2201629200000000.0 
  6134.1594  2227686900000000.0 
  6135.6302  2237216300000000.0 
  6137.1011  2248691400000000.0 
  6138.5719  2229251300000000.0 
  6140.0428  2238864300000000.0 
  6141.5136  2247932300000000.0 
  6142.9845  2208436000000000.0 
  6144.4553  2258858400000000.0 
  6145.9262  2246678100000000.0 
   6147.397  2215973000000000.0 
  6148.8679  2211060400000000.0 
  6150.3387  2166178700000000.0 
  6151.8095  2216648700000000.0 
  6153.2804  2252091400000000.0 
  6154.7512  2210571400000000.0 
  6156.2221  2188538000000000.0 
  6157.6929  2179436700000000.0 
  6159.1638  2197199600000000.0 
  6160.6346  2214041700000000.0 
  6162.1055  2179448700000000.0 
  6163.5763  2178580600000000.0 
  6165.0472  2207224800000000.0 
   6166.518  2181844100000000.0 
  6167.9888  2182200600000000.0 
  6169.4597  2208134900000000.0 
  6170.9305  2185866200000000.0 
  6172.4014  2190286900000000.0 
  6173.8722  2191379600000000.0 
  6175.3431  2215867400000000.0 
  6176.8139  2175931500000000.0 
  6178.2848  2115520000000000.0 
  6179.7556  2160541100000000.0 
  6181.2265  2204486700000000.0 
  6182.6973  2176441100000000.0 
  6184.1681  2143808700000000.0 
   6185.639  2152325800000000.0 
  6187.1098  2158773800000000.0 
  6188.5807  2154221500000000.0 
  6190.0515  2153504800000000.0 
  6191.5224  2164314700000000.0 
  6192.9932  2157246600000000.0 
  6194.4641  2085132000000000.0 
  6195.9349  2098884400000000.0 
  6197.4058  2130228000000000.0 
  6198.8766  2082455900000000.0 
  6200.3474  2089158700000000.0 
  6201.8183  2132148800000000.0 
  6203.2891  2100575300000000.0 
    6204.76  2095934900000000.0 
  6206.2308  2098320700000000.0 
  6207.7017  2134710000000000.0 
  6209.1725  2135162500000000.0 
  6210.6434  2088326400000000.0 
  6212.1142  2113261500000000.0 
  6213.5851  2116031900000000.0 
  6215.0559  2056786300000000.0 
  6216.5267  2053693500000000.0 
  6217.9976  2055867200000000.0 
  6219.4684  2027495900000000.0 
  6220.9393  2073139300000000.0 
  6222.4101  2095188200000000.0 
   6223.881  2069669500000000.0 
  6225.3518  2067262900000000.0 
  6226.8227  2061920100000000.0 
  6228.2935  2055418100000000.0 
  6229.7644  2026179300000000.0 
  6231.2352  2030201400000000.0 
   6232.706  2084931300000000.0 
  6234.1769  2096314400000000.0 
  6235.6477  2050969200000000.0 
  6237.1186  2066614900000000.0 
  6238.5894  2025998800000000.0 
  6240.0603  2059680800000000.0 
  6241.5311  2050793000000000.0 
   6243.002  2019092200000000.0 
  6244.4728  2024630500000000.0 
  6245.9437  2050881000000000.0 
  6247.4145  2069338200000000.0 
  6248.8853  2014431800000000.0 
  6250.3562  2052703400000000.0 
   6251.827  2057590400000000.0 
  6253.2979  2064398300000000.0 
  6254.7687  2008492700000000.0 
  6256.2396  2071321000000000.0 
  6257.7104  2071491000000000.0 
  6259.1813  2030554400000000.0 
  6260.6521  2001140600000000.0 
   6262.123  2031246400000000.0 
  6263.5938  1993243200000000.0 
  6265.0646  2012162400000000.0 
  6266.5355  1988541100000000.0 
  6268.0063  1959596600000000.0 
  6269.4772  1982202600000000.0 
   6270.948  1951125500000000.0 
  6272.4189  2018864700000000.0 
  6273.8897  1934881600000000.0 
  6275.3606  1854530200000000.0 
  6276.8314  1861427300000000.0 
  6278.3023  1834234600000000.0 
  6279.7731  1863660100000000.0 
  6281.2439  1898624200000000.0 
  6282.7148  1902548900000000.0 
  6284.1856  1948535200000000.0 
  6285.6565  1932810200000000.0 
  6287.1273  1954484100000000.0 
  6288.5982  1954168400000000.0 
   6290.069  1898078900000000.0 
  6291.5399  1915606000000000.0 
  6293.0107  1895523200000000.0 
  6294.4816  1884648700000000.0 
  6295.9524  1874801500000000.0 
  6297.4232  1864200900000000.0 
  6298.8941  1981160700000000.0 
  6300.3649  1792323000000000.0 
  6301.8358  1859699600000000.0 
  6303.3066  1907352600000000.0 
  6304.7775  1862132400000000.0 
  6306.2483  1877425300000000.0 
  6307.7192  1863016800000000.0 
    6309.19  1919785400000000.0 
  6310.6609  1892246600000000.0 
  6312.1317  1909402800000000.0 
  6313.6025  1920858000000000.0 
  6315.0734  1920475300000000.0 
  6316.5442  1881486800000000.0 
  6318.0151  1886246900000000.0 
  6319.4859  1890107100000000.0 
  6320.9568  1878417300000000.0 
  6322.4276  1887079900000000.0 
  6323.8985  1886173200000000.0 
  6325.3693  1887771200000000.0 
  6326.8402  1862712700000000.0 
   6328.311  1976044200000000.0 
  6329.7818  1904867000000000.0 
  6331.2527  1855551300000000.0 
  6332.7235  1848716400000000.0 
  6334.1944  1906734800000000.0 
  6335.6652  1913441200000000.0 
  6337.1361  1914875700000000.0 
  6338.6069  1852042800000000.0 
  6340.0778  1895679500000000.0 
  6341.5486  1856098000000000.0 
  6343.0195  1881689700000000.0 
  6344.4903  1943260900000000.0 
  6345.9611  1919635200000000.0 
   6347.432  1863780200000000.0 
  6348.9028  1847132900000000.0 
  6350.3737  1885466500000000.0 
  6351.8445  1853027400000000.0 
  6353.3154  1894557400000000.0 
  6354.7862  1903446600000000.0 
  6356.2571  1899204100000000.0 
  6357.7279  1859342000000000.0 
  6359.1988  1847965000000000.0 
  6360.6696  1868290300000000.0 
  6362.1404  1826894000000000.0 
  6363.6113  1877207700000000.0 
  6365.0821  1864286000000000.0 
   6366.553  1864422600000000.0 
  6368.0238  1828910200000000.0 
  6369.4947  1801753600000000.0 
  6370.9655  1818282100000000.0 
  6372.4364  1826014200000000.0 
  6373.9072  1804339500000000.0 
  6375.3781  1810270700000000.0 
  6376.8489  1845986800000000.0 
  6378.3197  1860268900000000.0 
  6379.7906  1850505200000000.0 
  6381.2614  1812011600000000.0 
  6382.7323  1809787500000000.0 
  6384.2031  1838875000000000.0 
   6385.674  1854920000000000.0 
  6387.1448  1833174400000000.0 
  6388.6157  1866433000000000.0 
  6390.0865  1854268500000000.0 
  6391.5574  1853411900000000.0 
  6393.0282  1852819300000000.0 
   6394.499  1785505200000000.0 
  6395.9699  1796532800000000.0 
  6397.4407  1790582200000000.0 
  6398.9116  1793815200000000.0 
  6400.3824  1798716100000000.0 
  6401.8533  1819509100000000.0 
  6403.3241  1769339300000000.0 
   6404.795  1757810800000000.0 
  6406.2658  1781735500000000.0 
  6407.7367  1833230300000000.0 
  6409.2075  1778594200000000.0 
  6410.6783  1772984300000000.0 
  6412.1492  1773549000000000.0 
    6413.62  1817840000000000.0 
  6415.0909  1846849900000000.0 
  6416.5617  1827291900000000.0 
  6418.0326  1824920100000000.0 
  6419.5034  1770352400000000.0 
  6420.9743  1846934500000000.0 
  6422.4451  1791075900000000.0 
   6423.916  1799597400000000.0 
  6425.3868  1802089400000000.0 
  6426.8576  1792214200000000.0 
  6428.3285  1805564400000000.0 
  6429.7993  1814746900000000.0 
  6431.2702  1786408900000000.0 
   6432.741  1746757400000000.0 
  6434.2119  1803395300000000.0 
  6435.6827  1807924900000000.0 
  6437.1536  1783353700000000.0 
  6438.6244  1756879300000000.0 
  6440.0953  1726570200000000.0 
  6441.5661  1769895200000000.0 
  6443.0369  1751569600000000.0 
  6444.5078  1745789400000000.0 
  6445.9786  1736375300000000.0 
  6447.4495  1728762300000000.0 
  6448.9203  1746023800000000.0 
  6450.3912  1791514300000000.0 
   6451.862  1773772200000000.0 
  6453.3329  1791832500000000.0 
  6454.8037  1759764200000000.0 
  6456.2746  1752067100000000.0 
  6457.7454  1726511800000000.0 
  6459.2162  1760243000000000.0 
  6460.6871  1775720800000000.0 
  6462.1579  1740778600000000.0 
  6463.6288  1757652300000000.0 
  6465.0996  1746001500000000.0 
  6466.5705  1737000500000000.0 
  6468.0413  1693962400000000.0 
  6469.5122  1675552800000000.0 
   6470.983  1722437500000000.0 
  6472.4539  1720884700000000.0 
  6473.9247  1714086200000000.0 
  6475.3955  1690365800000000.0 
  6476.8664  1717007300000000.0 
  6478.3372  1728901700000000.0 
  6479.8081  1685372400000000.0 
  6481.2789  1710306200000000.0 
  6482.7498  1699143500000000.0 
  6484.2206  1746918700000000.0 
  6485.6915  1712631000000000.0 
  6487.1623  1710526000000000.0 
  6488.6332  1733406300000000.0 
   6490.104  1787171100000000.0 
  6491.5748  1794555100000000.0 
  6493.0457  1757306100000000.0 
  6494.5165  1786008200000000.0 
  6495.9874  1722215700000000.0 
  6497.4582  1723169300000000.0 
  6498.9291  1703726400000000.0 
  6500.3999  1695308400000000.0 
  6501.8708  1709308300000000.0 
  6503.3416  1730343200000000.0 
  6504.8125  1724914100000000.0 
  6506.2833  1646464600000000.0 
  6507.7541  1684287500000000.0 
   6509.225  1721394700000000.0 
  6510.6958  1769840200000000.0 
  6512.1667  1725586500000000.0 
  6513.6375  1670480100000000.0 
  6515.1084  1689902700000000.0 
  6516.5792  1689516600000000.0 
  6518.0501  1722968700000000.0 
  6519.5209  1680809100000000.0 
  6520.9918  1724137300000000.0 
  6522.4626  1716195200000000.0 
  6523.9334  1727276100000000.0 
  6525.4043  1713057000000000.0 
  6526.8751  1667483600000000.0 
   6528.346  1712612200000000.0 
  6529.8168  1685923400000000.0 
  6531.2877  1651683600000000.0 
  6532.7585  1674390700000000.0 
  6534.2294  1674660700000000.0 
  6535.7002  1672767200000000.0 
  6537.1711  1694688900000000.0 
  6538.6419  1630619500000000.0 
  6540.1127  1676501700000000.0 
  6541.5836  1662102000000000.0 
  6543.0544  1655068300000000.0 
  6544.5253  1640760100000000.0 
  6545.9961  1608394600000000.0 
   6547.467  1700915800000000.0 
  6548.9378  1679212600000000.0 
  6550.4087  1601209200000000.0 
  6551.8795  1620686800000000.0 
  6553.3504  1663143100000000.0 
  6554.8212  1746717900000000.0 
   6556.292  1706031200000000.0 
  6557.7629  1665451600000000.0 
  6559.2337  1695675200000000.0 
  6560.7046  1663070300000000.0 
  6562.1754  1709767900000000.0 
  6563.6463  1683592000000000.0 
  6565.1171  1650653700000000.0 
   6566.588  1697205200000000.0 
  6568.0588  1730604600000000.0 
  6569.5297  1700113400000000.0 
  6571.0005  1641745700000000.0 
  6572.4713  1662567700000000.0 
  6573.9422  1689677900000000.0 
   6575.413  1692969700000000.0 
  6576.8839  1667518000000000.0 
  6578.3547  1683336600000000.0 
  6579.8256  1699989700000000.0 
  6581.2964  1707483200000000.0 
  6582.7673  1685414000000000.0 
  6584.2381  1690902300000000.0 
   6585.709  1691980200000000.0 
  6587.1798  1691646400000000.0 
  6588.6506  1691402700000000.0 
  6590.1215  1696622500000000.0 
  6591.5923  1721839300000000.0 
  6593.0632  1708281200000000.0 
   6594.534  1720064000000000.0 
  6596.0049  1717622800000000.0 
  6597.4757  1743734200000000.0 
  6598.9466  1734364400000000.0 
  6600.4174  1717901400000000.0 
  6601.8883  1707116500000000.0 
  6603.3591  1717644800000000.0 
  6604.8299  1709153800000000.0 
  6606.3008  1681688800000000.0 
  6607.7716  1685861800000000.0 
  6609.2425  1671194800000000.0 
  6610.7133  1708698900000000.0 
  6612.1842  1683700700000000.0 
   6613.655  1675108400000000.0 
  6615.1259  1733283400000000.0 
  6616.5967  1711559800000000.0 
  6618.0676  1739290700000000.0 
  6619.5384  1711907200000000.0 
  6621.0092  1661789700000000.0 
  6622.4801  1720558600000000.0 
  6623.9509  1729436900000000.0 
  6625.4218  1740199600000000.0 
  6626.8926  1705054000000000.0 
  6628.3635  1707686200000000.0 
  6629.8343  1737514900000000.0 
  6631.3052  1724414300000000.0 
   6632.776  1715589300000000.0 
  6634.2469  1690357200000000.0 
  6635.7177  1741730500000000.0 
  6637.1885  1746260600000000.0 
  6638.6594  1727480500000000.0 
  6640.1302  1745147300000000.0 
  6641.6011  1725085400000000.0 
  6643.0719  1735749700000000.0 
  6644.5428  1734672000000000.0 
  6646.0136  1784396700000000.0 
  6647.4845  1730424300000000.0 
  6648.9553  1727393200000000.0 
  6650.4262  1761880600000000.0 
   6651.897  1732184000000000.0 
  6653.3679  1738576900000000.0 
  6654.8387  1775027200000000.0 
  6656.3095  1777600800000000.0 
  6657.7804  1808383200000000.0 
  6659.2512  1791336600000000.0 
  6660.7221  1751316900000000.0 
  6662.1929  1802285000000000.0 
  6663.6638  1822281000000000.0 
  6665.1346  1792923600000000.0 
  6666.6055  1812199900000000.0 
  6668.0763  1827040900000000.0 
  6669.5472  1789206900000000.0 
   6671.018  1716500200000000.0 
  6672.4888  1774818700000000.0 
  6673.9597  1755828900000000.0 
  6675.4305  1805080400000000.0 
  6676.9014  1810170700000000.0 
  6678.3722  1704652900000000.0 
  6679.8431  1727325000000000.0 
  6681.3139  1741310300000000.0 
  6682.7848  1716796500000000.0 
  6684.2556  1748943600000000.0 
  6685.7265  1779834300000000.0 
  6687.1973  1698637100000000.0 
  6688.6681  1702398200000000.0 
   6690.139  1731471900000000.0 
  6691.6098  1731074100000000.0 
  6693.0807  1683589200000000.0 
  6694.5515  1740691200000000.0 
  6696.0224  1729118600000000.0 
  6697.4932  1707328400000000.0 
  6698.9641  1704029600000000.0 
  6700.4349  1761501100000000.0 
  6701.9058  1790977600000000.0 
  6703.3766  1769527800000000.0 
  6704.8474  1813811600000000.0 
  6706.3183  1740874400000000.0 
  6707.7891  1719373000000000.0 
    6709.26  1790002600000000.0 
  6710.7308  1707122100000000.0 
  6712.2017  1723565300000000.0 
  6713.6725  1704260600000000.0 
  6715.1434  1735642100000000.0 
  6716.6142  1728130100000000.0 
  6718.0851  1764918100000000.0 
  6719.5559  1707275500000000.0 
  6721.0267  1734580100000000.0 
  6722.4976  1681388400000000.0 
  6723.9684  1713764300000000.0 
  6725.4393  1688995700000000.0 
  6726.9101  1721233900000000.0 
   6728.381  1721767200000000.0 
  6729.8518  1747726100000000.0 
  6731.3227  1741333500000000.0 
  6732.7935  1765105800000000.0 
  6734.2644  1793833200000000.0 
  6735.7352  1790576700000000.0 
   6737.206  1723459600000000.0 
  6738.6769  1733339600000000.0 
  6740.1477  1733471000000000.0 
  6741.6186  1732217700000000.0 
  6743.0894  1771898000000000.0 
  6744.5603  1852169600000000.0 
  6746.0311  1868427900000000.0 
   6747.502  1865301500000000.0 
  6748.9728  1859132600000000.0 
  6750.4437  1854484300000000.0 
  6751.9145  1772471900000000.0 
  6753.3853  1749587100000000.0 
  6754.8562  1734373500000000.0 
   6756.327  1727657800000000.0 
  6757.7979  1818153100000000.0 
  6759.2687  2014440400000000.0 
  6760.7396  2451273600000000.0 
  6762.2104  2790815100000000.0 
  6763.6813  2855679700000000.0 
  6765.1521  2511806300000000.0 
   6766.623  2079923700000000.0 
  6768.0938  1853395700000000.0 
  6769.5646  1748590000000000.0 
  6771.0355  1755097600000000.0 
  6772.5063  1743365700000000.0 
  6773.9772  1752993200000000.0 
   6775.448  1753494600000000.0 
  6776.9189  1789808100000000.0 
  6778.3897  1779597700000000.0 
  6779.8606  1819821300000000.0 
  6781.3314  2022919600000000.0 
  6782.8023  2181638300000000.0 
  6784.2731  2204330000000000.0 
  6785.7439  2136697700000000.0 
  6787.2148  1977993300000000.0 
  6788.6856  1863182800000000.0 
  6790.1565  1826352800000000.0 
  6791.6273  1756820900000000.0 
  6793.0982  1727230900000000.0 
   6794.569  1741866000000000.0 
  6796.0399  1711814100000000.0 
  6797.5107  1730748900000000.0 
  6798.9816  1755593700000000.0 
  6800.4524  1743019600000000.0 
  6801.9232  1738042000000000.0 
  6803.3941  1759530200000000.0 
  6804.8649  1723698000000000.0 
  6806.3358  1722976400000000.0 
  6807.8066  1744692500000000.0 
  6809.2775  1743950700000000.0 
  6810.7483  1731186800000000.0 
  6812.2192  1744154100000000.0 
    6813.69  1797663100000000.0 
  6815.1609  1775545400000000.0 
  6816.6317  1738554600000000.0 
  6818.1025  1746464400000000.0 
  6819.5734  1776126100000000.0 
  6821.0442  1743317400000000.0 
  6822.5151  1748608300000000.0 
  6823.9859  1813308500000000.0 
  6825.4568  1791642600000000.0 
  6826.9276  1716586200000000.0 
  6828.3985  1745247900000000.0 
  6829.8693  1783145500000000.0 
  6831.3402  1739185700000000.0 
   6832.811  1735248500000000.0 
  6834.2818  1660261700000000.0 
  6835.7527  1657382500000000.0 
  6837.2235  1694139100000000.0 
  6838.6944  1710146700000000.0 
  6840.1652  1730165400000000.0 
  6841.6361  1697343400000000.0 
  6843.1069  1663192100000000.0 
  6844.5778  1695614800000000.0 
  6846.0486  1730999700000000.0 
  6847.5195  1696004900000000.0 
  6848.9903  1660047200000000.0 
  6850.4611  1695656800000000.0 
   6851.932  1696904800000000.0 
  6853.4028  1712188700000000.0 
  6854.8737  1691472400000000.0 
  6856.3445  1697259300000000.0 
  6857.8154  1697911000000000.0 
  6859.2862  1673950000000000.0 
  6860.7571  1690187600000000.0 
  6862.2279  1651455400000000.0 
  6863.6988  1652559400000000.0 
  6881.3489  1595169200000000.0 
  6882.8197  1574441700000000.0 
  6884.2906  1487863400000000.0 
  6885.7614  1473803900000000.0 
  6887.2323  1450961900000000.0 
  6888.7031  1405252000000000.0 
   6890.174  1400513100000000.0 
  6891.6448  1405174400000000.0 
  6893.1157  1440436100000000.0 
  6894.5865  1421388800000000.0 
  6896.0574  1432967300000000.0 
  6897.5282  1463650400000000.0 
   6898.999  1492050000000000.0 
  6900.4699  1513270100000000.0 
  6901.9407  1454020300000000.0 
  6903.4116  1427216500000000.0 
  6904.8824  1496815300000000.0 
  6906.3533  1531685700000000.0 
  6907.8241  1581478900000000.0 
   6909.295  1553659100000000.0 
  6910.7658  1575201600000000.0 
  6912.2367  1603571400000000.0 
  6913.7075  1571743100000000.0 
  6915.1783  1573989900000000.0 
  6916.6492  1588293700000000.0 
    6918.12  1614333700000000.0 
  6919.5909  1687538600000000.0 
  6921.0617  1763631100000000.0 
  6922.5326  1674365100000000.0 
  6924.0034  1633039300000000.0 
  6925.4743  1592440200000000.0 
  6926.9451  1562574400000000.0 
   6928.416  1514659200000000.0 
  6929.8868  1602685800000000.0 
  6931.3576  1579903000000000.0 
  6932.8285  1628642200000000.0 
  6934.2993  1640008600000000.0 
  6935.7702  1789792800000000.0 
   6937.241  1716306800000000.0 
  6938.7119  1686358400000000.0 
  6940.1827  1554841700000000.0 
  6941.6536  1606150100000000.0 
  6943.1244  1558214100000000.0 
  6944.5953  1588146700000000.0 
  6946.0661  1609155800000000.0 
  6947.5369  1576635500000000.0 
  6949.0078  1573289400000000.0 
  6950.4786  1605052200000000.0 
  6951.9495  1603343800000000.0 
  6953.4203  1530033800000000.0 
  6954.8912  1540070700000000.0 
   6956.362  1566547400000000.0 
  6957.8329  1520594700000000.0 
  6959.3037  1567248100000000.0 
  6960.7746  1542216900000000.0 
  6962.2454  1565121700000000.0 
  6963.7162  1573921600000000.0 
  6965.1871  1572512800000000.0 
  6966.6579  1571365400000000.0 
  6968.1288  1565787100000000.0 
  6969.5996  1581906700000000.0 
  6971.0705  1566657000000000.0 
  6972.5413  1594450000000000.0 
  6974.0122  1566266100000000.0 
   6975.483  1577223300000000.0 
  6976.9539  1549715700000000.0 
  6978.4247  1616109100000000.0 
  6979.8955  1553644200000000.0 
  6981.3664  1565781800000000.0 
  6982.8372  1605971100000000.0 
  6984.3081  1615462000000000.0 
  6985.7789  1540415900000000.0 
  6987.2498  1521589400000000.0 
  6988.7206  1589005800000000.0 
  6990.1915  1504496000000000.0 
  6991.6623  1553814600000000.0 
  6993.1332  1502123200000000.0 
   6994.604  1505949900000000.0 
  6996.0748  1511440700000000.0 
  6997.5457  1539494200000000.0 
  6999.0165  1542792900000000.0 
  7000.4874  1544482300000000.0 
  7001.9582  1501555600000000.0 
  7003.4291  1543714000000000.0 
  7004.8999  1556492500000000.0 
  7006.3708  1479536300000000.0 
  7007.8416  1501336500000000.0 
  7009.3125  1538684300000000.0 
  7010.7833  1544742900000000.0 
  7012.2541  1535630100000000.0 
   7013.725  1565057000000000.0 
  7015.1958  1525950100000000.0 
  7016.6667  1528402900000000.0 
  7018.1375  1495686000000000.0 
  7019.6084  1462797000000000.0 
  7021.0792  1506768100000000.0 
  7022.5501  1540046900000000.0 
  7024.0209  1510223100000000.0 
  7025.4918  1458672500000000.0 
  7026.9626  1441961100000000.0 
  7028.4334  1471615200000000.0 
  7029.9043  1503278100000000.0 
  7031.3751  1496054000000000.0 
   7032.846  1529659700000000.0 
  7034.3168  1490701600000000.0 
  7035.7877  1489278400000000.0 
  7037.2585  1465057500000000.0 
  7038.7294  1513151100000000.0 
  7040.2002  1502215600000000.0 
  7041.6711  1509134500000000.0 
  7043.1419  1548242000000000.0 
  7044.6127  1519904600000000.0 
  7046.0836  1535693000000000.0 
  7047.5544  1505023300000000.0 
  7049.0253  1497084800000000.0 
  7050.4961  1519331400000000.0 
   7051.967  1454410900000000.0 
  7053.4378  1504936400000000.0 
  7054.9087  1456390800000000.0 
  7056.3795  1484740500000000.0 
  7057.8504  1492354100000000.0 
  7059.3212  1478421600000000.0 
   7060.792  1501937800000000.0 
  7062.2629  1474686300000000.0 
  7063.7337  1491672800000000.0 
  7065.2046  1468572800000000.0 
  7066.6754  1478158800000000.0 
  7068.1463  1524125200000000.0 
  7069.6171  1498377200000000.0 
   7071.088  1465586200000000.0 
  7072.5588  1498994100000000.0 
  7074.0297  1486438300000000.0 
  7075.5005  1519466800000000.0 
  7076.9713  1490279800000000.0 
  7078.4422  1482439300000000.0 
   7079.913  1487982900000000.0 
  7081.3839  1470206500000000.0 
  7082.8547  1465549500000000.0 
  7084.3256  1499135300000000.0 
  7085.7964  1482623800000000.0 
  7087.2673  1481458300000000.0 
  7088.7381  1468897400000000.0 
   7090.209  1462118900000000.0 
  7091.6798  1471090200000000.0 
  7093.1506  1473160100000000.0 
  7094.6215  1506069100000000.0 
  7096.0923  1481381800000000.0 
  7097.5632  1436913200000000.0 
   7099.034  1435579300000000.0 
  7100.5049  1485484100000000.0 
  7101.9757  1521843800000000.0 
  7103.4466  1517876600000000.0 
  7104.9174  1499767200000000.0 
  7106.3883  1501740400000000.0 
  7107.8591  1473343300000000.0 
  7109.3299  1485304600000000.0 
  7110.8008  1500803300000000.0 
  7112.2716  1535361800000000.0 
  7113.7425  1519650300000000.0 
  7115.2133  1456797900000000.0 
  7116.6842  1429929600000000.0 
   7118.155  1479413800000000.0 
  7119.6259  1450719800000000.0 
  7121.0967  1472659000000000.0 
  7122.5676  1464076300000000.0 
  7124.0384  1439293500000000.0 
  7125.5092  1455959800000000.0 
  7126.9801  1464200900000000.0 
  7128.4509  1445301700000000.0 
  7129.9218  1414200000000000.0 
  7131.3926  1455686900000000.0 
  7132.8635  1470265600000000.0 
  7134.3343  1471908200000000.0 
  7135.8052  1464737200000000.0 
   7137.276  1469279100000000.0 
  7138.7469  1499166100000000.0 
  7140.2177  1506846000000000.0 
  7141.6885  1494416900000000.0 
  7143.1594  1514888600000000.0 
  7144.6302  1505344500000000.0 
  7146.1011  1523591200000000.0 
  7147.5719  1468499500000000.0 
  7149.0428  1427291600000000.0 
  7150.5136  1461538000000000.0 
  7151.9845  1478603400000000.0 
  7153.4553  1405566600000000.0 
  7154.9262  1407652200000000.0 
   7156.397  1441163300000000.0 
  7157.8678  1431276700000000.0 
  7159.3387  1470336700000000.0 
  7160.8095  1472390100000000.0 
  7162.2804  1457908300000000.0 
  7163.7512  1428505100000000.0 
  7165.2221  1432694000000000.0 
  7166.6929  1421307900000000.0 
  7168.1638  1418941500000000.0 
  7169.6346  1417734200000000.0 
  7171.1055  1423726700000000.0 
  7172.5763  1367784900000000.0 
  7174.0471  1338953700000000.0 
   7175.518  1370224200000000.0 
  7176.9888  1434641100000000.0 
  7178.4597  1420359000000000.0 
  7179.9305  1404538000000000.0 
  7181.4014  1371905500000000.0 
  7182.8722  1316571400000000.0 
  7184.3431  1284747000000000.0 
  7185.8139  1253944900000000.0 
  7187.2848  1283917100000000.0 
  7188.7556  1326180800000000.0 
  7190.2264  1291566300000000.0 
  7191.6973  1255539200000000.0 
  7193.1681  1266617000000000.0 
   7194.639  1286325200000000.0 
  7196.1098  1341456700000000.0 
  7197.5807  1346755000000000.0 
  7199.0515  1326354200000000.0 
  7200.5224  1308634300000000.0 
  7201.9932  1317004500000000.0 
  7203.4641  1340334700000000.0 
  7204.9349  1332331200000000.0 
  7206.4057  1376918800000000.0 
  7207.8766  1414407100000000.0 
  7209.3474  1409944900000000.0 
  7210.8183  1427603100000000.0 
  7212.2891  1440059200000000.0 
    7213.76  1427478500000000.0 
  7215.2308  1437794400000000.0 
  7216.7017  1432801600000000.0 
  7218.1725  1409930100000000.0 
  7219.6434  1380352900000000.0 
  7221.1142  1366479900000000.0 
   7222.585  1370008400000000.0 
  7224.0559  1385200000000000.0 
  7225.5267  1358780200000000.0 
  7226.9976  1325825600000000.0 
  7228.4684  1409866000000000.0 
  7229.9393  1353345900000000.0 
  7231.4101  1331964800000000.0 
   7232.881  1289203500000000.0 
  7234.3518  1297095500000000.0 
  7235.8227  1302310000000000.0 
  7237.2935  1329690300000000.0 
  7238.7643  1365425700000000.0 
  7240.2352  1361259200000000.0 
   7241.706  1291619800000000.0 
  7243.1769  1346329100000000.0 
  7244.6477  1369038700000000.0 
  7246.1186  1364116400000000.0 
  7247.5894  1379726400000000.0 
  7249.0603  1398642100000000.0 
  7250.5311  1360593000000000.0 
   7252.002  1327434400000000.0 
  7253.4728  1320568000000000.0 
  7254.9436  1359728900000000.0 
  7256.4145  1357184900000000.0 
  7257.8853  1327990300000000.0 
  7259.3562  1391683900000000.0 
   7260.827  1344989200000000.0 
  7262.2979  1315643400000000.0 
  7263.7687  1304985300000000.0 
  7265.2396  1295293100000000.0 
  7266.7104  1337069700000000.0 
  7268.1813  1343094100000000.0 
  7269.6521  1343414900000000.0 
  7271.1229  1317884900000000.0 
  7272.5938  1278672500000000.0 
  7274.0646  1311686700000000.0 
  7275.5355  1305960600000000.0 
  7277.0063  1384401800000000.0 
  7278.4772  1319852400000000.0 
   7279.948  1381396200000000.0 
  7281.4189  1392029600000000.0 
  7282.8897  1389022300000000.0 
  7284.3606  1425636300000000.0 
  7285.8314  1393583500000000.0 
  7287.3022  1344791500000000.0 
  7288.7731  1289467600000000.0 
  7290.2439  1322837600000000.0 
  7291.7148  1289515300000000.0 
  7293.1856  1296559200000000.0 
  7294.6565  1308219600000000.0 
  7296.1273  1352185300000000.0 
  7297.5982  1383835100000000.0 
   7299.069  1289168900000000.0 
  7300.5399  1314063700000000.0 
  7302.0107  1288031600000000.0 
  7303.4815  1292896300000000.0 
  7304.9524  1311832600000000.0 
  7306.4232  1313081500000000.0 
  7307.8941  1332245700000000.0 
  7309.3649  1332857800000000.0 
  7310.8358  1337333900000000.0 
  7312.3066  1357179100000000.0 
  7313.7775  1395946500000000.0 
  7315.2483  1384548100000000.0 
  7316.7192  1349126900000000.0 
    7318.19  1418611100000000.0 
  7319.6608  1421341100000000.0 
  7321.1317  1381338700000000.0 
  7322.6025  1451414300000000.0 
  7324.0734  1425892500000000.0 
  7325.5442  1403406400000000.0 
  7327.0151  1391999300000000.0 
  7328.4859  1435571200000000.0 
  7329.9568  1353330000000000.0 
  7331.4276  1377419900000000.0 
  7332.8985  1371864600000000.0 
  7334.3693  1374416300000000.0 
  7335.8401  1340759300000000.0 
   7337.311  1394324800000000.0 
  7338.7818  1385449700000000.0 
  7340.2527  1329247800000000.0 
  7341.7235  1259358700000000.0 
  7343.1944  1310185300000000.0 
  7344.6652  1316088800000000.0 
  7346.1361  1376643100000000.0 
  7347.6069  1300272200000000.0 
  7349.0778  1307921500000000.0 
  7350.5486  1322178200000000.0 
  7352.0194  1349606800000000.0 
  7353.4903  1306885400000000.0 
  7354.9611  1345142300000000.0 
   7356.432  1359843400000000.0 
  7357.9028  1321018600000000.0 
  7359.3737  1329273300000000.0 
  7360.8445  1345996800000000.0 
  7362.3154  1356634900000000.0 
  7363.7862  1385246300000000.0 
  7365.2571  1398355500000000.0 
  7366.7279  1344497900000000.0 
  7368.1987  1333099400000000.0 
  7369.6696  1379602800000000.0 
  7371.1404  1276358500000000.0 
  7372.6113  1366995500000000.0 
  7374.0821  1342019600000000.0 
   7375.553  1372979800000000.0 
  7377.0238  1301544700000000.0 
  7378.4947  1261360800000000.0 
  7379.9655  1224227300000000.0 
  7381.4364  1289830800000000.0 
  7382.9072  1313273500000000.0 
   7384.378  1284565700000000.0 
  7385.8489  1327770100000000.0 
  7387.3197  1353856400000000.0 
  7388.7906  1289788600000000.0 
  7390.2614  1365657500000000.0 
  7391.7323  1360435400000000.0 
  7393.2031  1294265300000000.0 
   7394.674  1298131700000000.0 
  7396.1448  1344172900000000.0 
  7397.6157  1319581700000000.0 
  7399.0865  1283981100000000.0 
  7400.5573  1286497200000000.0 
  7402.0282  1295752000000000.0 
   7403.499  1252542500000000.0 
  7404.9699  1277754700000000.0 
  7406.4407  1248794900000000.0 
  7407.9116  1301853300000000.0 
  7409.3824  1284291800000000.0 
  7410.8533  1323721300000000.0 
  7412.3241  1298416300000000.0 
   7413.795  1342852000000000.0 
  7415.2658  1300130400000000.0 
  7416.7366  1322472200000000.0 
  7418.2075  1293508700000000.0 
  7419.6783  1304522900000000.0 
