# STATUS =
# OBJECT = 2017egm
# TELESCOPE = Galileo
# INSTRUMENT = BC-Asi
# DATE-OBS = 2017-06-11 21:07:12.00
# MJD = 57915.87999999989
# EXPTIME = 1800
# AIRMASS = --
# SLIT = 2.2
# DISPERSER = --
# SOURCE = 2018ApJ...853...57B
# FILTER =
# RESOLUTION =
# FLUX_STANDARD =
# EXTINCTION_CORRECTED = --
# PHOTOMETRY_CALIBRATED =
# TELLURIC_CORRECTED =
# FLUX_UNITS = Other
# WAVE_UNITS = Angstrom
# QUALITY = --
# MIN_WAVE = 3502.2193
# MAX_WAVE = 7888.4966
# COMMENT = [Data obtained from:Bose, S.] [Prev. spec info - createdby: ilanm-UploadSet; modifiedby: ilanm]
 Wavelength           Flux 
   3504.517  8.3694944e-15 
  3506.8147  8.5098492e-15 
  3509.1123  8.7868136e-15 
    3511.41  7.8081109e-15 
  3513.7077  7.5415712e-15 
  3516.0054  8.1776877e-15 
  3518.3031  9.3568982e-15 
  3520.6008  1.0021999e-14 
  3522.8984  9.8741101e-15 
  3525.1961  9.4155513e-15 
  3527.4938  9.3676427e-15 
  3529.7915  9.0325928e-15 
  3532.0892  8.6448559e-15 
  3534.3869  9.3743708e-15 
  3536.6845  9.3623459e-15 
  3538.9822  9.1999676e-15 
  3541.2799  8.7970988e-15 
  3543.5776  8.8052158e-15 
  3545.8753  9.6177315e-15 
   3548.173  9.0843357e-15 
  3550.4706   8.961178e-15 
  3552.7683  9.1232013e-15 
   3555.066  9.4276698e-15 
  3557.3637  9.7590984e-15 
  3559.6614  9.1715192e-15 
  3561.9591   8.766428e-15 
  3564.2567  8.9450169e-15 
  3566.5544  8.9991123e-15 
  3568.8521  8.4604554e-15 
  3571.1498   8.194946e-15 
  3573.4475  8.1578171e-15 
  3575.7452  8.2567725e-15 
  3578.0428  8.4162401e-15 
  3580.3405  8.1346179e-15 
  3582.6382  7.9604937e-15 
  3584.9359  8.7238846e-15 
  3587.2336  8.5429534e-15 
  3589.5313  8.0786222e-15 
  3591.8289  7.9218985e-15 
  3594.1266  8.3724364e-15 
  3596.4243  8.4346807e-15 
   3598.722  8.0303487e-15 
  3601.0197  7.8823407e-15 
  3603.3174  7.9528783e-15 
   3605.615  8.1391491e-15 
  3607.9127  8.4496475e-15 
  3610.2104  8.4077767e-15 
  3612.5081  8.5436052e-15 
  3614.8058  8.4432478e-15 
  3617.1035  7.9833543e-15 
  3619.4011  8.3504196e-15 
  3621.6988  8.6072574e-15 
  3623.9965  7.9204927e-15 
  3626.2942  7.5934719e-15 
  3628.5919  7.8905743e-15 
  3630.8896  8.1637895e-15 
  3633.1872  7.9355933e-15 
  3635.4849   7.880209e-15 
  3637.7826   8.306183e-15 
  3640.0803  8.3052046e-15 
   3642.378  7.9424437e-15 
  3644.6757  7.4979561e-15 
  3646.9733  7.2261596e-15 
   3649.271  7.3444476e-15 
  3651.5687  7.6624105e-15 
  3653.8664  7.7905159e-15 
  3656.1641  7.9150474e-15 
  3658.4618   7.786474e-15 
  3660.7594  7.2222716e-15 
  3663.0571  7.4732482e-15 
  3665.3548  8.1408056e-15 
  3667.6525  8.4517342e-15 
  3669.9502  8.0601848e-15 
  3672.2479  7.3740125e-15 
  3674.5455  7.3426963e-15 
  3676.8432  7.6186142e-15 
  3679.1409  7.2451098e-15 
  3681.4386  6.8971203e-15 
  3683.7363  7.0931271e-15 
   3686.034  7.3838461e-15 
  3688.3316  7.4040161e-15 
  3690.6293  7.3205019e-15 
   3692.927  6.9669376e-15 
  3695.2247  7.0910523e-15 
  3697.5224  7.6652036e-15 
  3699.8201  7.8108938e-15 
  3702.1177  7.5371851e-15 
  3704.4154  7.3722318e-15 
  3706.7131  7.2398942e-15 
  3709.0108   7.246793e-15 
  3711.3085   7.301865e-15 
  3713.6061  6.9994609e-15 
  3715.9038  7.0359859e-15 
  3718.2015  7.6120846e-15 
  3720.4992   7.375395e-15 
  3722.7969  6.8801787e-15 
  3725.0946  6.8921762e-15 
  3727.3922  7.0949204e-15 
  3729.6899  6.9202769e-15 
  3731.9876  6.9612929e-15 
  3734.2853  7.1449946e-15 
   3736.583  6.9702928e-15 
  3738.8807  6.9844077e-15 
  3741.1783  6.6586954e-15 
   3743.476  6.2182545e-15 
  3745.7737  6.9608373e-15 
  3748.0714  7.8393959e-15 
  3750.3691  7.5903184e-15 
  3752.6668  7.1979694e-15 
  3754.9644  7.4181372e-15 
  3757.2621  7.3374339e-15 
  3759.5598  7.3768016e-15 
  3761.8575  7.2525383e-15 
  3764.1552  7.0951438e-15 
  3766.4529  6.9126188e-15 
  3768.7505  7.3017683e-15 
  3771.0482  7.5326076e-15 
  3773.3459  7.2103438e-15 
  3775.6436  7.0762787e-15 
  3777.9413  7.0303845e-15 
   3780.239  7.1337045e-15 
  3782.5366  7.2669432e-15 
  3784.8343   7.360276e-15 
   3787.132  7.1615037e-15 
  3789.4297  7.0196111e-15 
  3791.7274  7.2402889e-15 
  3794.0251  7.1467802e-15 
  3796.3227  6.9344092e-15 
  3798.6204  7.1026249e-15 
  3800.9181  7.3979631e-15 
  3803.2158  7.3004397e-15 
  3805.5135  7.1432764e-15 
  3807.8112  7.2549814e-15 
  3810.1088    7.06694e-15 
  3812.4065    7.03983e-15 
  3814.7042  7.3832355e-15 
  3817.0019  7.6462831e-15 
  3819.2996  7.6267199e-15 
  3821.5973  7.5778972e-15 
  3823.8949  7.5685769e-15 
  3826.1926  7.4952735e-15 
  3828.4903  7.3607551e-15 
   3830.788  7.3885555e-15 
  3833.0857  7.4652744e-15 
  3835.3834  7.4296815e-15 
   3837.681  7.0149576e-15 
  3839.9787  6.7561172e-15 
  3842.2764  6.8194838e-15 
  3844.5741   6.908476e-15 
  3846.8718  6.8812181e-15 
  3849.1695  7.2289575e-15 
  3851.4671   7.509461e-15 
  3853.7648  7.3452701e-15 
  3856.0625  7.1420013e-15 
  3858.3602  6.7345812e-15 
  3860.6579  6.4933872e-15 
  3862.9556  6.7865767e-15 
  3865.2532  6.8397271e-15 
  3867.5509  6.9653486e-15 
  3869.8486  6.9757315e-15 
  3872.1463  6.9926068e-15 
   3874.444  7.1108364e-15 
  3876.7417  7.0143991e-15 
  3879.0393  6.7654986e-15 
   3881.337  6.7599561e-15 
  3883.6347  6.8723638e-15 
  3885.9324  6.9973592e-15 
  3888.2301  6.6418908e-15 
  3890.5278  6.3954787e-15 
  3892.8254  6.5893444e-15 
  3895.1231  6.8842425e-15 
  3897.4208  6.8607391e-15 
  3899.7185  6.6799856e-15 
  3902.0162  6.7517778e-15 
  3904.3139  6.9611324e-15 
  3906.6115  6.9850154e-15 
  3908.9092  6.8025453e-15 
  3911.2069  6.9239161e-15 
  3913.5046  6.7738003e-15 
  3915.8023  6.5264017e-15 
     3918.1  6.6552491e-15 
  3920.3976  6.8507595e-15 
  3922.6953  7.0817915e-15 
   3924.993   6.832585e-15 
  3927.2907  6.3122858e-15 
  3929.5884   6.187831e-15 
  3931.8861  6.4473854e-15 
  3934.1837  6.6827174e-15 
  3936.4814  6.7189089e-15 
  3938.7791  6.5510379e-15 
  3941.0768  6.4352342e-15 
  3943.3745  6.5682398e-15 
  3945.6722  6.5919904e-15 
  3947.9698  6.7047767e-15 
  3950.2675  6.7250865e-15 
  3952.5652  6.5304196e-15 
  3954.8629     6.4889e-15 
  3957.1606  6.5157299e-15 
  3959.4583  6.5342277e-15 
  3961.7559  6.5684355e-15 
  3964.0536  6.9118526e-15 
  3966.3513   6.955278e-15 
   3968.649  6.7079106e-15 
  3970.9467   6.948791e-15 
  3973.2444  6.9813096e-15 
   3975.542  6.3957509e-15 
  3977.8397  6.4497304e-15 
  3980.1374  6.9798869e-15 
  3982.4351  6.9609713e-15 
  3984.7328  6.7004097e-15 
  3987.0305  6.5450446e-15 
  3989.3281  6.5628156e-15 
  3991.6258  6.3761254e-15 
  3993.9235  6.3757655e-15 
  3996.2212  6.6220748e-15 
  3998.5189  6.6675083e-15 
  4000.8166  6.7449318e-15 
  4003.1142  6.8102196e-15 
  4005.4119   6.746636e-15 
  4007.7096  6.5173564e-15 
  4010.0073  6.6088145e-15 
   4012.305  6.7884518e-15 
  4014.6027  6.7475637e-15 
  4016.9003  6.6819899e-15 
   4019.198  6.6531105e-15 
  4021.4957  6.7947046e-15 
  4023.7934  6.5913531e-15 
  4026.0911  6.4547424e-15 
  4028.3888  6.7736625e-15 
  4030.6864  6.7679607e-15 
  4032.9841  6.4989026e-15 
  4035.2818  6.5708794e-15 
  4037.5795  6.7342533e-15 
  4039.8772  6.7629761e-15 
  4042.1749  6.8765665e-15 
  4044.4725  6.7387882e-15 
  4046.7702  6.6064594e-15 
  4049.0679  6.1522148e-15 
  4051.3656  5.9788267e-15 
  4053.6633  6.2317159e-15 
   4055.961   6.492286e-15 
  4058.2586  6.5889357e-15 
  4060.5563  6.6088375e-15 
   4062.854  6.5225121e-15 
  4065.1517  6.4726433e-15 
  4067.4494  6.4554418e-15 
  4069.7471  6.2777255e-15 
  4072.0447  5.9949202e-15 
  4074.3424  5.8663949e-15 
  4076.6401  5.9190425e-15 
  4078.9378  6.1389954e-15 
  4081.2355  6.2737944e-15 
  4083.5331  6.3314343e-15 
  4085.8308  6.4560859e-15 
  4088.1285  6.2837651e-15 
  4090.4262  6.1004268e-15 
  4092.7239  6.0533635e-15 
  4095.0216  6.1846989e-15 
  4097.3192  6.3153211e-15 
  4099.6169  6.4354845e-15 
  4101.9146  6.2075016e-15 
  4104.2123  6.0225314e-15 
    4106.51  6.0423092e-15 
  4108.8077  6.1279182e-15 
  4111.1053  6.1613109e-15 
   4113.403  6.0980567e-15 
  4115.7007  6.2209178e-15 
  4117.9984   6.237011e-15 
  4120.2961  6.2086207e-15 
  4122.5938  6.3130652e-15 
  4124.8914   6.500186e-15 
  4127.1891  6.4432197e-15 
  4129.4868  6.2124655e-15 
  4131.7845  6.5140469e-15 
  4134.0822  6.7797349e-15 
  4136.3799  6.7209618e-15 
  4138.6775  6.7471944e-15 
  4140.9752  6.4019494e-15 
  4143.2729  6.4938285e-15 
  4145.5706  6.8578657e-15 
  4147.8683   6.841838e-15 
   4150.166  6.6790127e-15 
  4152.4636  6.7567714e-15 
  4154.7613  6.8688227e-15 
   4157.059  6.7054436e-15 
  4159.3567  6.9137913e-15 
  4161.6544  7.0578937e-15 
  4163.9521  6.7510611e-15 
  4166.2497   6.623676e-15 
  4168.5474  6.7947473e-15 
  4170.8451  6.4338521e-15 
  4173.1428  6.2987776e-15 
  4175.4405  6.4220111e-15 
  4177.7382  6.6379864e-15 
  4180.0358  6.5794605e-15 
  4182.3335  6.4318424e-15 
  4184.6312  6.4213357e-15 
  4186.9289  6.2158541e-15 
  4189.2266  6.1177192e-15 
  4191.5243  6.0927415e-15 
  4193.8219  6.0792573e-15 
  4196.1196  6.1866944e-15 
  4198.4173   6.091747e-15 
   4200.715  6.0444841e-15 
  4203.0127   6.177874e-15 
  4205.3104  6.1595926e-15 
   4207.608  5.9924874e-15 
  4209.9057  5.8456754e-15 
  4212.2034  5.7696874e-15 
  4214.5011  5.9369211e-15 
  4216.7988  6.0405261e-15 
  4219.0965  5.8413861e-15 
  4221.3941  5.8688806e-15 
  4223.6918  5.9475058e-15 
  4225.9895  5.7626124e-15 
  4228.2872  5.4408457e-15 
  4230.5849  5.3410437e-15 
  4232.8826  5.5027881e-15 
  4235.1802  5.6378076e-15 
  4237.4779  5.6752032e-15 
  4239.7756  5.6780013e-15 
  4242.0733  5.6942092e-15 
   4244.371  5.9279956e-15 
  4246.6687  5.8500598e-15 
  4248.9663  5.2826498e-15 
   4251.264  5.3747864e-15 
  4253.5617  5.7106779e-15 
  4255.8594  5.7294606e-15 
  4258.1571  5.6556495e-15 
  4260.4548  5.5291926e-15 
  4262.7524  5.5671128e-15 
  4265.0501  5.4968543e-15 
  4267.3478  5.2110678e-15 
  4269.6455  5.1304445e-15 
  4271.9432  5.3859254e-15 
  4274.2409  5.5683293e-15 
  4276.5385  5.2033139e-15 
  4278.8362  5.1029245e-15 
  4281.1339  5.4540323e-15 
  4283.4316  5.5446855e-15 
  4285.7293  5.3670194e-15 
   4288.027  5.2614729e-15 
  4290.3246  5.2159481e-15 
  4292.6223  5.1974139e-15 
    4294.92  5.1675655e-15 
  4297.2177  5.4396606e-15 
  4299.5154  5.2129536e-15 
  4301.8131  5.0348145e-15 
  4304.1107  5.1570644e-15 
  4306.4084  5.3147562e-15 
  4308.7061  5.2264342e-15 
  4311.0038  5.0695128e-15 
  4313.3015  4.9998945e-15 
  4315.5992   5.124236e-15 
  4317.8968  5.3551532e-15 
  4320.1945  5.0859358e-15 
  4322.4922  5.0227952e-15 
  4324.7899   5.286557e-15 
  4327.0876  5.2139545e-15 
  4329.3853  5.3541756e-15 
  4331.6829  5.5256528e-15 
  4333.9806  5.3562073e-15 
  4336.2783  5.3195162e-15 
   4338.576  5.4516164e-15 
  4340.8737  5.2091195e-15 
  4343.1714  5.1508321e-15 
   4345.469  5.1656273e-15 
  4347.7667  5.2435604e-15 
  4350.0644  5.3877843e-15 
  4352.3621  5.3512178e-15 
  4354.6598  5.6822529e-15 
  4356.9575  6.1174809e-15 
  4359.2551  6.1977912e-15 
  4361.5528   5.849683e-15 
  4363.8505  5.8565248e-15 
  4366.1482  5.6978267e-15 
  4368.4459    5.29703e-15 
  4370.7436  5.2825955e-15 
  4373.0412  5.5664847e-15 
  4375.3389  5.5287968e-15 
  4377.6366  5.3423544e-15 
  4379.9343  5.4418594e-15 
   4382.232  5.5512111e-15 
  4384.5297  5.4304624e-15 
  4386.8273  5.3169864e-15 
   4389.125   5.332144e-15 
  4391.4227   5.320474e-15 
  4393.7204  5.2838326e-15 
  4396.0181  5.3274832e-15 
  4398.3158  5.5530757e-15 
  4400.6134   5.620154e-15 
  4402.9111  5.5185556e-15 
  4405.2088  5.4531736e-15 
  4407.5065  5.4230438e-15 
  4409.8042  5.4494915e-15 
  4412.1019  5.4141245e-15 
  4414.3995  5.4241633e-15 
  4416.6972  5.6509551e-15 
  4418.9949  5.5590893e-15 
  4421.2926  5.4085519e-15 
  4423.5903  5.4808522e-15 
   4425.888  5.5917748e-15 
  4428.1856  5.6404488e-15 
  4430.4833  5.8335044e-15 
   4432.781  5.8644592e-15 
  4435.0787  5.6400809e-15 
  4437.3764  5.5073124e-15 
  4439.6741  5.5208865e-15 
  4441.9717  5.4476875e-15 
  4444.2694  5.4601478e-15 
  4446.5671  5.5678465e-15 
  4448.8648  5.4450323e-15 
  4451.1625  5.2377719e-15 
  4453.4602  5.4239115e-15 
  4455.7578  5.5937827e-15 
  4458.0555  5.4571415e-15 
  4460.3532  5.4067182e-15 
  4462.6509  5.2749872e-15 
  4464.9486  5.1387653e-15 
  4467.2462  5.0540838e-15 
  4469.5439  5.0529238e-15 
  4471.8416  5.1767282e-15 
  4474.1393  5.1220786e-15 
   4476.437  5.0363191e-15 
  4478.7347  5.1744367e-15 
  4481.0323    5.34448e-15 
    4483.33  5.2073509e-15 
  4485.6277  5.1654696e-15 
  4487.9254  5.2114803e-15 
  4490.2231  5.3309022e-15 
  4492.5208  5.3544592e-15 
  4494.8184   5.195954e-15 
  4497.1161  5.2001266e-15 
  4499.4138  5.1887778e-15 
  4501.7115  5.1950113e-15 
  4504.0092  5.2752243e-15 
  4506.3069  5.1230049e-15 
  4508.6045  5.0670553e-15 
  4510.9022  5.0732057e-15 
  4513.1999  5.0084159e-15 
  4515.4976  5.1396472e-15 
  4517.7953  4.9549943e-15 
   4520.093  4.5122976e-15 
  4522.3906  4.3842127e-15 
  4524.6883  4.6161537e-15 
   4526.986  4.9286439e-15 
  4529.2837  5.0682159e-15 
  4531.5814  4.9476108e-15 
  4533.8791  4.8919266e-15 
  4536.1767  4.9201337e-15 
  4538.4744   4.950845e-15 
  4540.7721  4.8939429e-15 
  4543.0698  4.7650351e-15 
  4545.3675  4.8992618e-15 
  4547.6652  4.9902982e-15 
  4549.9628  4.7687173e-15 
  4552.2605  4.7235155e-15 
  4554.5582  4.5383434e-15 
  4556.8559   4.492804e-15 
  4559.1536  4.7170798e-15 
  4561.4513  4.8645767e-15 
  4563.7489  4.5578429e-15 
  4566.0466  4.4468469e-15 
  4568.3443  4.3476499e-15 
   4570.642   4.031367e-15 
  4572.9397  4.0284659e-15 
  4575.2374   4.383789e-15 
   4577.535  4.5770367e-15 
  4579.8327  4.5533413e-15 
  4582.1304  4.4756722e-15 
  4584.4281  4.4442316e-15 
  4586.7258  4.6372616e-15 
  4589.0235  4.6578555e-15 
  4591.3211  4.5591509e-15 
  4593.6188  4.4930487e-15 
  4595.9165  4.4450841e-15 
  4598.2142  4.6427488e-15 
  4600.5119  4.5787283e-15 
  4602.8096  4.3027686e-15 
  4605.1072   4.221516e-15 
  4607.4049  4.1594986e-15 
  4609.7026   4.220894e-15 
  4612.0003  4.3785439e-15 
   4614.298  4.5539264e-15 
  4616.5957  4.7569236e-15 
  4618.8933  4.6838972e-15 
   4621.191  4.5361584e-15 
  4623.4887  4.6381688e-15 
  4625.7864   4.705253e-15 
  4628.0841  4.4723569e-15 
  4630.3818  4.4855015e-15 
  4632.6794   4.584896e-15 
  4634.9771  4.6366155e-15 
  4637.2748  4.6201652e-15 
  4639.5725  4.5666232e-15 
  4641.8702  4.5136983e-15 
  4644.1679  4.6851657e-15 
  4646.4655  4.7193709e-15 
  4648.7632  4.5805245e-15 
  4651.0609   4.638894e-15 
  4653.3586  4.7688453e-15 
  4655.6563   4.799448e-15 
   4657.954  4.8502109e-15 
  4660.2516  4.6571247e-15 
  4662.5493  4.6065657e-15 
   4664.847  4.9276831e-15 
  4667.1447  5.1269774e-15 
  4669.4424  4.9941802e-15 
  4671.7401  4.9110422e-15 
  4674.0377  4.8563287e-15 
  4676.3354  5.0137736e-15 
  4678.6331  5.0381489e-15 
  4680.9308  4.9334126e-15 
  4683.2285  4.9851139e-15 
  4685.5262  4.9400494e-15 
  4687.8238  5.0554378e-15 
  4690.1215  5.1441368e-15 
  4692.4192   4.966928e-15 
  4694.7169  4.7834052e-15 
  4697.0146   4.901002e-15 
  4699.3123   4.934652e-15 
  4701.6099  5.1112145e-15 
  4703.9076  5.2672469e-15 
  4706.2053  5.0066723e-15 
   4708.503  5.0296384e-15 
  4710.8007  5.2076099e-15 
  4713.0984  5.2657873e-15 
   4715.396  5.2124449e-15 
  4717.6937  5.1482678e-15 
  4719.9914  5.1242243e-15 
  4722.2891   5.336782e-15 
  4724.5868  5.3885285e-15 
  4726.8845  5.1588851e-15 
  4729.1821  4.9107613e-15 
  4731.4798  5.0697572e-15 
  4733.7775  4.9363807e-15 
  4736.0752  4.8572154e-15 
  4738.3729  4.9219473e-15 
  4740.6706  4.7845052e-15 
  4742.9682  4.7327786e-15 
  4745.2659  4.9664827e-15 
  4747.5636  5.0149238e-15 
  4749.8613  4.8239202e-15 
   4752.159  4.5416669e-15 
  4754.4567  4.3472512e-15 
  4756.7543  4.5134076e-15 
   4759.052  4.8871443e-15 
  4761.3497  5.0093467e-15 
  4763.6474  4.8513527e-15 
  4765.9451  4.7147879e-15 
  4768.2428  4.7175484e-15 
  4770.5404  4.6164989e-15 
  4772.8381  4.4646377e-15 
  4775.1358  4.6016909e-15 
  4777.4335  4.7077046e-15 
  4779.7312  4.6165406e-15 
  4782.0289  4.3518142e-15 
  4784.3265  4.1300273e-15 
  4786.6242  4.3643306e-15 
  4788.9219  4.5713718e-15 
  4791.2196  4.4923938e-15 
  4793.5173  4.3562913e-15 
   4795.815  4.5436912e-15 
  4798.1126  4.5405117e-15 
  4800.4103  4.3115939e-15 
   4802.708  4.3371556e-15 
  4805.0057  4.3158008e-15 
  4807.3034  4.2832234e-15 
  4809.6011  4.5459019e-15 
  4811.8987  4.5044124e-15 
  4814.1964  4.4868611e-15 
  4816.4941  4.5726518e-15 
  4818.7918  4.5223084e-15 
  4821.0895   4.474881e-15 
  4823.3872  4.3044676e-15 
  4825.6848  4.0618493e-15 
  4827.9825  4.0406728e-15 
  4830.2802  4.2208714e-15 
  4832.5779  4.2904742e-15 
  4834.8756  4.1680524e-15 
  4837.1732   4.139333e-15 
  4839.4709  4.3670157e-15 
  4841.7686  4.3139063e-15 
  4844.0663  3.9485596e-15 
   4846.364  3.9350391e-15 
  4848.6617   4.212966e-15 
  4850.9593  4.1233238e-15 
   4853.257  3.9617234e-15 
  4855.5547  4.1862571e-15 
  4857.8524  4.3343488e-15 
  4860.1501  4.1646364e-15 
  4862.4478  4.1210242e-15 
  4864.7454  4.2320572e-15 
  4867.0431  4.1003441e-15 
  4869.3408  3.9655669e-15 
  4871.6385  3.9986737e-15 
  4873.9362  4.1458688e-15 
  4876.2339  4.2475423e-15 
  4878.5315  4.1600136e-15 
  4880.8292  4.0651887e-15 
  4883.1269  4.1520117e-15 
  4885.4246  4.1737305e-15 
  4887.7223  4.1213788e-15 
    4890.02   4.145718e-15 
  4892.3176  4.1139539e-15 
  4894.6153  4.0150051e-15 
   4896.913  4.0061539e-15 
  4899.2107  4.0433189e-15 
  4901.5084  4.1752146e-15 
  4903.8061  4.1295409e-15 
  4906.1037  4.0063681e-15 
  4908.4014  4.1369714e-15 
  4910.6991  4.1038888e-15 
  4912.9968  3.9951021e-15 
  4915.2945   4.046276e-15 
  4917.5922  4.1303234e-15 
  4919.8898  4.0399647e-15 
  4922.1875  3.8809915e-15 
  4924.4852  3.9879525e-15 
  4926.7829  4.0145678e-15 
  4929.0806  4.0010138e-15 
  4931.3783  4.0665335e-15 
  4933.6759  4.1611606e-15 
  4935.9736  4.0356841e-15 
  4938.2713  3.9595747e-15 
   4940.569  3.9948916e-15 
  4942.8667  4.1328158e-15 
  4945.1644  4.1559301e-15 
   4947.462  3.9600794e-15 
  4949.7597  3.7843314e-15 
  4952.0574  3.8320735e-15 
  4954.3551  3.9036336e-15 
  4956.6528  3.9400625e-15 
  4958.9505  4.0707924e-15 
  4961.2481  4.0026759e-15 
  4963.5458  3.9174732e-15 
  4965.8435   3.858315e-15 
  4968.1412  3.7258511e-15 
  4970.4389  3.8689768e-15 
  4972.7366  3.9683398e-15 
  4975.0342   4.005829e-15 
  4977.3319  4.1136969e-15 
  4979.6296  4.0788257e-15 
  4981.9273  4.0343736e-15 
   4984.225  3.9229576e-15 
  4986.5227  3.8628275e-15 
  4988.8203  3.8658606e-15 
   4991.118  3.8043203e-15 
  4993.4157  3.7120689e-15 
  4995.7134  3.9134009e-15 
  4998.0111  3.8788139e-15 
  5000.3088  3.7698646e-15 
  5002.6064  3.8126517e-15 
  5004.9041  3.8440577e-15 
  5007.2018  3.7860193e-15 
  5009.4995  3.6521771e-15 
  5011.7972  3.6212059e-15 
  5014.0949  3.7096705e-15 
  5016.3925  3.7728549e-15 
  5018.6902  3.7542813e-15 
  5020.9879  3.6311342e-15 
  5023.2856  3.6455334e-15 
  5025.5833    3.59619e-15 
   5027.881  3.5751913e-15 
  5030.1786  3.6567898e-15 
  5032.4763  3.6127439e-15 
   5034.774  3.4470058e-15 
  5037.0717  3.4822112e-15 
  5039.3694  3.5327303e-15 
  5041.6671  3.5773948e-15 
  5043.9647  3.5395266e-15 
  5046.2624  3.6058884e-15 
  5048.5601  3.7530631e-15 
  5050.8578  3.7679881e-15 
  5053.1555  3.6441206e-15 
  5055.4532  3.5999116e-15 
  5057.7508  3.5436844e-15 
  5060.0485  3.4278216e-15 
  5062.3462  3.4331285e-15 
  5064.6439   3.476924e-15 
  5066.9416  3.6132047e-15 
  5069.2393  3.6600086e-15 
  5071.5369   3.511999e-15 
  5073.8346  3.6026989e-15 
  5076.1323  3.5899982e-15 
    5078.43  3.6127114e-15 
  5080.7277  3.5276143e-15 
  5083.0254  3.4986569e-15 
   5085.323  3.4391892e-15 
  5087.6207  3.3088391e-15 
  5089.9184  3.3667926e-15 
  5092.2161  3.5687969e-15 
  5094.5138  3.4729238e-15 
  5096.8115  3.3965131e-15 
  5099.1091  3.4413368e-15 
  5101.4068  3.4476657e-15 
  5103.7045   3.383361e-15 
  5106.0022  3.2066752e-15 
  5108.2999  3.0990608e-15 
  5110.5976  3.0456733e-15 
  5112.8952  3.0771505e-15 
  5115.1929  3.1367206e-15 
  5117.4906  3.3266571e-15 
  5119.7883  3.5160689e-15 
   5122.086  3.4842079e-15 
  5124.3837   3.454774e-15 
  5126.6813  3.4485157e-15 
   5128.979  3.3295935e-15 
  5131.2767  3.2451771e-15 
  5133.5744  3.1443443e-15 
  5135.8721  3.1096239e-15 
  5138.1698  3.1237085e-15 
  5140.4674  3.2591038e-15 
  5142.7651  3.4299948e-15 
  5145.0628  3.4270064e-15 
  5147.3605  3.2687079e-15 
  5149.6582  3.1788586e-15 
  5151.9559   3.301522e-15 
  5154.2535  3.4430738e-15 
  5156.5512  3.1953094e-15 
  5158.8489  2.9595891e-15 
  5161.1466  3.0988986e-15 
  5163.4443  3.1034494e-15 
   5165.742  3.0688219e-15 
  5168.0396  3.1676432e-15 
  5170.3373   3.201799e-15 
   5172.635  3.2470132e-15 
  5174.9327  3.2041721e-15 
  5177.2304  3.0720651e-15 
  5179.5281  3.0268952e-15 
  5181.8257  3.1231356e-15 
  5184.1234  3.1836496e-15 
  5186.4211   3.256659e-15 
  5188.7188  3.2977348e-15 
  5191.0165  3.3043547e-15 
  5193.3142  3.3178718e-15 
  5195.6118  3.2595726e-15 
  5197.9095  3.2079909e-15 
  5200.2072  3.2587203e-15 
  5202.5049  3.3498779e-15 
  5204.8026  3.3350473e-15 
  5207.1003  3.3412043e-15 
  5209.3979  3.4740538e-15 
  5211.6956  3.4515621e-15 
  5213.9933  3.2919467e-15 
   5216.291  3.2961224e-15 
  5218.5887  3.2729051e-15 
  5220.8863  3.2077973e-15 
   5223.184  3.2433928e-15 
  5225.4817  3.3460289e-15 
  5227.7794  3.4293822e-15 
  5230.0771  3.3543328e-15 
  5232.3748  3.3035323e-15 
  5234.6724  3.3345975e-15 
  5236.9701  3.3965295e-15 
  5239.2678  3.3517567e-15 
  5241.5655  3.3087636e-15 
  5243.8632  3.2890101e-15 
  5246.1609  3.3322673e-15 
  5248.4585  3.3532356e-15 
  5250.7562  3.4138783e-15 
  5253.0539  3.3346801e-15 
  5255.3516  3.1331515e-15 
  5257.6493  3.1447779e-15 
   5259.947  3.3264337e-15 
  5262.2446  3.3598589e-15 
  5264.5423  3.3234344e-15 
    5266.84  3.3260138e-15 
  5269.1377  3.2153733e-15 
  5271.4354  3.2075718e-15 
  5273.7331  3.2498996e-15 
  5276.0307  3.2263058e-15 
  5278.3284  3.2021162e-15 
  5280.6261   3.275246e-15 
  5282.9238  3.4109086e-15 
  5285.2215  3.3489935e-15 
  5287.5192  3.1079303e-15 
  5289.8168   3.045462e-15 
  5292.1145  3.1386511e-15 
  5294.4122  3.1433983e-15 
  5296.7099   3.074457e-15 
  5299.0076  3.0641699e-15 
  5301.3053  3.1069674e-15 
  5303.6029  3.0179407e-15 
  5305.9006  3.0697237e-15 
  5308.1983  3.1292001e-15 
   5310.496  3.0258424e-15 
  5312.7937  3.0384235e-15 
  5315.0914  3.0867824e-15 
   5317.389  3.1868148e-15 
  5319.6867  3.2791914e-15 
  5321.9844  3.1515341e-15 
  5324.2821  3.1215651e-15 
  5326.5798  3.0957436e-15 
  5328.8775  2.9779607e-15 
  5331.1751  3.0304647e-15 
  5333.4728  3.1164819e-15 
  5335.7705  3.0764784e-15 
  5338.0682  2.9667734e-15 
  5340.3659  2.8919023e-15 
  5342.6636  2.9607866e-15 
  5344.9612  2.9630633e-15 
  5347.2589  2.8682049e-15 
  5349.5566  2.8378141e-15 
  5351.8543  2.8727485e-15 
   5354.152  2.9750379e-15 
  5356.4497  3.0347717e-15 
  5358.7473  2.8526704e-15 
   5361.045  2.6709366e-15 
  5363.3427  2.8402164e-15 
  5365.6404   2.996793e-15 
  5367.9381   2.936371e-15 
  5370.2358  2.8981254e-15 
  5372.5334  3.0141423e-15 
  5374.8311  3.0567163e-15 
  5377.1288  2.8833439e-15 
  5379.4265  2.7398052e-15 
  5381.7242  2.8385275e-15 
  5384.0219  2.8475764e-15 
  5386.3195  2.8027685e-15 
  5388.6172  2.8846775e-15 
  5390.9149  2.9331981e-15 
  5393.2126  2.9637909e-15 
  5395.5103  2.9977337e-15 
   5397.808  2.8941677e-15 
  5400.1056  2.8473085e-15 
  5402.4033  2.8607051e-15 
   5404.701  2.9183921e-15 
  5406.9987  2.8450748e-15 
  5409.2964  2.7793053e-15 
  5411.5941  2.7497804e-15 
  5413.8917  2.7561085e-15 
  5416.1894  2.7908107e-15 
  5418.4871  2.7063709e-15 
  5420.7848  2.7233918e-15 
  5423.0825  2.8534384e-15 
  5425.3802   2.841649e-15 
  5427.6778  2.8140017e-15 
  5429.9755  2.7143505e-15 
  5432.2732  2.6437061e-15 
  5434.5709  2.7135323e-15 
  5436.8686  2.6873742e-15 
  5439.1663  2.6812253e-15 
  5441.4639  2.7548708e-15 
  5443.7616  2.7540897e-15 
  5446.0593  2.6571212e-15 
   5448.357  2.6281214e-15 
  5450.6547  2.6068627e-15 
  5452.9524   2.639526e-15 
    5455.25  2.7081106e-15 
  5457.5477  2.7601052e-15 
  5459.8454   2.831459e-15 
  5462.1431  2.6939993e-15 
  5464.4408  2.4719872e-15 
  5466.7385   2.488407e-15 
  5469.0361  2.6583595e-15 
  5471.3338  2.6602963e-15 
  5473.6315  2.6913301e-15 
  5475.9292  2.6296164e-15 
  5478.2269  2.6036448e-15 
  5480.5246  2.6129032e-15 
  5482.8222  2.6281215e-15 
  5485.1199    2.68856e-15 
  5487.4176  2.6605944e-15 
  5489.7153  2.6035681e-15 
   5492.013  2.6591337e-15 
  5494.3107  2.6718334e-15 
  5496.6083  2.6006096e-15 
   5498.906  2.4362136e-15 
  5501.2037  2.5448004e-15 
  5503.5014  2.6279353e-15 
  5505.7991  2.6364089e-15 
  5508.0968  2.6740926e-15 
  5510.3944  2.8137047e-15 
  5512.6921  2.8133906e-15 
  5514.9898  2.7447284e-15 
  5517.2875  2.6180649e-15 
  5519.5852  2.5568067e-15 
  5521.8829  2.6091299e-15 
  5524.1805  2.7447395e-15 
  5526.4782  2.8501979e-15 
  5528.7759  2.8212555e-15 
  5531.0736  2.6473659e-15 
  5533.3713  2.4859868e-15 
   5535.669  2.6253971e-15 
  5537.9666  2.6640396e-15 
  5540.2643  2.5080608e-15 
   5542.562  2.5889721e-15 
  5544.8597  2.7796485e-15 
  5547.1574  2.7087743e-15 
  5549.4551  2.5708604e-15 
  5551.7527  2.5243298e-15 
  5554.0504  2.5249135e-15 
  5556.3481  2.5800225e-15 
  5558.6458  2.5827722e-15 
  5560.9435  2.6267075e-15 
  5563.2412  2.5373575e-15 
  5565.5388  2.4806236e-15 
  5567.8365  2.5877601e-15 
  5570.1342  2.6912683e-15 
  5572.4319  2.6249754e-15 
  5574.7296   2.718091e-15 
  5577.0273  2.7778685e-15 
  5579.3249   2.468837e-15 
  5581.6226  2.5342379e-15 
  5583.9203  2.6258213e-15 
   5586.218  2.4725959e-15 
  5588.5157  2.4974339e-15 
  5590.8134  2.5899537e-15 
   5593.111  2.6287389e-15 
  5595.4087   2.568416e-15 
  5597.7064  2.3912529e-15 
  5600.0041   2.467853e-15 
  5602.3018  2.4909206e-15 
  5604.5994  2.3930866e-15 
  5606.8971   2.501027e-15 
  5609.1948   2.566483e-15 
  5611.4925  2.6103634e-15 
  5613.7902  2.6711626e-15 
  5616.0879  2.5196008e-15 
  5618.3855  2.5225154e-15 
  5620.6832  2.5828477e-15 
  5622.9809  2.4885371e-15 
  5625.2786  2.4334235e-15 
  5627.5763  2.5911207e-15 
   5629.874  2.4340922e-15 
  5632.1716  2.2770681e-15 
  5634.4693  2.3653922e-15 
   5636.767  2.4395425e-15 
  5639.0647  2.4366622e-15 
  5641.3624  2.3279107e-15 
  5643.6601  2.2259218e-15 
  5645.9577  2.2994812e-15 
  5648.2554  2.2193831e-15 
  5650.5531   2.156403e-15 
  5652.8508   2.397228e-15 
  5655.1485  2.4585512e-15 
  5657.4462  2.3373919e-15 
  5659.7438  2.3349698e-15 
  5662.0415  2.2373926e-15 
  5664.3392  2.2468009e-15 
  5666.6369  2.1985753e-15 
  5668.9346  2.2138067e-15 
  5671.2323  2.2945188e-15 
  5673.5299  2.2262259e-15 
  5675.8276  2.2845111e-15 
  5678.1253  2.4189252e-15 
   5680.423  2.3392183e-15 
  5682.7207  2.2923229e-15 
  5685.0184  2.3619426e-15 
   5687.316  2.4729181e-15 
  5689.6137  2.5839868e-15 
  5691.9114  2.7678125e-15 
  5694.2091  2.5410393e-15 
  5696.5068  2.2185106e-15 
  5698.8045  2.1627577e-15 
  5701.1021  2.1573497e-15 
  5703.3998  2.2155537e-15 
  5705.6975  2.2440422e-15 
  5707.9952  2.2124334e-15 
  5710.2929  2.1952935e-15 
  5712.5906  2.1492885e-15 
  5714.8882  2.1566174e-15 
  5717.1859  2.2067404e-15 
  5719.4836  2.1724009e-15 
  5721.7813  2.2314069e-15 
   5724.079   2.338816e-15 
  5726.3767  2.2307959e-15 
  5728.6743  2.2374407e-15 
   5730.972  2.2589349e-15 
  5733.2697  2.1785523e-15 
  5735.5674  2.3147116e-15 
  5737.8651  2.3009649e-15 
  5740.1628  2.1379023e-15 
  5742.4604  2.2348706e-15 
  5744.7581   2.475125e-15 
  5747.0558  2.4572173e-15 
  5749.3535  2.2802725e-15 
  5751.6512  2.1089906e-15 
  5753.9489   2.131723e-15 
  5756.2465   2.236359e-15 
  5758.5442  2.3495666e-15 
  5760.8419  2.3447166e-15 
  5763.1396  2.3938726e-15 
  5765.4373  2.3894335e-15 
   5767.735  2.2336006e-15 
  5770.0326   2.246346e-15 
  5772.3303  2.3459914e-15 
   5774.628  2.2326949e-15 
  5776.9257  2.2684745e-15 
  5779.2234  2.4577816e-15 
  5781.5211  2.4548297e-15 
  5783.8187  2.3993889e-15 
  5786.1164  2.3761995e-15 
  5788.4141  2.2999217e-15 
  5790.7118  2.3048262e-15 
  5793.0095  2.3788711e-15 
  5795.3072  2.2888226e-15 
  5797.6048  2.2158766e-15 
  5799.9025  2.1951229e-15 
  5802.2002  2.1432275e-15 
  5804.4979  2.2551796e-15 
  5806.7956  2.2974888e-15 
  5809.0933  2.3695674e-15 
  5811.3909  2.5614504e-15 
  5813.6886  2.4576187e-15 
  5815.9863   2.236004e-15 
   5818.284  2.2069942e-15 
  5820.5817  2.3770998e-15 
  5822.8794  2.2726994e-15 
   5825.177  2.0361974e-15 
  5827.4747  2.1338347e-15 
  5829.7724  2.1529939e-15 
  5832.0701  2.2103782e-15 
  5834.3678  2.3234333e-15 
  5836.6655   2.381545e-15 
  5838.9631  2.3227228e-15 
  5841.2608   2.305317e-15 
  5843.5585  2.3618955e-15 
  5845.8562  2.3459525e-15 
  5848.1539  2.2459479e-15 
  5850.4516  2.2880687e-15 
  5852.7492  2.3614471e-15 
  5855.0469    2.38749e-15 
  5857.3446  2.4601083e-15 
  5859.6423  2.3296174e-15 
    5861.94  2.0913411e-15 
  5864.2377  1.9452076e-15 
  5866.5353  1.9679379e-15 
   5868.833  2.0600586e-15 
  5871.1307  2.1233994e-15 
  5873.4284  2.1944373e-15 
  5875.7261   2.246552e-15 
  5878.0238  2.1199551e-15 
  5880.3214  2.1127221e-15 
  5882.6191  2.1605956e-15 
  5884.9168   2.061892e-15 
  5887.2145  1.9816697e-15 
  5889.5122  2.1196614e-15 
  5891.8099  2.0897937e-15 
  5894.1075  2.0608397e-15 
  5896.4052  2.0466943e-15 
  5898.7029  2.1020755e-15 
  5901.0006   2.197814e-15 
  5903.2983  2.2625276e-15 
   5905.596  2.1735779e-15 
  5907.8936  2.0539169e-15 
  5910.1913  2.0021515e-15 
   5912.489  2.1013205e-15 
  5914.7867  2.0931104e-15 
  5917.0844  2.0612535e-15 
  5919.3821  2.1405976e-15 
  5921.6797  2.1362722e-15 
  5923.9774  1.9927144e-15 
  5926.2751  1.9401489e-15 
  5928.5728  2.0502419e-15 
  5930.8705  2.0559323e-15 
  5933.1682  2.0483988e-15 
  5935.4658  2.1121816e-15 
  5937.7635  1.9646148e-15 
  5940.0612  1.8106999e-15 
  5942.3589  1.8451403e-15 
  5944.6566  1.9605461e-15 
  5946.9543  2.0992761e-15 
  5949.2519  2.2134599e-15 
  5951.5496  2.1748519e-15 
  5953.8473  2.0876363e-15 
   5956.145  2.0501412e-15 
  5958.4427  2.2194597e-15 
  5960.7404  2.1676109e-15 
   5963.038  2.1236507e-15 
  5965.3357  2.2512278e-15 
  5967.6334  2.4259204e-15 
  5969.9311   2.293164e-15 
  5972.2288  2.2243509e-15 
  5974.5264  2.1247175e-15 
  5976.8241  2.1259178e-15 
  5979.1218  2.1407393e-15 
  5981.4195  2.0125967e-15 
  5983.7172  2.0023941e-15 
  5986.0149  2.0673455e-15 
  5988.3125  2.0688242e-15 
  5990.6102  2.0729066e-15 
  5992.9079  2.1462947e-15 
  5995.2056  2.2819849e-15 
  5997.5033  2.1185161e-15 
   5999.801  1.9486331e-15 
  6002.0986  2.0675739e-15 
  6004.3963   2.127041e-15 
   6006.694  2.1441511e-15 
  6008.9917  2.1177957e-15 
  6011.2894  2.1167206e-15 
  6013.5871  2.1707148e-15 
  6015.8847  2.0432179e-15 
  6018.1824  2.0135089e-15 
  6020.4801  2.1047435e-15 
  6022.7778  2.1265173e-15 
  6025.0755  2.0396432e-15 
  6027.3732  1.9756903e-15 
  6029.6708  1.8838804e-15 
  6031.9685  1.9018915e-15 
  6034.2662  2.0267893e-15 
  6036.5639  2.2265659e-15 
  6038.8616  2.1887089e-15 
  6041.1593  2.0535164e-15 
  6043.4569  1.9552696e-15 
  6045.7546  1.9696612e-15 
  6048.0523  1.9865058e-15 
    6050.35  2.0059302e-15 
  6052.6477  2.0113978e-15 
  6054.9454  2.0029999e-15 
   6057.243   2.022052e-15 
  6059.5407  1.9954342e-15 
  6061.8384  1.9177943e-15 
  6064.1361  1.8972872e-15 
  6066.4338   2.025839e-15 
  6068.7315  2.1641858e-15 
  6071.0291  2.1681219e-15 
  6073.3268  2.0921217e-15 
  6075.6245  2.0556522e-15 
  6077.9222  1.9625695e-15 
  6080.2199  1.8746534e-15 
  6082.5176  1.8447957e-15 
  6084.8152  1.9396153e-15 
  6087.1129  2.0706431e-15 
  6089.4106  1.9738602e-15 
  6091.7083  1.8265401e-15 
   6094.006   1.778036e-15 
  6096.3037  1.8325708e-15 
  6098.6013  1.8103901e-15 
   6100.899  1.7396071e-15 
  6103.1967  1.9060283e-15 
  6105.4944  2.0850619e-15 
  6107.7921  2.0655013e-15 
  6110.0898  1.9987514e-15 
  6112.3874  1.9978722e-15 
  6114.6851  1.8152874e-15 
  6116.9828   1.776114e-15 
  6119.2805  1.8381352e-15 
  6121.5782  1.9765129e-15 
  6123.8759  1.9207612e-15 
  6126.1735  1.8099417e-15 
  6128.4712  1.8491293e-15 
  6130.7689   1.827822e-15 
  6133.0666  1.8301818e-15 
  6135.3643  1.8408544e-15 
   6137.662  1.8678283e-15 
  6139.9596  1.8979013e-15 
  6142.2573  1.8879811e-15 
   6144.555  2.0105695e-15 
  6146.8527  2.0327094e-15 
  6149.1504  1.9267166e-15 
  6151.4481  1.9123521e-15 
  6153.7457  1.9188542e-15 
  6156.0434  1.9276917e-15 
  6158.3411  1.8832818e-15 
  6160.6388  1.7621348e-15 
  6162.9365  1.7604651e-15 
  6165.2342  1.8099854e-15 
  6167.5318   1.810426e-15 
  6169.8295   1.832678e-15 
  6172.1272  1.8084572e-15 
  6174.4249  1.7385646e-15 
  6176.7226  1.6908252e-15 
  6179.0203  1.7381091e-15 
  6181.3179  1.8759732e-15 
  6183.6156  1.8313499e-15 
  6185.9133  1.7971053e-15 
   6188.211  1.8141178e-15 
  6190.5087    1.71289e-15 
  6192.8064   1.674386e-15 
   6195.104  1.7498745e-15 
  6197.4017  1.8346078e-15 
  6199.6994  1.8095921e-15 
  6201.9971  1.7663635e-15 
  6204.2948  1.7445624e-15 
  6206.5925  1.7559051e-15 
  6208.8901  1.6962186e-15 
  6211.1878  1.7377627e-15 
  6213.4855  1.7033944e-15 
  6215.7832  1.7132791e-15 
  6218.0809  1.7575415e-15 
  6220.3786  1.7875936e-15 
  6222.6762  1.8057053e-15 
  6224.9739  1.7978989e-15 
  6227.2716  1.8247854e-15 
  6229.5693  1.7595275e-15 
   6231.867  1.6935847e-15 
  6234.1647  1.7097453e-15 
  6236.4623  1.6265085e-15 
    6238.76  1.5662307e-15 
  6241.0577  1.5640965e-15 
  6243.3554  1.6814188e-15 
  6245.6531  1.8357009e-15 
  6247.9508  1.7996928e-15 
  6250.2484  1.7170918e-15 
  6252.5461  1.7572329e-15 
  6254.8438  1.7447089e-15 
  6257.1415  1.6179661e-15 
  6259.4392  1.6010995e-15 
  6261.7369  1.7379176e-15 
  6264.0345  1.7481346e-15 
  6266.3322  1.7149482e-15 
  6268.6299  1.6717439e-15 
  6270.9276  1.6320096e-15 
  6273.2253  1.5880935e-15 
   6275.523  1.6177055e-15 
  6277.8206  1.5356082e-15 
  6280.1183  1.5033452e-15 
   6282.416  1.5514858e-15 
  6284.7137  1.5990404e-15 
  6287.0114  1.5761088e-15 
  6289.3091  1.5588631e-15 
  6291.6067  1.6055364e-15 
  6293.9044  1.6934341e-15 
  6296.2021   1.747428e-15 
  6298.4998  1.7166224e-15 
  6300.7975  1.6892176e-15 
  6303.0952  1.6739887e-15 
  6305.3928  1.6607639e-15 
  6307.6905  1.4315814e-15 
  6309.9882  1.4595959e-15 
  6312.2859  1.5443012e-15 
  6314.5836    1.51438e-15 
  6316.8813   1.537305e-15 
  6319.1789  1.6338694e-15 
  6321.4766  1.5434362e-15 
  6323.7743  1.4389425e-15 
   6326.072   1.443704e-15 
  6328.3697  1.5054562e-15 
  6330.6674   1.558722e-15 
   6332.965  1.5500134e-15 
  6335.2627  1.5507017e-15 
  6337.5604  1.5361144e-15 
  6339.8581    1.54263e-15 
  6342.1558   1.611448e-15 
  6344.4535  1.6097587e-15 
  6346.7511  1.5286562e-15 
  6349.0488  1.5661639e-15 
  6351.3465  1.5337805e-15 
  6353.6442  1.5856154e-15 
  6355.9419  1.7006614e-15 
  6358.2395  1.6066226e-15 
  6360.5372  1.3841771e-15 
  6362.8349  1.4638198e-15 
  6365.1326  1.6036396e-15 
  6367.4303   1.575345e-15 
   6369.728  1.5293418e-15 
  6372.0256  1.5275838e-15 
  6374.3233  1.6030239e-15 
   6376.621  1.6185722e-15 
  6378.9187  1.5146213e-15 
  6381.2164  1.3949808e-15 
  6383.5141  1.4720639e-15 
  6385.8117  1.5207949e-15 
  6388.1094  1.5288776e-15 
  6390.4071  1.4551673e-15 
  6392.7048    1.37665e-15 
  6395.0025   1.457835e-15 
  6397.3002  1.5122973e-15 
  6399.5978  1.5354923e-15 
  6401.8955  1.5309853e-15 
  6404.1932  1.4453021e-15 
  6406.4909  1.3719684e-15 
  6408.7886  1.4411656e-15 
  6411.0863   1.520939e-15 
  6413.3839  1.5668006e-15 
  6415.6816   1.548937e-15 
  6417.9793  1.4369495e-15 
   6420.277  1.4021326e-15 
  6422.5747  1.5076426e-15 
  6424.8724   1.512168e-15 
    6427.17  1.4280225e-15 
  6429.4677  1.3776966e-15 
  6431.7654  1.3918294e-15 
  6434.0631  1.4778775e-15 
  6436.3608  1.5284305e-15 
  6438.6585  1.5971025e-15 
  6440.9561   1.575988e-15 
  6443.2538  1.5256754e-15 
  6445.5515  1.4919192e-15 
  6447.8492  1.4125186e-15 
  6450.1469   1.452861e-15 
  6452.4446  1.4748491e-15 
  6454.7422  1.4730259e-15 
  6457.0399  1.5378602e-15 
  6459.3376  1.5360913e-15 
  6461.6353  1.5316382e-15 
   6463.933  1.5357253e-15 
  6466.2307  1.4798255e-15 
  6468.5283  1.3649233e-15 
   6470.826   1.335392e-15 
  6473.1237  1.3463075e-15 
  6475.4214  1.4377269e-15 
  6477.7191  1.3749648e-15 
  6480.0168  1.3807996e-15 
  6482.3144  1.4413325e-15 
  6484.6121  1.3397375e-15 
  6486.9098  1.2961476e-15 
  6489.2075  1.3493926e-15 
  6491.5052  1.4429342e-15 
  6493.8029  1.4611697e-15 
  6496.1005   1.399743e-15 
  6498.3982  1.3919561e-15 
  6500.6959  1.5046744e-15 
  6502.9936  1.5462381e-15 
  6505.2913  1.5406781e-15 
   6507.589  1.4938465e-15 
  6509.8866  1.3757319e-15 
  6512.1843  1.1892681e-15 
   6514.482  1.0653727e-15 
  6516.7797  1.1298433e-15 
  6519.0774  1.3401142e-15 
  6521.3751  1.3625462e-15 
  6523.6727  1.2649783e-15 
  6525.9704  1.3789082e-15 
  6528.2681  1.4676102e-15 
  6530.5658  1.4038227e-15 
  6532.8635  1.3046716e-15 
  6535.1612  1.2704575e-15 
  6537.4588  1.3226271e-15 
  6539.7565  1.3407253e-15 
  6542.0542  1.2944741e-15 
  6544.3519   1.352807e-15 
  6546.6496  1.4110135e-15 
  6548.9473   1.367719e-15 
  6551.2449  1.2636609e-15 
  6553.5426  1.3109031e-15 
  6555.8403  1.3995636e-15 
   6558.138    1.33478e-15 
  6560.4357  1.2839026e-15 
  6562.7334  1.2608832e-15 
   6565.031  1.2190267e-15 
  6567.3287  1.2936048e-15 
  6569.6264  1.3556179e-15 
  6571.9241   1.364966e-15 
  6574.2218  1.4260042e-15 
  6576.5195  1.4991916e-15 
  6578.8171  1.4000364e-15 
  6581.1148  1.2923289e-15 
  6583.4125  1.3477532e-15 
  6585.7102   1.370274e-15 
  6588.0079  1.3232147e-15 
  6590.3056  1.3583131e-15 
  6592.6032  1.3269325e-15 
  6594.9009  1.3072438e-15 
  6597.1986  1.4108322e-15 
  6599.4963  1.4178038e-15 
   6601.794  1.4815666e-15 
  6604.0917   1.496055e-15 
  6606.3893  1.3314461e-15 
   6608.687  1.3036431e-15 
  6610.9847  1.3677991e-15 
  6613.2824  1.4057972e-15 
  6615.5801  1.4320849e-15 
  6617.8778  1.4591514e-15 
  6620.1754  1.4166104e-15 
  6622.4731  1.3657714e-15 
  6624.7708  1.4684683e-15 
  6627.0685  1.4240846e-15 
  6629.3662   1.327104e-15 
  6631.6639  1.3524071e-15 
  6633.9615  1.4532983e-15 
  6636.2592  1.4002278e-15 
  6638.5569  1.3991435e-15 
  6640.8546  1.4290802e-15 
  6643.1523  1.4683126e-15 
    6645.45  1.4381026e-15 
  6647.7476  1.4152421e-15 
  6650.0453  1.4016648e-15 
   6652.343  1.4560195e-15 
  6654.6407  1.4564225e-15 
  6656.9384  1.3593585e-15 
  6659.2361  1.3689342e-15 
  6661.5337  1.3201118e-15 
  6663.8314  1.3150752e-15 
  6666.1291  1.4712325e-15 
  6668.4268   1.517565e-15 
  6670.7245  1.4343854e-15 
  6673.0222  1.3351291e-15 
  6675.3198  1.2846105e-15 
  6677.6175  1.3414695e-15 
  6679.9152  1.4550194e-15 
  6682.2129  1.4976845e-15 
  6684.5106  1.4118421e-15 
  6686.8083  1.3262453e-15 
  6689.1059  1.3240098e-15 
  6691.4036  1.3480109e-15 
  6693.7013  1.3906795e-15 
   6695.999  1.4704637e-15 
  6698.2967  1.4168072e-15 
  6700.5944  1.4219584e-15 
   6702.892  1.4190032e-15 
  6705.1897  1.3661619e-15 
  6707.4874   1.329159e-15 
  6709.7851  1.2748941e-15 
  6712.0828  1.2596956e-15 
  6714.3805  1.2348664e-15 
  6716.6781  1.2821631e-15 
  6718.9758  1.3396758e-15 
  6721.2735  1.3915977e-15 
  6723.5712  1.3723667e-15 
  6725.8689  1.3727185e-15 
  6728.1665  1.4069922e-15 
  6730.4642  1.3244358e-15 
  6732.7619  1.4284896e-15 
  6735.0596  1.4979169e-15 
  6737.3573  1.3974641e-15 
   6739.655  1.3494028e-15 
  6741.9526   1.516951e-15 
  6744.2503  1.5681292e-15 
   6746.548  1.4081389e-15 
  6748.8457  1.3241218e-15 
  6751.1434  1.2846542e-15 
  6753.4411  1.3153426e-15 
  6755.7387  1.4074536e-15 
  6758.0364  1.3368169e-15 
  6760.3341  1.1832292e-15 
  6762.6318  1.0661224e-15 
  6764.9295  1.1296308e-15 
  6767.2272  1.2334477e-15 
  6769.5248  1.2934064e-15 
  6771.8225  1.2373951e-15 
  6774.1202  1.2262666e-15 
  6776.4179  1.2400395e-15 
  6778.7156  1.2563729e-15 
  6781.0133  1.2789514e-15 
  6783.3109  1.2602757e-15 
  6785.6086  1.2293658e-15 
  6787.9063  1.1846994e-15 
   6790.204  1.2749488e-15 
  6792.5017  1.3669029e-15 
  6794.7994  1.3937062e-15 
   6797.097  1.3545358e-15 
  6799.3947  1.4148662e-15 
  6801.6924  1.4717328e-15 
  6803.9901  1.4474336e-15 
  6806.2878  1.4931111e-15 
  6808.5855  1.5275121e-15 
  6810.8831  1.3944061e-15 
  6813.1808  1.3238236e-15 
  6815.4785  1.3247945e-15 
  6817.7762  1.3915663e-15 
  6820.0739   1.417612e-15 
  6822.3716  1.3999967e-15 
  6824.6692  1.3878143e-15 
  6826.9669  1.3301609e-15 
  6829.2646  1.3202616e-15 
  6831.5623  1.3872979e-15 
    6833.86  1.4522381e-15 
  6836.1577  1.5083121e-15 
  6838.4553  1.4337496e-15 
   6840.753  1.2837984e-15 
  6843.0507  1.1793193e-15 
  6845.3484  1.1897122e-15 
  6847.6461  1.3260446e-15 
  6849.9438  1.3341877e-15 
  6852.2414  1.3136163e-15 
  6854.5391  1.2521977e-15 
  6856.8368  1.2539356e-15 
  6859.1345  1.3157633e-15 
  6861.4322   1.356826e-15 
  6863.7299  1.3991737e-15 
  6866.0275   1.359124e-15 
  6868.3252  1.2526139e-15 
  6870.6229  1.2252591e-15 
  6872.9206  1.3032262e-15 
  6875.2183  1.3245516e-15 
   6877.516  1.2776318e-15 
  6879.8136  1.1911314e-15 
  6882.1113  1.1946389e-15 
   6884.409  1.2884328e-15 
  6886.7067  1.3400203e-15 
  6889.0044  1.3378523e-15 
  6891.3021  1.2920966e-15 
  6893.5997  1.2421713e-15 
  6895.8974  1.2043419e-15 
  6898.1951  1.2867108e-15 
  6900.4928  1.2712004e-15 
  6902.7905  1.2274542e-15 
  6905.0882  1.3165891e-15 
  6907.3858  1.3255672e-15 
  6909.6835  1.2458913e-15 
  6911.9812  1.1933144e-15 
  6914.2789  1.2470365e-15 
  6916.5766  1.2280647e-15 
  6918.8743  1.1457454e-15 
  6921.1719  1.0601522e-15 
  6923.4696  1.0401755e-15 
  6925.7673  1.0287359e-15 
   6928.065  1.0875641e-15 
  6930.3627  1.0979681e-15 
  6932.6604  1.1304288e-15 
   6934.958  1.2323682e-15 
  6937.2557  1.1039018e-15 
  6939.5534  9.7905339e-16 
  6941.8511  1.0131942e-15 
  6944.1488  1.1638999e-15 
  6946.4465  1.1432416e-15 
  6948.7441  1.0857007e-15 
  6951.0418   1.217973e-15 
  6953.3395  1.1905367e-15 
  6955.6372  1.1057557e-15 
  6957.9349  1.0511869e-15 
  6960.2326  1.1059722e-15 
  6962.5302  1.1493268e-15 
  6964.8279  1.2251174e-15 
  6967.1256  1.2758053e-15 
  6969.4233  1.3297448e-15 
   6971.721  1.2930419e-15 
  6974.0187  1.2212637e-15 
  6976.3163  1.1868403e-15 
   6978.614  1.1394444e-15 
  6980.9117  1.1623169e-15 
  6983.2094  1.2455189e-15 
  6985.5071  1.1948468e-15 
  6987.8048  1.1307098e-15 
  6990.1024   1.183523e-15 
  6992.4001  1.0992265e-15 
  6994.6978  1.0904715e-15 
  6996.9955  1.1398977e-15 
  6999.2932  1.2403496e-15 
  7001.5909   1.359119e-15 
  7003.8885  1.2944954e-15 
  7006.1862  1.2123408e-15 
  7008.4839  1.1503403e-15 
  7010.7816  1.2805173e-15 
  7013.0793  1.2583409e-15 
   7015.377  1.0881103e-15 
  7017.6746  1.1143858e-15 
  7019.9723   1.139624e-15 
    7022.27  1.1137998e-15 
  7024.5677  1.0726036e-15 
  7026.8654  1.1081053e-15 
  7029.1631  1.1763856e-15 
  7031.4607  1.1570661e-15 
  7033.7584  1.1246442e-15 
  7036.0561   1.102384e-15 
  7038.3538  1.2512768e-15 
  7040.6515  1.2545015e-15 
  7042.9492  1.1879384e-15 
  7045.2468  1.1121287e-15 
  7047.5445  1.0518364e-15 
  7049.8422  9.9640397e-16 
  7052.1399  1.0503751e-15 
  7054.4376  1.0937755e-15 
  7056.7353  1.1116867e-15 
  7059.0329  1.0404333e-15 
  7061.3306  1.0155909e-15 
  7063.6283  1.0853985e-15 
   7065.926  1.1946003e-15 
  7068.2237  1.1707535e-15 
  7070.5214  1.0885732e-15 
   7072.819  1.0846586e-15 
  7075.1167  1.1323308e-15 
  7077.4144  1.1473762e-15 
  7079.7121  1.1943021e-15 
  7082.0098  1.2322457e-15 
  7084.3075   1.165433e-15 
  7086.6051  1.0721759e-15 
  7088.9028  1.0999245e-15 
  7091.2005  1.1093147e-15 
  7093.4982  1.0587825e-15 
  7095.7959  1.0497509e-15 
  7098.0936   1.089608e-15 
  7100.3912  1.1321663e-15 
  7102.6889  1.1539323e-15 
  7104.9866  1.0723095e-15 
  7107.2843  1.0221409e-15 
   7109.582  1.0821024e-15 
  7111.8796  1.1736484e-15 
  7114.1773  1.1728411e-15 
   7116.475  1.1369508e-15 
  7118.7727  1.0985202e-15 
  7121.0704  1.1389409e-15 
  7123.3681  1.1746351e-15 
  7125.6657  1.0871279e-15 
  7127.9634  9.8944046e-16 
  7130.2611  1.1165919e-15 
  7132.5588  1.2623306e-15 
  7134.8565  1.2086065e-15 
  7137.1542  1.0600508e-15 
  7139.4518   1.101669e-15 
  7141.7495  1.2464227e-15 
  7144.0472  1.2621743e-15 
  7146.3449  1.2485733e-15 
  7148.6426  1.2372952e-15 
  7150.9403  1.1549636e-15 
  7153.2379  1.1257886e-15 
  7155.5356  1.1534887e-15 
  7157.8333  1.1232915e-15 
   7160.131  1.1030295e-15 
  7162.4287  1.1159685e-15 
  7164.7264  1.0785807e-15 
   7167.024  1.0104234e-15 
  7169.3217  1.1691723e-15 
  7171.6194  1.2835677e-15 
  7173.9171  1.2733349e-15 
  7176.2148  1.2279043e-15 
  7178.5125  1.2194016e-15 
  7180.8101  1.0667275e-15 
  7183.1078  9.6715269e-16 
  7185.4055  9.9864046e-16 
  7187.7032  1.0278589e-15 
  7190.0009   9.819995e-16 
  7192.2986  9.2948581e-16 
  7194.5962  9.5526191e-16 
  7196.8939  1.1425926e-15 
  7199.1916  1.0757374e-15 
  7201.4893  1.0044695e-15 
   7203.787  1.0547032e-15 
  7206.0847  1.0096875e-15 
  7208.3823  1.0082366e-15 
    7210.68  1.0545284e-15 
  7212.9777  1.0931277e-15 
  7215.2754  1.0389767e-15 
  7217.5731  1.0787806e-15 
  7219.8708  1.1564779e-15 
  7222.1684  1.1180395e-15 
  7224.4661  1.0326151e-15 
  7226.7638  1.0872386e-15 
  7229.0615  1.1439141e-15 
  7231.3592  1.1132282e-15 
  7233.6569  1.1574142e-15 
  7235.9545  1.1573086e-15 
  7238.2522  1.2033392e-15 
  7240.5499  1.2960706e-15 
  7242.8476  1.2465236e-15 
  7245.1453  1.1463208e-15 
   7247.443  1.1595453e-15 
  7249.7406   1.226458e-15 
  7252.0383  1.1111823e-15 
   7254.336  1.0812646e-15 
  7256.6337  1.0176402e-15 
  7258.9314  9.9504075e-16 
  7261.2291  1.0442189e-15 
  7263.5267  1.0692902e-15 
  7265.8244  1.0724562e-15 
  7268.1221  1.1174778e-15 
  7270.4198  1.1275139e-15 
  7272.7175  1.1942121e-15 
  7275.0152  1.1838223e-15 
  7277.3128  1.1718782e-15 
  7279.6105  1.1564009e-15 
  7281.9082  1.0922012e-15 
  7284.2059  1.1033103e-15 
  7286.5036  1.1763517e-15 
  7288.8013  1.0626956e-15 
  7291.0989   9.469307e-16 
  7293.3966  9.9081673e-16 
  7295.6943  1.0883436e-15 
   7297.992  1.1793901e-15 
  7300.2897  1.1749571e-15 
  7302.5874  1.1131941e-15 
   7304.885   9.859356e-16 
  7307.1827  9.8018225e-16 
  7309.4804  9.4880425e-16 
  7311.7781  9.3640239e-16 
  7314.0758  1.0741977e-15 
  7316.3735  1.2704139e-15 
  7318.6711  1.2404606e-15 
  7320.9688  1.2042427e-15 
  7323.2665  1.2372617e-15 
  7325.5642  1.2241998e-15 
  7327.8619   1.222763e-15 
  7330.1596  1.2531413e-15 
  7332.4572  1.2209013e-15 
  7334.7549   1.162375e-15 
  7337.0526  1.1723306e-15 
  7339.3503  1.1173165e-15 
   7341.648  1.0360927e-15 
  7343.9457  1.0584825e-15 
  7346.2433   1.166942e-15 
   7348.541  1.1638136e-15 
  7350.8387  1.0886732e-15 
  7353.1364  1.0806631e-15 
  7355.4341  1.1012338e-15 
  7357.7318  1.0590379e-15 
  7360.0294  1.0643221e-15 
  7362.3271  1.0972994e-15 
  7364.6248  1.1495956e-15 
  7366.9225  1.0833585e-15 
  7369.2202  1.0237051e-15 
  7371.5179  1.1007874e-15 
  7373.8155  1.0387111e-15 
  7376.1132  1.0415969e-15 
  7378.4109   1.025596e-15 
  7380.7086  9.9073411e-16 
  7383.0063  9.7958439e-16 
   7385.304   9.102297e-16 
  7387.6016  9.6117461e-16 
  7389.8993  1.0537593e-15 
   7392.197  1.1546145e-15 
  7394.4947  1.1418798e-15 
  7396.7924  9.7424334e-16 
  7399.0901  9.0855319e-16 
  7401.3877   9.196907e-16 
  7403.6854  9.6303068e-16 
  7405.9831  9.5964455e-16 
  7408.2808  9.1592255e-16 
  7410.5785   9.775216e-16 
  7412.8762  1.0623438e-15 
  7415.1738  1.0577837e-15 
  7417.4715  9.9065852e-16 
  7419.7692  1.0092919e-15 
  7422.0669  1.0304167e-15 
  7424.3646  9.3772304e-16 
  7426.6623  8.7614033e-16 
  7428.9599   9.537246e-16 
  7431.2576  9.7463565e-16 
  7433.5553  9.1111959e-16 
   7435.853  9.0116565e-16 
  7438.1507  9.6475404e-16 
  7440.4484   1.000969e-15 
   7442.746  1.0220476e-15 
  7445.0437  9.9334244e-16 
  7447.3414  9.5929729e-16 
  7449.6391  9.6048173e-16 
  7451.9368  9.2612828e-16 
  7454.2345  8.7326708e-16 
  7456.5321  8.8468236e-16 
  7458.8298  1.0641188e-15 
  7461.1275  1.0487485e-15 
  7463.4252   1.009311e-15 
  7465.7229  1.0432397e-15 
  7468.0206  1.0260509e-15 
  7470.3182  9.8971474e-16 
  7472.6159  1.0763308e-15 
  7474.9136  1.1239784e-15 
  7477.2113  1.0322987e-15 
   7479.509  9.6899184e-16 
  7481.8066  9.5112874e-16 
  7484.1043  9.5122076e-16 
   7486.402  1.0151916e-15 
  7488.6997  1.0283171e-15 
  7490.9974  1.0461311e-15 
  7493.2951  1.0619586e-15 
  7495.5927  9.9055088e-16 
  7497.8904  9.3596036e-16 
  7500.1881  9.9452962e-16 
  7502.4858  1.0028769e-15 
  7504.7835   9.705644e-16 
  7507.0812  9.4259256e-16 
  7509.3788  1.0170968e-15 
  7511.6765  9.3009835e-16 
  7513.9742  8.8390892e-16 
  7516.2719  9.1937557e-16 
  7518.5696  9.7335603e-16 
  7520.8673  9.5040925e-16 
  7523.1649  1.0134176e-15 
  7525.4626  1.1479323e-15 
  7527.7603  1.1548269e-15 
   7530.058  1.0915856e-15 
  7532.3557   9.502154e-16 
  7534.6534  1.0133446e-15 
   7536.951  1.0592911e-15 
  7539.2487  9.6587594e-16 
  7541.5464  9.3472506e-16 
  7543.8441  9.6947371e-16 
  7546.1418    1.06582e-15 
  7548.4395  1.0290129e-15 
  7550.7371  9.7638066e-16 
  7553.0348  9.2784043e-16 
  7555.3325  8.7622606e-16 
  7557.6302  9.8122277e-16 
  7559.9279  1.0486083e-15 
  7562.2256  1.0087796e-15 
  7564.5232  9.4394042e-16 
  7566.8209  9.1457294e-16 
  7569.1186  1.0211685e-15 
  7571.4163   1.073031e-15 
   7573.714  1.0569085e-15 
  7576.0117  1.1027766e-15 
  7578.3093  1.0002941e-15 
   7580.607  9.9721778e-16 
  7582.9047  9.7383374e-16 
  7585.2024  9.0425167e-16 
  7587.5001  8.7044448e-16 
  7589.7978   9.559204e-16 
  7592.0954  1.1938234e-15 
  7594.3931  1.0977992e-15 
  7596.6908  8.5918373e-16 
  7598.9885  1.0151059e-15 
  7601.2862  1.0487787e-15 
  7603.5839  9.9049979e-16 
  7605.8815  1.0905659e-15 
  7608.1792  1.1367125e-15 
  7610.4769  9.8683986e-16 
  7612.7746  7.4493168e-16 
  7615.0723  7.3908905e-16 
    7617.37  8.3602898e-16 
  7619.6676  9.0178654e-16 
  7621.9653  9.1647084e-16 
   7624.263  8.8884165e-16 
  7626.5607  9.7113665e-16 
  7628.8584  1.0512621e-15 
  7631.1561  1.0541226e-15 
  7633.4537  1.0409873e-15 
  7635.7514  1.0278403e-15 
  7638.0491   9.769229e-16 
  7640.3468  9.0241951e-16 
  7642.6445  7.3731195e-16 
  7644.9422   7.107515e-16 
  7647.2398  7.8199427e-16 
  7649.5375  7.4141352e-16 
  7651.8352  7.7927758e-16 
  7654.1329  8.1561179e-16 
  7656.4306  8.3249009e-16 
  7658.7283  8.0659689e-16 
  7661.0259  6.5427226e-16 
  7663.3236  6.7960449e-16 
  7665.6213  8.9143289e-16 
   7667.919   9.234486e-16 
  7670.2167  8.4256336e-16 
  7672.5144  9.2014725e-16 
   7674.812  9.1828752e-16 
  7677.1097  8.0052183e-16 
  7679.4074  7.6907641e-16 
  7681.7051  9.1155718e-16 
  7684.0028   9.741101e-16 
  7686.3005  9.1627209e-16 
  7688.5981  7.6996988e-16 
  7690.8958  6.4876343e-16 
  7693.1935  6.9008288e-16 
  7695.4912  8.3321534e-16 
  7697.7889  8.8616191e-16 
  7700.0866  9.5063224e-16 
  7702.3842  8.9758858e-16 
  7704.6819  8.6487382e-16 
  7706.9796  8.7548747e-16 
  7709.2773  9.4149848e-16 
   7711.575  1.0510329e-15 
  7713.8727  1.0995642e-15 
  7716.1703  1.0337323e-15 
   7718.468  9.4186469e-16 
  7720.7657  8.1307246e-16 
  7723.0634  5.9384965e-16 
  7725.3611  6.9412377e-16 
  7727.6588  8.2694856e-16 
  7729.9564  8.5794669e-16 
  7732.2541  7.0654729e-16 
  7734.5518  7.2780992e-16 
  7736.8495  7.4632493e-16 
  7739.1472  6.5366859e-16 
  7741.4449   6.047566e-16 
  7743.7425  5.7821691e-16 
  7746.0402  6.8129624e-16 
  7748.3379  8.1023282e-16 
  7750.6356   8.703149e-16 
  7752.9333  8.6404377e-16 
   7755.231  8.6526831e-16 
  7757.5286  9.3522608e-16 
  7759.8263  1.0149932e-15 
   7762.124  9.2410616e-16 
  7764.4217   7.093556e-16 
  7766.7194  7.2680557e-16 
  7769.0171  7.5033188e-16 
  7771.3147  7.3317345e-16 
  7773.6124  7.3724171e-16 
  7775.9101  7.7439951e-16 
  7778.2078  7.2372027e-16 
  7780.5055  6.8155623e-16 
  7782.8032  8.0748946e-16 
  7785.1008  9.4663096e-16 
  7787.3985  8.6694215e-16 
  7789.6962  8.4743279e-16 
  7791.9939  9.1373835e-16 
  7794.2916  8.4092509e-16 
  7796.5893  8.9227864e-16 
  7798.8869  8.9129455e-16 
  7801.1846  7.7436251e-16 
  7803.4823  7.4196478e-16 
    7805.78  7.6687714e-16 
  7808.0777  7.3493287e-16 
  7810.3754  6.2661391e-16 
   7812.673  7.4295573e-16 
  7814.9707  8.7636663e-16 
  7817.2684  9.6274887e-16 
  7819.5661  1.0481547e-15 
  7821.8638  8.8977204e-16 
  7824.1615  8.5340324e-16 
  7826.4591  8.9769764e-16 
  7828.7568  1.0120608e-15 
  7831.0545  1.0667561e-15 
  7833.3522  9.4795616e-16 
  7835.6499  6.9751242e-16 
  7837.9476  6.1653722e-16 
  7840.2452  6.7811275e-16 
  7842.5429  7.5435251e-16 
  7844.8406  7.9193917e-16 
  7847.1383  8.6557802e-16 
   7849.436  1.0553939e-15 
  7851.7337  1.1003242e-15 
  7854.0313  9.4772708e-16 
   7856.329  8.1748948e-16 
  7858.6267  8.7615617e-16 
  7860.9244  8.7007584e-16 
  7863.2221  8.6366025e-16 
  7865.5197  8.7223036e-16 
  7867.8174  7.9835663e-16 
  7870.1151   8.221956e-16 
  7872.4128  9.0018644e-16 
  7874.7105  8.8412162e-16 
  7877.0082  8.0101003e-16 
  7879.3058  7.0908394e-16 
  7881.6035  7.9031311e-16 
  7883.9012  7.5586667e-16 
  7886.1989  9.0560395e-16 
  7888.4966  7.9031073e-16 
