# STATUS =
# OBJECT = 2017egm
# TELESCOPE = XLT
# INSTRUMENT = BFOSC
# DATE-OBS = 2017-05-30 13:26:36.00
# MJD = 57903.56013889983
# EXPTIME = 3000
# AIRMASS = --
# SLIT = --
# DISPERSER = --
# SOURCE = 2023NatAs.tmp...90L
# FILTER =
# RESOLUTION =
# FLUX_STANDARD =
# EXTINCTION_CORRECTED = --
# PHOTOMETRY_CALIBRATED =
# TELLURIC_CORRECTED =
# FLUX_UNITS = erg cm(-2) sec(-1) Ang(-1)
# WAVE_UNITS = Angstrom
# QUALITY = --
# MIN_WAVE = 3721.4246
# MAX_WAVE = 8793.3926
# COMMENT = --
 Wavelength            Flux 
  3724.1809  3.84482104e-15 
  3726.9375  2.62149709e-15 
  3729.6938  5.79470401e-15 
  3732.4504  4.37838996e-15 
   3735.207  2.60433493e-15 
  3737.9634    5.020507e-15 
    3740.72  1.37096804e-15 
  3743.4766  2.63490499e-15 
  3746.2329   3.8994661e-15 
  3748.9895  4.10694809e-15 
  3751.7461  5.47913596e-15 
  3754.5024  3.69959216e-15 
   3757.259  5.83704211e-15 
  3760.0156  5.97755979e-15 
   3762.772  5.76167396e-15 
  3765.5286  3.94361684e-15 
  3768.2849  3.41706707e-15 
  3771.0415  5.75654094e-15 
  3773.7981  4.12993783e-15 
  3776.5544  4.87451791e-15 
   3779.311  5.09392994e-15 
  3782.0676  5.56893119e-15 
   3784.824  5.52362509e-15 
  3787.5806  4.71439607e-15 
  3790.3372   3.1005749e-15 
  3793.0935   3.6358182e-15 
  3795.8501  3.80930579e-15 
  3798.6064  3.77526989e-15 
   3801.363  4.33268999e-15 
  3804.1196  4.95430503e-15 
   3806.876  3.59026307e-15 
  3809.6326  4.27322913e-15 
  3812.3892  2.88327601e-15 
  3815.1455  3.79824905e-15 
  3817.9021  4.78366092e-15 
  3820.6587  5.16908209e-15 
   3823.415  4.44987192e-15 
  3826.1716  4.08103481e-15 
  3828.9282  4.28367897e-15 
  3831.6846  3.57862908e-15 
  3834.4412  4.43601192e-15 
  3837.1975  4.80389696e-15 
  3839.9541  3.24865003e-15 
  3842.7107  3.36797706e-15 
   3845.467  4.24916704e-15 
  3848.2236  4.83567383e-15 
  3850.9802  4.93422399e-15 
  3853.7366  4.26783099e-15 
  3856.4932  4.88230595e-15 
  3859.2498  4.78137012e-15 
  3862.0061  3.96292199e-15 
  3864.7627   4.0114862e-15 
  3867.5193  4.32927179e-15 
  3870.2756   4.6861039e-15 
  3873.0322  5.17372891e-15 
  3875.7886  4.27061307e-15 
  3878.5452  4.59574285e-15 
  3881.3018  4.80153798e-15 
  3884.0581  4.45358404e-15 
  3886.8147  3.73989483e-15 
  3889.5713  3.71367493e-15 
  3892.3276   4.4184381e-15 
  3895.0842  4.44378514e-15 
  3897.8408  3.68243212e-15 
  3900.5972  3.65691991e-15 
  3903.3538  4.30492595e-15 
  3906.1101  3.93641706e-15 
  3908.8667    4.698352e-15 
  3911.6233  4.24650397e-15 
  3914.3796  3.91634408e-15 
  3917.1362   4.1879291e-15 
  3919.8928    4.616903e-15 
  3922.6492  3.88302307e-15 
  3925.4058  4.75874502e-15 
  3928.1624  4.41286081e-15 
  3930.9187  4.25545287e-15 
  3933.6753    4.272402e-15 
  3936.4319   3.9506019e-15 
  3939.1882  3.33415292e-15 
  3941.9448  4.75042589e-15 
  3944.7012  4.65857194e-15 
  3947.4578   4.4909492e-15 
  3950.2144  4.76661311e-15 
  3952.9707  4.52993983e-15 
  3955.7273  3.89874697e-15 
  3958.4839  3.88625408e-15 
  3961.2402  4.18405816e-15 
  3963.9968  4.48395907e-15 
  3966.7534  4.57578082e-15 
  3969.5098  4.39579183e-15 
  3972.2664  4.47046117e-15 
  3975.0229  4.95046712e-15 
  3977.7793  5.10006203e-15 
  3980.5359  4.14054607e-15 
  3983.2922  4.31295285e-15 
  3986.0488  4.72815189e-15 
  3988.8054  4.23042686e-15 
  3991.5618    4.375909e-15 
  3994.3184  4.41406699e-15 
   3997.075  4.13263394e-15 
  3999.8313  4.13985998e-15 
  4002.5879  4.08703604e-15 
  4005.3445  4.57824188e-15 
  4008.1008  4.56253492e-15 
  4010.8574  4.20360387e-15 
   4013.614   3.8762341e-15 
  4016.3704  4.46287811e-15 
   4019.127  4.17437996e-15 
  4021.8833  4.10408596e-15 
  4024.6399  4.50247393e-15 
  4027.3965  4.43813204e-15 
  4030.1528  4.52597402e-15 
  4032.9094  4.06055906e-15 
   4035.666  4.29398397e-15 
  4038.4224  4.45742491e-15 
   4041.179  4.42141203e-15 
  4043.9355  4.05127515e-15 
  4046.6919  3.88353807e-15 
  4049.4485  3.86173417e-15 
  4052.2048   4.2361168e-15 
  4054.9614   4.0117382e-15 
   4057.718  3.96314307e-15 
  4060.4744  4.08902614e-15 
   4063.231  3.79542801e-15 
  4065.9875  3.90785808e-15 
  4068.7439  3.96009121e-15 
  4071.5005  3.62321393e-15 
  4074.2571  3.88336697e-15 
  4077.0134  4.08478589e-15 
    4079.77  4.07436104e-15 
  4082.5266  3.94689105e-15 
   4085.283  3.67203182e-15 
  4088.0396  3.82983914e-15 
  4090.7959  4.15250703e-15 
  4093.5525  3.51199109e-15 
  4096.3091  3.98772905e-15 
  4099.0654  4.21592989e-15 
  4101.8223  3.97914183e-15 
  4104.5786   4.0238982e-15 
   4107.335   4.1718829e-15 
  4110.0913  3.98459799e-15 
  4112.8481  3.34888791e-15 
  4115.6045  3.98752618e-15 
  4118.3608  3.86905084e-15 
  4121.1177    4.040229e-15 
   4123.874  4.21449501e-15 
  4126.6304  3.95853098e-15 
  4129.3872  3.74826182e-15 
  4132.1436  3.76843984e-15 
  4134.8999  3.76118882e-15 
  4137.6567  3.95036897e-15 
  4140.4131  3.79138088e-15 
  4143.1694  3.52064099e-15 
  4145.9263   4.0271669e-15 
  4148.6826  4.03822619e-15 
   4151.439    3.514111e-15 
  4154.1958  3.62253715e-15 
  4156.9521  3.65752088e-15 
  4159.7085  3.73812496e-15 
  4162.4653  3.34970296e-15 
  4165.2217  3.85540302e-15 
   4167.978  3.60827311e-15 
  4170.7349  3.51553507e-15 
  4173.4912  3.56206492e-15 
  4176.2476  3.65487305e-15 
  4179.0039  3.57476999e-15 
  4181.7607  3.79414306e-15 
  4184.5171  3.45308397e-15 
  4187.2734  3.63267401e-15 
  4190.0303  3.40364202e-15 
  4192.7866   3.2004799e-15 
   4195.543  3.35500793e-15 
  4198.2998  3.44966492e-15 
  4201.0562  3.56721107e-15 
  4203.8125  3.38975703e-15 
  4206.5693  3.64620282e-15 
  4209.3257  3.46396199e-15 
   4212.082  3.42339695e-15 
  4214.8389  3.51843002e-15 
  4217.5952  3.62861715e-15 
  4220.3516  3.33948203e-15 
  4223.1084  3.32645996e-15 
  4225.8647   3.2846701e-15 
  4228.6211  3.27997902e-15 
  4231.3779  3.53299793e-15 
  4234.1343  2.98887603e-15 
  4236.8906  3.16064309e-15 
  4239.6475  3.35919291e-15 
  4242.4038   3.5509059e-15 
  4245.1602  3.10512305e-15 
   4247.917   3.0779191e-15 
  4250.6733  3.20191202e-15 
  4253.4297  2.98089105e-15 
   4256.186  3.18802491e-15 
  4258.9429  3.25102595e-15 
  4261.6992  3.43778698e-15 
  4264.4556  3.41621008e-15 
  4267.2124  3.21490402e-15 
  4269.9688  3.41345299e-15 
  4272.7251  3.34722899e-15 
  4275.4819   3.4847791e-15 
  4278.2383    3.288652e-15 
  4280.9946  3.66409893e-15 
  4283.7515  3.37588496e-15 
  4286.5078  3.04075405e-15 
  4289.2642  3.41596402e-15 
   4292.021  2.83789792e-15 
  4294.7773  3.26432607e-15 
  4297.5337  3.28445707e-15 
  4300.2905  3.41359805e-15 
  4303.0469  3.58666107e-15 
  4305.8032  3.50935703e-15 
  4308.5601  3.33630904e-15 
  4311.3164  3.48665697e-15 
  4314.0728  3.46446492e-15 
  4316.8296  3.07814505e-15 
  4319.5859  3.43840997e-15 
  4322.3423  3.41686696e-15 
  4325.0986  3.06287897e-15 
  4327.8555  3.46785199e-15 
  4330.6118  3.52240006e-15 
  4333.3682  3.12893399e-15 
   4336.125  3.16186409e-15 
  4338.8813  3.33209908e-15 
  4341.6377  3.26980298e-15 
  4344.3945  3.31394102e-15 
  4347.1509  3.31776707e-15 
  4349.9072  3.72094289e-15 
  4352.6641  3.57069915e-15 
  4355.4204  3.53091105e-15 
  4358.1768   3.3455201e-15 
  4360.9336  3.34007897e-15 
  4363.6899  3.49065899e-15 
  4366.4463  3.41738598e-15 
  4369.2031  3.71807103e-15 
  4371.9595  3.51527207e-15 
  4374.7158  3.26207804e-15 
  4377.4727  3.06018795e-15 
   4380.229  3.39686195e-15 
  4382.9854  3.38004199e-15 
  4385.7422  3.35818494e-15 
  4388.4985   3.3955609e-15 
  4391.2549  3.26635407e-15 
  4394.0117   3.1724609e-15 
  4396.7681  3.38038207e-15 
  4399.5244  3.31600503e-15 
  4402.2808  3.08366008e-15 
  4405.0376  3.35866203e-15 
  4407.7939  3.17194103e-15 
  4410.5503  3.23145907e-15 
  4413.3071  3.16446194e-15 
  4416.0635   3.1115461e-15 
  4418.8198  3.24383803e-15 
  4421.5767  3.24876903e-15 
   4424.333  3.01133109e-15 
  4427.0894  2.92339509e-15 
  4429.8462  3.29695208e-15 
  4432.6025  3.17852607e-15 
  4435.3589  3.10723491e-15 
  4438.1157  2.84660796e-15 
  4440.8721  2.92856496e-15 
  4443.6284    3.185325e-15 
  4446.3853  3.03266107e-15 
  4449.1416   2.8946739e-15 
  4451.8979  3.09415291e-15 
  4454.6548   3.2950939e-15 
  4457.4111  2.93903704e-15 
  4460.1675  2.74714405e-15 
  4462.9243  3.05921407e-15 
  4465.6807  2.83178996e-15 
   4468.437  2.78841192e-15 
  4471.1934    2.925587e-15 
  4473.9502  2.99233002e-15 
  4476.7065  2.82959699e-15 
  4479.4629  2.80059501e-15 
  4482.2197  2.93161491e-15 
  4484.9761  2.60039305e-15 
  4487.7324  2.42366196e-15 
  4490.4893  2.67150994e-15 
  4493.2456   2.6470849e-15 
   4496.002  2.75040005e-15 
  4498.7588    2.872535e-15 
  4501.5151  2.63759093e-15 
  4504.2715    2.661343e-15 
  4507.0283  2.94735405e-15 
  4509.7847   2.5073071e-15 
   4512.541  2.52571397e-15 
  4515.2979  2.76231399e-15 
  4518.0542   2.6987501e-15 
  4520.8105  2.74714003e-15 
  4523.5674  2.88455609e-15 
  4526.3237  2.96397602e-15 
  4529.0801  2.84775293e-15 
  4531.8369   2.7229691e-15 
  4534.5933  2.80963306e-15 
  4537.3496  2.82726702e-15 
  4540.1064  2.65948991e-15 
  4542.8628  2.72054807e-15 
  4545.6191   2.9428021e-15 
  4548.3755  2.96669499e-15 
  4551.1323   2.6842851e-15 
  4553.8887  2.82039504e-15 
   4556.645    2.879184e-15 
  4559.4019  2.78474702e-15 
  4562.1582     2.79901e-15 
  4564.9146  2.80700705e-15 
  4567.6714  3.02329501e-15 
  4570.4277  2.71368202e-15 
  4573.1841  2.70676409e-15 
  4575.9409    3.100962e-15 
  4578.6973  2.86722008e-15 
  4581.4536   2.7568879e-15 
  4584.2104   2.7151891e-15 
  4586.9668  2.71335294e-15 
  4589.7231  2.71752501e-15 
    4592.48  2.95819798e-15 
  4595.2363    2.841033e-15 
  4597.9927  2.73489193e-15 
  4600.7495  2.83382009e-15 
  4603.5059  2.88001006e-15 
  4606.2622  2.73640008e-15 
   4609.019  2.58603394e-15 
  4611.7754  2.79167893e-15 
  4614.5317  2.94943797e-15 
  4617.2881  2.79402796e-15 
  4620.0449  3.03770092e-15 
  4622.8013  3.03040902e-15 
  4625.5576  2.96287106e-15 
  4628.3145    2.824522e-15 
  4631.0708  3.18112392e-15 
  4633.8271  3.13304803e-15 
   4636.584  2.96555108e-15 
  4639.3403  2.97498999e-15 
  4642.0967  2.90049407e-15 
  4644.8535  3.03360191e-15 
  4647.6099  2.93172291e-15 
  4650.3662  2.98615409e-15 
   4653.123  2.88210605e-15 
  4655.8794  3.13121505e-15 
  4658.6357  3.08830796e-15 
  4661.3926  3.03564093e-15 
  4664.1489  2.88493598e-15 
  4666.9053  2.88276207e-15 
  4669.6621  3.06165692e-15 
  4672.4185  3.18807002e-15 
  4675.1748  3.09060003e-15 
  4677.9316  2.89824605e-15 
   4680.688   3.0634359e-15 
  4683.4443  3.22965807e-15 
  4686.2007  3.17080706e-15 
  4688.9575  2.83782994e-15 
  4691.7139  2.75806908e-15 
  4694.4702  2.98968897e-15 
  4697.2271  3.04717202e-15 
  4699.9834  2.96276794e-15 
  4702.7397  3.17135509e-15 
  4705.4966  2.97401505e-15 
  4708.2529  2.76297298e-15 
  4711.0093  3.05950905e-15 
  4713.7661  2.95874707e-15 
  4716.5225  2.87568596e-15 
  4719.2788    3.027275e-15 
  4722.0356  2.92854908e-15 
   4724.792  2.78667805e-15 
  4727.5483  2.71255292e-15 
  4730.3052  2.87941989e-15 
  4733.0615  2.96534694e-15 
  4735.8179  2.96871898e-15 
  4738.5747  2.79282009e-15 
  4741.3311   2.7279469e-15 
  4744.0874  2.74610305e-15 
  4746.8442  2.53771897e-15 
  4749.6006  2.61295392e-15 
  4752.3569  2.78616093e-15 
  4755.1138  2.59321805e-15 
  4757.8701  2.55010598e-15 
  4760.6265  2.56613099e-15 
  4763.3828  2.75807501e-15 
  4766.1396  2.74698905e-15 
   4768.896  2.83176794e-15 
  4771.6523   2.8242141e-15 
  4774.4092  2.67875101e-15 
  4777.1655    2.710811e-15 
  4779.9219  2.61607396e-15 
  4782.6787  2.51096797e-15 
  4785.4351  2.71648802e-15 
  4788.1914   2.7044411e-15 
  4790.9482  2.57097391e-15 
  4793.7046  2.41562192e-15 
  4796.4609  2.43038804e-15 
  4799.2178  2.47577905e-15 
  4801.9741  2.62496802e-15 
  4804.7305  2.50566703e-15 
  4807.4873  2.36282996e-15 
  4810.2437  2.58714906e-15 
     4813.0    2.652079e-15 
  4815.7568  2.47913309e-15 
  4818.5132  2.58752408e-15 
  4821.2695  2.49886303e-15 
  4824.0264  2.52355404e-15 
  4826.7827  2.74085907e-15 
  4829.5391  2.56559503e-15 
  4832.2954  2.38713409e-15 
  4835.0522  2.47516304e-15 
  4837.8086  2.35855096e-15 
  4840.5649  2.38481491e-15 
  4843.3218  2.48483298e-15 
  4846.0781  2.57106899e-15 
  4848.8345  2.44442104e-15 
  4851.5913  2.51901606e-15 
  4854.3477  2.46775405e-15 
   4857.104  2.39337397e-15 
  4859.8608  2.35970504e-15 
  4862.6172  2.42416997e-15 
  4865.3735  2.39353893e-15 
  4868.1304  2.47857108e-15 
  4870.8867  2.44568503e-15 
  4873.6431   2.3631279e-15 
  4876.3999  2.41368391e-15 
  4879.1563    2.411193e-15 
  4881.9126    2.321528e-15 
  4884.6694  2.33474891e-15 
  4887.4258    2.593372e-15 
  4890.1821  2.51253604e-15 
   4892.939  2.47829008e-15 
  4895.6953  2.38487696e-15 
  4898.4517  2.33913104e-15 
  4901.2085  2.37005896e-15 
  4903.9648  2.49513693e-15 
  4906.7212  2.26007597e-15 
  4909.4775  2.48249496e-15 
  4912.2344  2.39878291e-15 
  4914.9907  2.32266302e-15 
  4917.7471  2.48272006e-15 
  4920.5039  2.18227303e-15 
  4923.2603  2.15643005e-15 
  4926.0166  2.42111302e-15 
  4928.7734  2.37218798e-15 
  4931.5298  2.42194291e-15 
  4934.2861  2.45969601e-15 
   4937.043  2.20758301e-15 
  4939.7993  2.32960191e-15 
  4942.5557  2.32538898e-15 
  4945.3125  2.33084494e-15 
  4948.0688     2.28431e-15 
  4950.8252  2.32476091e-15 
   4953.582  2.27129407e-15 
  4956.3384    2.089492e-15 
  4959.0947  2.12701196e-15 
  4961.8516  2.32060007e-15 
  4964.6079  2.22584906e-15 
  4967.3643  2.26923896e-15 
  4970.1211  2.09179509e-15 
  4972.8774  2.29217195e-15 
  4975.6338  2.32249594e-15 
  4978.3901  2.21184591e-15 
   4981.147  2.12420193e-15 
  4983.9033  2.09241998e-15 
  4986.6597   2.3153779e-15 
  4989.4165  2.32580805e-15 
  4992.1729    2.311504e-15 
  4994.9292   2.1961379e-15 
   4997.686  2.11810605e-15 
  5000.4424  2.22111796e-15 
  5003.1987  2.18807796e-15 
  5005.9556  2.18488401e-15 
  5008.7119    2.179337e-15 
  5011.4683   2.2631291e-15 
  5014.2251  2.06568508e-15 
  5016.9814  2.03202293e-15 
  5019.7378    2.139295e-15 
  5022.4946  2.17342302e-15 
   5025.251  2.10518901e-15 
  5028.0073  2.06813894e-15 
  5030.7642  2.02112395e-15 
  5033.5205  2.09552203e-15 
  5036.2769  2.08640796e-15 
  5039.0337  2.19098201e-15 
    5041.79  2.21913505e-15 
  5044.5464  2.13719499e-15 
  5047.3032   2.0099861e-15 
  5050.0596   2.0227151e-15 
  5052.8159  2.12736899e-15 
  5055.5723  2.27573104e-15 
  5058.3291  2.19282007e-15 
  5061.0854     1.99629e-15 
  5063.8418  2.08170608e-15 
  5066.5986  2.09774697e-15 
   5069.355  1.82510994e-15 
  5072.1113  2.00736602e-15 
  5074.8682  2.12841804e-15 
  5077.6245  2.04323892e-15 
  5080.3809    2.009941e-15 
  5083.1377    1.937828e-15 
   5085.894  2.04465707e-15 
  5088.6504  2.06686098e-15 
  5091.4072  2.13281202e-15 
  5094.1636  1.99619408e-15 
  5096.9199  2.07865993e-15 
  5099.6768  2.03697109e-15 
  5102.4331  1.99382302e-15 
  5105.1895     2.01963e-15 
  5107.9463   2.0845159e-15 
  5110.7026  2.19622599e-15 
   5113.459     2.03644e-15 
  5116.2158  2.04534909e-15 
  5118.9722  2.03935909e-15 
  5121.7285   2.1094121e-15 
  5124.4849  2.04764307e-15 
  5127.2417    2.047757e-15 
   5129.998  1.86756408e-15 
  5132.7544  1.91654905e-15 
  5135.5112  1.95128291e-15 
  5138.2676  1.86870609e-15 
  5141.0239  1.90240297e-15 
  5143.7808  1.91535791e-15 
  5146.5371  2.01874908e-15 
  5149.2935  2.07618406e-15 
  5152.0503  1.93397506e-15 
  5154.8066  1.97473598e-15 
   5157.563  1.89483197e-15 
  5160.3198  1.94566708e-15 
  5163.0762   1.9154189e-15 
  5165.8325  1.93659493e-15 
  5168.5894  2.02870299e-15 
  5171.3457    1.791185e-15 
  5174.1021  1.87062398e-15 
  5176.8589  1.87431895e-15 
  5179.6152  1.93726303e-15 
  5182.3716  1.96083299e-15 
  5185.1284  2.10451096e-15 
  5187.8848  1.95997198e-15 
  5190.6411  1.91060309e-15 
  5193.3979  1.94102597e-15 
  5196.1543  2.10264897e-15 
  5198.9106  2.14920105e-15 
   5201.667   1.9444429e-15 
  5204.4238  1.89214095e-15 
  5207.1802  1.96472299e-15 
  5209.9365  1.89081301e-15 
  5212.6934  1.78615701e-15 
  5215.4497  1.91670406e-15 
  5218.2061  1.99620699e-15 
  5220.9629  1.94926506e-15 
  5223.7192  1.96330908e-15 
  5226.4756  1.89303796e-15 
  5229.2324   1.8442351e-15 
  5231.9888  1.78439603e-15 
  5234.7451  1.77981591e-15 
   5237.502  1.84643992e-15 
  5240.2583    1.858396e-15 
  5243.0146  1.75900198e-15 
  5245.7715  1.90456099e-15 
  5248.5278  1.71930705e-15 
  5251.2842  1.79795597e-15 
   5254.041  1.72945101e-15 
  5256.7974    1.716648e-15 
  5259.5537  1.82067996e-15 
  5262.3105  1.78263589e-15 
  5265.0669  1.78789703e-15 
  5267.8232  1.84082092e-15 
  5270.5796  1.82383494e-15 
  5273.3364  1.70160597e-15 
  5276.0928  1.62042496e-15 
  5278.8491  1.73116498e-15 
   5281.606  1.73799302e-15 
  5284.3623  1.84308504e-15 
  5287.1187   1.7948751e-15 
  5289.8755  1.69897297e-15 
  5292.6318  1.70741598e-15 
  5295.3882  1.86822794e-15 
   5298.145  1.73360105e-15 
  5300.9014  1.68614698e-15 
  5303.6577  1.65012902e-15 
  5306.4146  1.69410401e-15 
  5309.1709  1.78373492e-15 
  5311.9272  1.75931697e-15 
  5314.6841  1.77241697e-15 
  5317.4404  1.83242407e-15 
  5320.1968  1.82814909e-15 
  5322.9536  1.72115104e-15 
    5325.71  1.60738901e-15 
  5328.4663  1.68421003e-15 
  5331.2231  1.66950003e-15 
  5333.9795  1.71532399e-15 
  5336.7358  1.59929604e-15 
  5339.4927  1.62051104e-15 
   5342.249    1.671313e-15 
  5345.0054  1.71019404e-15 
  5347.7617  1.69098397e-15 
  5350.5186  1.76522905e-15 
  5353.2749  1.81778501e-15 
  5356.0313  1.63659397e-15 
  5358.7881  1.39740997e-15 
  5361.5444  1.65581505e-15 
  5364.3008  1.77948409e-15 
  5367.0576  1.58296101e-15 
   5369.814  1.49996395e-15 
  5372.5703  1.45342998e-15 
  5375.3271  1.58614701e-15 
  5378.0835  1.63693405e-15 
  5380.8398  1.56579504e-15 
  5383.5967  1.61047497e-15 
   5386.353  1.56016904e-15 
  5389.1094  1.52476201e-15 
  5391.8662  1.61830695e-15 
  5394.6226  1.57377896e-15 
  5397.3789  1.53161302e-15 
  5400.1357  1.60152204e-15 
  5402.8921  1.56645805e-15 
  5405.6484  1.48476903e-15 
  5408.4053  1.46434696e-15 
  5411.1616    1.585828e-15 
   5413.918  1.64095502e-15 
  5416.6743  1.62343097e-15 
  5419.4312  1.56700301e-15 
  5422.1875  1.55163699e-15 
  5424.9438  1.58324497e-15 
  5427.7007  1.45262995e-15 
   5430.457  1.40846798e-15 
  5433.2134  1.47238096e-15 
  5435.9702  1.42154204e-15 
  5438.7266  1.52026299e-15 
  5441.4829  1.59316902e-15 
  5444.2397  1.55378602e-15 
  5446.9961  1.47915701e-15 
  5449.7524  1.37444002e-15 
  5452.5093  1.41273703e-15 
  5455.2656  1.42650799e-15 
   5458.022  1.52570105e-15 
  5460.7788  1.64514095e-15 
  5463.5352  1.56619897e-15 
  5466.2915  1.49433701e-15 
  5469.0483  1.47687595e-15 
  5471.8047  1.54940696e-15 
   5474.561  1.55506398e-15 
  5477.3179  1.44591097e-15 
  5480.0742    1.575224e-15 
  5482.8306    1.472189e-15 
  5485.5869  1.49326001e-15 
  5488.3438  1.40910199e-15 
  5491.1001  1.45295299e-15 
  5493.8564  1.50491698e-15 
  5496.6133  1.46240895e-15 
  5499.3696  1.53194305e-15 
   5502.126  1.49432896e-15 
  5504.8828  1.45123404e-15 
  5507.6392  1.45670905e-15 
  5510.3955  1.57935498e-15 
  5513.1523  1.58299902e-15 
  5515.9087  1.44669204e-15 
   5518.665  1.50401902e-15 
  5521.4219    1.419436e-15 
  5524.1782  1.31323903e-15 
  5526.9346  1.45078596e-15 
  5529.6914  1.53051495e-15 
  5532.4478  1.43719797e-15 
  5535.2041  1.58568496e-15 
  5537.9609  1.44739497e-15 
  5540.7173  1.45450295e-15 
  5543.4736  1.31102595e-15 
  5546.2305  1.41636498e-15 
  5548.9868  1.39400701e-15 
  5551.7432  1.53369503e-15 
     5554.5  1.53200795e-15 
  5557.2563  1.49145995e-15 
  5560.0127  1.58052505e-15 
   5562.769  1.46915705e-15 
  5565.5259  1.42766503e-15 
  5568.2822  1.43318197e-15 
  5571.0386  1.31250402e-15 
  5573.7954  1.36756805e-15 
  5576.5518    1.345504e-15 
  5579.3081  1.41472396e-15 
  5582.0649  1.48934597e-15 
  5584.8213  1.43546398e-15 
  5587.5776  1.37927997e-15 
  5590.3345  1.33717004e-15 
  5593.0908  1.46202196e-15 
  5595.8472  1.43750597e-15 
   5598.604  1.41705605e-15 
  5601.3604  1.43377203e-15 
  5604.1167  1.34773996e-15 
  5606.8735  1.40551904e-15 
  5609.6299  1.37439301e-15 
  5612.3862  1.27692303e-15 
  5615.1431  1.24509799e-15 
  5617.8994  1.31357298e-15 
  5620.6558  1.35100897e-15 
  5623.4126  1.33433704e-15 
  5626.1689  1.40793202e-15 
  5628.9253  1.47419096e-15 
  5631.6816  1.33103901e-15 
  5634.4385  1.30213295e-15 
  5637.1948  1.35774903e-15 
  5639.9512  1.36766895e-15 
   5642.708  1.33442195e-15 
  5645.4644  1.42616695e-15 
  5648.2207  1.40131998e-15 
  5650.9775  1.45797399e-15 
  5653.7339  1.52113395e-15 
  5656.4902  1.41459299e-15 
  5659.2471  1.33955095e-15 
  5662.0034  1.32134705e-15 
  5664.7598  1.41314805e-15 
  5667.5166  1.24123001e-15 
  5670.2729  1.33006704e-15 
  5673.0293  1.44894599e-15 
  5675.7861  1.28073002e-15 
  5678.5425  1.29709999e-15 
  5681.2988  1.37348298e-15 
  5684.0557  1.32785395e-15 
   5686.812  1.24047403e-15 
  5689.5684  1.34420603e-15 
  5692.3252  1.36644901e-15 
  5695.0815  1.27048801e-15 
  5697.8379  1.31717297e-15 
  5700.5947  1.31844204e-15 
  5703.3511  1.35117404e-15 
  5706.1074  1.34454601e-15 
  5708.8638  1.27621597e-15 
  5711.6206  1.40419799e-15 
   5714.377  1.46406903e-15 
  5717.1333  1.27558196e-15 
  5719.8901  1.29441097e-15 
  5722.6465  1.35919004e-15 
  5725.4028  1.32003997e-15 
  5728.1597    1.308963e-15 
   5730.916  1.25338504e-15 
  5733.6724  1.35241897e-15 
  5736.4292  1.28942502e-15 
  5739.1855  1.30106696e-15 
  5741.9419  1.36160398e-15 
  5744.6987  1.32748496e-15 
  5747.4551  1.27358296e-15 
  5750.2114  1.27603195e-15 
  5752.9683  1.25557504e-15 
  5755.7246  1.33869502e-15 
   5758.481  1.45925301e-15 
  5761.2378  1.38240902e-15 
  5763.9941  1.30043105e-15 
  5766.7505  1.27695595e-15 
  5769.5073    1.333472e-15 
  5772.2637  1.26123905e-15 
    5775.02  1.24983099e-15 
  5777.7764  1.38752499e-15 
  5780.5332  1.31251196e-15 
  5783.2896  1.33310905e-15 
  5786.0459  1.29761096e-15 
  5788.8027  1.28585605e-15 
  5791.5591  1.33549303e-15 
  5794.3154    1.270902e-15 
  5797.0723  1.28511098e-15 
  5799.8286    1.315088e-15 
   5802.585  1.30601998e-15 
  5805.3418  1.30544104e-15 
  5808.0981    1.272503e-15 
  5810.8545  1.28230603e-15 
  5813.6113  1.35924298e-15 
  5816.3677  1.39381304e-15 
   5819.124    1.307063e-15 
  5821.8809  1.28341903e-15 
  5824.6372  1.21650597e-15 
  5827.3936  1.25677698e-15 
  5830.1504  1.30237499e-15 
  5832.9067  1.22764604e-15 
  5835.6631  1.27398202e-15 
  5838.4199  1.25572603e-15 
  5841.1763  1.32038598e-15 
  5843.9326  1.32167601e-15 
  5846.6895  1.20985697e-15 
  5849.4458  1.17208301e-15 
  5852.2021  1.21452401e-15 
  5854.9585  1.26775601e-15 
  5857.7153  1.22329705e-15 
  5860.4717  1.14105598e-15 
   5863.228  1.15676304e-15 
  5865.9849  1.26676001e-15 
  5868.7412  1.20436195e-15 
  5871.4976  1.14384504e-15 
  5874.2544  1.23350105e-15 
  5877.0107    1.220067e-15 
  5879.7671  1.25570602e-15 
  5882.5239  1.26944097e-15 
  5885.2803  1.21453905e-15 
  5888.0366  1.19806098e-15 
  5890.7935  1.19809295e-15 
  5893.5498  1.26891698e-15 
  5896.3062  1.23019804e-15 
   5899.063  1.20097403e-15 
  5901.8193  1.20754203e-15 
  5904.5757  1.27523796e-15 
  5907.3325  1.28042403e-15 
  5910.0889  1.20374605e-15 
  5912.8452     1.20001e-15 
  5915.6021  1.26855095e-15 
  5918.3584  1.29623495e-15 
  5921.1147  1.17226099e-15 
  5923.8711  1.17375801e-15 
  5926.6279  1.26875805e-15 
  5929.3843  1.28848196e-15 
  5932.1406  1.19160002e-15 
  5934.8975  1.23718903e-15 
  5937.6538  1.35166701e-15 
  5940.4102    1.233801e-15 
   5943.167  1.19713697e-15 
  5945.9233    1.230797e-15 
  5948.6797  1.27762998e-15 
  5951.4365  1.22636998e-15 
  5954.1929  1.13712204e-15 
  5956.9492  1.14470595e-15 
  5959.7061  1.14074702e-15 
  5962.4624  1.14952599e-15 
  5965.2188  1.21400002e-15 
  5967.9756  1.15606805e-15 
  5970.7319  1.20686599e-15 
  5973.4883  1.19817098e-15 
  5976.2451  1.19439798e-15 
  5979.0015  1.11776702e-15 
  5981.7578  1.17237301e-15 
  5984.5146  1.24929705e-15 
   5987.271  1.23700205e-15 
  5990.0273  1.20147801e-15 
  5992.7842  1.09832496e-15 
  5995.5405  1.19837205e-15 
  5998.2969  1.21678104e-15 
  6001.0532  1.18464599e-15 
  6003.8101  1.20405998e-15 
  6006.5664  1.21077198e-15 
  6009.3228  1.15783496e-15 
  6012.0796  1.03079897e-15 
  6014.8359  1.06248097e-15 
  6017.5923  1.08297302e-15 
  6020.3491  1.18090104e-15 
  6023.1055  1.19678005e-15 
  6025.8618  1.21879295e-15 
  6028.6187  1.15986498e-15 
   6031.375  1.13280302e-15 
  6034.1313  1.23192504e-15 
  6036.8882  1.14070499e-15 
  6039.6445  1.03910603e-15 
  6042.4009  1.15739397e-15 
  6045.1577  1.13770903e-15 
  6047.9141  1.09403601e-15 
  6050.6704  1.17049704e-15 
  6053.4272  1.12367401e-15 
  6056.1836  1.12683196e-15 
  6058.9399  1.13012099e-15 
  6061.6968  1.08028697e-15 
  6064.4531  1.12087002e-15 
  6067.2095  1.12953103e-15 
  6069.9658  1.14605697e-15 
  6072.7227  1.12507596e-15 
   6075.479  1.11763605e-15 
  6078.2354  1.16839799e-15 
  6080.9922    1.149193e-15 
  6083.7485  1.13032905e-15 
  6086.5049    1.109025e-15 
  6089.2617  1.10195302e-15 
  6092.0181  1.09061305e-15 
  6094.7744  1.11689997e-15 
  6097.5313  1.16669005e-15 
  6100.2876  1.09807795e-15 
  6103.0439  1.04075203e-15 
  6105.8008   9.7505806e-16 
  6108.5571  1.15056604e-15 
  6111.3135  1.02955595e-15 
  6114.0703  1.00761896e-15 
  6116.8267  1.12316505e-15 
   6119.583  1.08957998e-15 
  6122.3398  1.01897799e-15 
  6125.0962  1.11661103e-15 
  6127.8525    1.117646e-15 
  6130.6094  1.08102305e-15 
  6133.3657  1.20743297e-15 
  6136.1221  1.10722305e-15 
  6138.8784  1.03940302e-15 
  6141.6353  1.10303902e-15 
  6144.3916  1.09772802e-15 
  6147.1479  1.05005997e-15 
  6149.9048  1.15458299e-15 
  6152.6611  1.04787505e-15 
  6155.4175  1.00915198e-15 
  6158.1743  1.06324997e-15 
  6160.9307  1.07626897e-15 
   6163.687  1.11631796e-15 
  6166.4438  1.11771598e-15 
  6169.2002  1.14749205e-15 
  6171.9565    1.124767e-15 
  6174.7134  1.04260502e-15 
  6177.4697  1.02751597e-15 
  6180.2261  1.04137799e-15 
  6182.9829  1.03645598e-15 
  6185.7393  1.00288701e-15 
  6188.4956  1.03687897e-15 
  6191.2524    1.085285e-15 
  6194.0088  1.00786905e-15 
  6196.7651  1.04596202e-15 
   6199.522  1.14561344e-15 
  6202.2783  1.09995063e-15 
  6205.0347  1.10087252e-15 
  6207.7915  1.07277051e-15 
  6210.5479  9.92317838e-16 
  6213.3042  1.03368852e-15 
  6216.0605  1.11222721e-15 
  6218.8174  1.10058061e-15 
  6221.5737  1.03771415e-15 
  6224.3301   1.0664329e-15 
  6227.0869  1.11471696e-15 
  6229.8433  1.06929005e-15 
  6232.5996  1.08441742e-15 
  6235.3564  1.06305959e-15 
  6238.1128  1.08704831e-15 
  6240.8691   1.1114112e-15 
   6243.626  1.04340007e-15 
  6246.3823    9.954958e-16 
  6249.1387  1.07196996e-15 
  6251.8955  9.99972052e-16 
  6254.6519  9.18023731e-16 
  6257.4082  1.00460458e-15 
   6260.165  1.04012395e-15 
  6262.9214  1.01538752e-15 
  6265.6777  9.46446663e-16 
  6268.4346  9.35417553e-16 
  6271.1909  9.77850092e-16 
  6273.9473  9.21760311e-16 
  6276.7041  1.04738472e-15 
  6279.4604  1.04075256e-15 
  6282.2168  1.01200955e-15 
  6284.9731  9.30931984e-16 
    6287.73  9.34445689e-16 
  6290.4863  9.41632234e-16 
  6293.2427  1.00129099e-15 
  6295.9995  1.00462427e-15 
  6298.7559  8.83531226e-16 
  6301.5122  8.82220602e-16 
   6304.269  9.16278844e-16 
  6307.0254  9.70937774e-16 
  6309.7817  9.76136439e-16 
  6312.5386  8.94496862e-16 
  6315.2949  9.48964998e-16 
  6318.0513   1.0139085e-15 
  6320.8081  9.97758331e-16 
  6323.5645  9.72819881e-16 
  6326.3208  9.64704035e-16 
  6329.0776  9.03917774e-16 
   6331.834  9.29863982e-16 
  6334.5903  9.61421147e-16 
  6337.3472  1.01301636e-15 
  6340.1035  9.66656975e-16 
  6342.8599  8.83511215e-16 
  6345.6167  9.77625205e-16 
   6348.373   9.0940136e-16 
  6351.1294  9.10225523e-16 
  6353.8862  8.92161063e-16 
  6356.6426  8.75103778e-16 
  6359.3989  8.50336429e-16 
  6362.1553  9.28385591e-16 
  6364.9121  1.02093749e-15 
  6367.6685  9.78649691e-16 
  6370.4248  8.91858884e-16 
  6373.1816  9.33764992e-16 
   6375.938  9.38376663e-16 
  6378.6943   9.2149699e-16 
  6381.4512  8.72728803e-16 
  6384.2075  9.16380488e-16 
  6386.9639  9.09884486e-16 
  6389.7207  9.69567169e-16 
  6392.4771  9.71180237e-16 
  6395.2334  8.92091924e-16 
  6397.9902  8.95788375e-16 
  6400.7466  9.13952362e-16 
  6403.5029  8.78601177e-16 
  6406.2598  9.32097925e-16 
  6409.0161  9.25255699e-16 
  6411.7725  9.06034721e-16 
  6414.5293  9.34795196e-16 
  6417.2856  8.77373085e-16 
   6420.042  8.99681657e-16 
  6422.7988  8.89097768e-16 
  6425.5552  8.94646363e-16 
  6428.3115  8.83525774e-16 
  6431.0679  9.40855716e-16 
  6433.8247  9.31341101e-16 
  6436.5811  8.90453127e-16 
  6439.3374  9.37879348e-16 
  6442.0942  1.02406802e-15 
  6444.8506  9.17053879e-16 
  6447.6069  9.68923847e-16 
  6450.3638  8.80284126e-16 
  6453.1201   8.7445061e-16 
  6455.8765  8.95319225e-16 
  6458.6333  9.30933996e-16 
  6461.3896  9.15916102e-16 
   6464.146  8.62018125e-16 
  6466.9028  8.45771874e-16 
  6469.6592  9.05877067e-16 
  6472.4155  8.79052116e-16 
  6475.1724  9.09878133e-16 
  6477.9287  8.81493106e-16 
  6480.6851  9.15142231e-16 
  6483.4419  8.23350488e-16 
  6486.1982  8.60671395e-16 
  6488.9546  9.68619021e-16 
  6491.7114  8.66698405e-16 
  6494.4678   8.3712912e-16 
  6497.2241  8.70787192e-16 
   6499.981   8.5077948e-16 
  6502.7373  8.60785586e-16 
  6505.4937  8.67795207e-16 
    6508.25  8.80594616e-16 
  6511.0068  8.99481227e-16 
  6513.7632    9.094309e-16 
  6516.5195  8.80908124e-16 
  6519.2764  8.69175183e-16 
  6522.0327  9.00381412e-16 
  6524.7891  9.01866154e-16 
  6527.5459   9.6019962e-16 
  6530.3022  1.02830996e-15 
  6533.0586   8.7464998e-16 
  6535.8154  9.33708346e-16 
  6538.5718  9.21400958e-16 
  6541.3281  9.11967446e-16 
   6544.085  9.08770532e-16 
  6546.8413  8.58420988e-16 
  6549.5977  8.15873093e-16 
  6552.3545  8.57485704e-16 
  6555.1108  8.35522617e-16 
  6557.8672  8.06723126e-16 
   6560.624  8.23458485e-16 
  6563.3804  9.03582667e-16 
  6566.1367  8.93086764e-16 
  6568.8936  9.05410352e-16 
  6571.6499    8.905589e-16 
  6574.4063  9.20805176e-16 
  6577.1626   9.6559289e-16 
  6579.9194  9.09358373e-16 
  6582.6758  8.91513824e-16 
  6585.4321  9.28840236e-16 
   6588.189  9.28019991e-16 
  6590.9453  9.33571339e-16 
  6593.7017  9.27900877e-16 
  6596.4585  8.93255641e-16 
  6599.2148  9.39547262e-16 
  6601.9712  9.56473204e-16 
   6604.728  9.48461119e-16 
  6607.4844  9.14653281e-16 
  6610.2407  9.00960782e-16 
  6612.9976  8.91076014e-16 
  6615.7539  9.64814043e-16 
  6618.5103  9.75903928e-16 
  6621.2671  9.84356682e-16 
  6624.0234   9.6437708e-16 
  6626.7798  8.57359708e-16 
  6629.5366  8.84429875e-16 
   6632.293  9.15520855e-16 
  6635.0493  8.77450694e-16 
  6637.8062  8.70240009e-16 
  6640.5625  9.57751377e-16 
  6643.3188  9.61904273e-16 
  6646.0757  9.34553368e-16 
   6648.832  9.41136508e-16 
  6651.5884  9.20247087e-16 
  6654.3447  8.59688414e-16 
  6657.1016  9.03624489e-16 
  6659.8579  9.42680861e-16 
  6662.6143  8.62380178e-16 
  6665.3711  8.88940432e-16 
  6668.1274  9.68585775e-16 
  6670.8838  8.99278045e-16 
  6673.6406   8.8199402e-16 
   6676.397  9.46002289e-16 
  6679.1533  8.66521375e-16 
  6681.9102  8.48055104e-16 
  6684.6665  9.27773822e-16 
  6687.4229  8.73224106e-16 
  6690.1797  8.17423693e-16 
   6692.936  8.68406818e-16 
  6695.6924  8.17439892e-16 
  6698.4492  8.16827276e-16 
  6701.2056  8.99928884e-16 
  6703.9619  8.93093964e-16 
  6706.7188  8.24826867e-16 
  6709.4751  8.55365369e-16 
  6712.2314  8.99878486e-16 
  6714.9883  8.92101982e-16 
  6717.7446   8.5577401e-16 
   6720.501  8.72404549e-16 
  6723.2573  8.99011442e-16 
  6726.0142   8.7325624e-16 
  6728.7705  8.39285243e-16 
  6731.5269   8.8471792e-16 
  6734.2837  9.24444559e-16 
    6737.04  9.26106861e-16 
  6739.7964  8.98038095e-16 
  6742.5532  8.81934622e-16 
  6745.3096  9.23995526e-16 
  6748.0659   9.5106384e-16 
  6750.8228  9.72520984e-16 
  6753.5791  9.57426222e-16 
  6756.3354  1.02450668e-15 
  6759.0923  9.94798798e-16 
  6761.8486  9.96123557e-16 
   6764.605  9.87751166e-16 
  6767.3618  9.60322545e-16 
  6770.1182  1.01179081e-15 
  6772.8745  9.63569646e-16 
  6775.6313  9.62225828e-16 
  6778.3877  9.15375906e-16 
   6781.144   9.2933808e-16 
  6783.9009  9.15297662e-16 
  6786.6572  9.05766741e-16 
  6789.4136  8.90076409e-16 
  6792.1699  8.19582462e-16 
  6794.9268  8.46839771e-16 
  6797.6831  8.56005779e-16 
  6800.4395  8.46530074e-16 
  6803.1963  8.82479423e-16 
  6805.9526  8.63499427e-16 
   6808.709  8.77672882e-16 
  6811.4658  8.64298496e-16 
  6814.2222  8.28671285e-16 
  6816.9785  8.80148177e-16 
  6819.7354   8.5903191e-16 
  6822.4917  8.75849908e-16 
   6825.248  8.61714834e-16 
  6828.0049  8.13280484e-16 
  6830.7612    8.316512e-16 
  6833.5176    8.597404e-16 
  6836.2744  8.40877982e-16 
  6839.0308  8.13352376e-16 
  6841.7871  8.13427709e-16 
  6844.5439  8.25887405e-16 
  6847.3003  8.64749594e-16 
  6850.0566  8.76465542e-16 
  6852.8135  8.44662155e-16 
  6855.5698   9.2290063e-16 
  6858.3262  8.90113043e-16 
   6861.083   7.8133559e-16 
  6863.8394  8.14620755e-16 
  6866.5957  8.62216013e-16 
  6869.3521  8.23210516e-16 
  6872.1089  8.76099889e-16 
  6874.8652  8.50948834e-16 
  6877.6216  8.67305569e-16 
  6880.3784  9.00334295e-16 
  6883.1348  8.13450526e-16 
  6885.8911  8.07825116e-16 
  6888.6479  7.57977915e-16 
  6891.4043  7.82283578e-16 
  6894.1606  7.93790997e-16 
  6896.9175  7.83881559e-16 
  6899.6738  7.51580328e-16 
  6902.4302  7.81698861e-16 
   6905.187  8.31778307e-16 
  6907.9434  8.29752946e-16 
  6910.6997  8.17230093e-16 
  6913.4565  7.92232986e-16 
  6916.2129  7.63213849e-16 
  6918.9692  8.75860072e-16 
  6921.7261   8.8084772e-16 
  6924.4824  8.70834467e-16 
  6927.2388  8.19254555e-16 
  6929.9956  7.63747586e-16 
   6932.752  7.99412067e-16 
  6935.5083   8.7479424e-16 
  6938.2646  8.35900023e-16 
  6941.0215  7.54086487e-16 
  6943.7778  7.81322725e-16 
  6946.5342  8.36123216e-16 
   6949.291  8.18695354e-16 
  6952.0474  7.88391374e-16 
  6954.8037   7.6841712e-16 
  6957.5605  7.68844342e-16 
  6960.3169  7.97867237e-16 
  6963.0732  7.49656822e-16 
  6965.8301  7.30399475e-16 
  6968.5864  8.07487044e-16 
  6971.3428   8.3728868e-16 
  6974.0996  7.86923625e-16 
   6976.856  8.60398386e-16 
  6979.6123  8.07896266e-16 
  6982.3691  8.27736901e-16 
  6985.1255   7.8543327e-16 
  6987.8818   7.8221661e-16 
  6990.6387  8.09290853e-16 
   6993.395  7.66866785e-16 
  6996.1514  7.90924955e-16 
  6998.9082  7.68226643e-16 
  7001.6646  7.64202548e-16 
  7004.4209  7.79900292e-16 
  7007.1777   7.8490758e-16 
  7009.9341  7.74691145e-16 
  7012.6904  7.78081236e-16 
  7015.4468  7.85591083e-16 
  7018.2036  7.83207956e-16 
    7020.96  7.84304916e-16 
  7023.7163  7.96945772e-16 
  7026.4731  8.03785827e-16 
  7029.2295   7.9226925e-16 
  7031.9858  7.82642985e-16 
  7034.7427  7.80477757e-16 
   7037.499  7.72678119e-16 
  7040.2554  7.58194544e-16 
  7043.0122  7.40217699e-16 
  7045.7686  7.12110604e-16 
  7048.5249  6.79039897e-16 
  7051.2817  6.69281177e-16 
  7054.0381  6.93208852e-16 
  7056.7944   7.2676708e-16 
  7059.5513  7.55921637e-16 
  7062.3076  7.83317011e-16 
   7065.064   8.0282238e-16 
  7067.8208  7.97164359e-16 
  7070.5771  7.69673852e-16 
  7073.3335  7.50195906e-16 
  7076.0903  7.56775605e-16 
  7078.8467  7.83959486e-16 
   7081.603  8.07958894e-16 
  7084.3594  8.13252056e-16 
  7087.1162  8.07655444e-16 
  7089.8726  7.97713501e-16 
  7092.6289  8.00402089e-16 
  7095.3857  8.09143046e-16 
  7098.1421  7.84366697e-16 
  7100.8984   7.3780429e-16 
  7103.6553  7.25267197e-16 
  7106.4116  7.43175644e-16 
   7109.168  7.51841902e-16 
  7111.9248  7.54440282e-16 
  7114.6812  7.71139166e-16 
  7117.4375  7.87135383e-16 
  7120.1943  7.79028907e-16 
  7122.9507  7.55474191e-16 
   7125.707  7.42793579e-16 
  7128.4639  7.54504286e-16 
  7131.2202  7.72967857e-16 
  7133.9766  7.74347197e-16 
  7136.7334  7.57052637e-16 
  7139.4897   7.4274011e-16 
  7142.2461  7.50716248e-16 
  7145.0029  7.61399504e-16 
  7147.7593  7.62719976e-16 
  7150.5156  7.69078493e-16 
  7153.2725  7.77967363e-16 
  7156.0288  7.80561507e-16 
  7158.7852   7.7383956e-16 
  7161.5415  7.65093627e-16 
  7164.2983  7.58015184e-16 
  7167.0547  7.41761893e-16 
   7169.811  7.14330731e-16 
  7172.5679  6.96315557e-16 
  7175.3242  7.04941582e-16 
  7178.0806  7.24956071e-16 
  7180.8374  7.23959166e-16 
  7183.5938  6.96024284e-16 
  7186.3501  6.67850803e-16 
  7189.1069  6.77832399e-16 
  7191.8633  7.14882414e-16 
  7194.6196  7.24787246e-16 
  7197.3765   7.1234915e-16 
  7200.1328   7.1838966e-16 
  7202.8892  7.32559674e-16 
   7205.646  7.30597998e-16 
  7208.4023  7.27851123e-16 
  7211.1587  7.47097088e-16 
  7213.9155   7.7267039e-16 
  7216.6719   7.6589095e-16 
  7219.4282  7.30297619e-16 
  7222.1851  7.03194841e-16 
  7224.9414  7.12081911e-16 
  7227.6978  7.38961866e-16 
  7230.4541   7.3777512e-16 
  7233.2109  7.16018179e-16 
  7235.9673  7.03912596e-16 
  7238.7236  6.92725514e-16 
  7241.4805  6.65098899e-16 
  7244.2368  6.50238659e-16 
  7246.9932   6.7083273e-16 
    7249.75  7.03042587e-16 
  7252.5063  7.29319826e-16 
  7255.2627  7.41289195e-16 
  7258.0195  7.26565327e-16 
  7260.7759  7.05768339e-16 
  7263.5322  7.06884517e-16 
  7266.2891  7.12115316e-16 
  7269.0454   7.1234375e-16 
  7271.8018  7.15264637e-16 
  7274.5586  7.20242809e-16 
  7277.3149  7.31313106e-16 
  7280.0713  7.39147578e-16 
  7282.8281  7.24374953e-16 
  7285.5845  6.93813475e-16 
  7288.3408  6.81828594e-16 
  7291.0977  6.97188954e-16 
   7293.854  7.07443506e-16 
  7296.6104  6.97117909e-16 
  7299.3672  6.85163416e-16 
  7302.1235  6.74889806e-16 
  7304.8799  6.53847602e-16 
  7307.6362   6.4790916e-16 
  7310.3931  6.75598296e-16 
  7313.1494  6.96871158e-16 
  7315.9058  6.96453994e-16 
  7318.6626  6.88795387e-16 
  7321.4189  6.72056057e-16 
  7324.1753  6.63962287e-16 
  7326.9321  6.66018565e-16 
  7329.6885  6.58823815e-16 
  7332.4448  6.58139518e-16 
  7335.2017   6.7652495e-16 
   7337.958  6.88067468e-16 
  7340.7144    6.847075e-16 
  7343.4712  6.84170534e-16 
  7346.2275  6.83015446e-16 
  7348.9839  6.82809352e-16 
  7351.7407  6.88700943e-16 
  7354.4971  6.96582955e-16 
  7357.2534  6.93980288e-16 
  7360.0103  6.70729816e-16 
  7362.7666  6.43493048e-16 
  7365.5229   6.3576149e-16 
  7368.2798  6.42261091e-16 
  7371.0361  6.50457247e-16 
  7373.7925  6.61163214e-16 
  7376.5488  6.62968559e-16 
  7379.3057  6.51458493e-16 
   7382.062   6.4479732e-16 
  7384.8184  6.52099114e-16 
  7387.5752  6.61210595e-16 
  7390.3315  6.70648077e-16 
  7393.0879  6.68538912e-16 
  7395.8447  6.46499326e-16 
  7398.6011  6.19630541e-16 
  7401.3574  6.10912825e-16 
  7404.1143  6.35620247e-16 
  7406.8706  6.68740029e-16 
   7409.627   6.6793646e-16 
  7412.3838  6.39519987e-16 
  7415.1401  6.13005208e-16 
  7417.8965  6.03392708e-16 
  7420.6533  6.12554957e-16 
  7423.4097  6.32627468e-16 
   7426.166  6.54128499e-16 
  7428.9229  6.55518321e-16 
  7431.6792  6.35555714e-16 
  7434.4355  6.14630771e-16 
  7437.1924  6.01944017e-16 
  7439.9487  6.01803886e-16 
  7442.7051  6.15525767e-16 
  7445.4614  6.38025609e-16 
  7448.2183   6.4927913e-16 
  7450.9746  6.40636217e-16 
   7453.731   6.3417235e-16 
  7456.4878  6.31813946e-16 
  7459.2441  6.25127256e-16 
  7462.0005  6.21560718e-16 
  7464.7573  6.15440005e-16 
  7467.5137  6.07763186e-16 
    7470.27  6.08157268e-16 
  7473.0269  6.05372489e-16 
  7475.7832  6.08669088e-16 
  7478.5396  6.29351727e-16 
  7481.2964  6.32547158e-16 
  7484.0527  6.19763949e-16 
  7486.8091  6.23256636e-16 
  7489.5659  6.23807155e-16 
  7492.3223  6.10083527e-16 
  7495.0786  6.07950592e-16 
  7497.8354  6.23535893e-16 
  7500.5918  6.36566436e-16 
  7503.3481  6.39864941e-16 
   7506.105  6.38358969e-16 
  7508.8613   6.3271683e-16 
  7511.6177  6.27724576e-16 
  7514.3745  6.36329849e-16 
  7517.1309  6.51046517e-16 
  7519.8872  6.47187223e-16 
  7522.6436  6.23851148e-16 
  7525.4004  6.12273266e-16 
  7528.1567  6.27479413e-16 
  7530.9131  6.48473337e-16 
  7533.6699  6.54288112e-16 
  7536.4263  6.44472218e-16 
  7539.1826  6.38632455e-16 
  7541.9395  6.34619848e-16 
  7544.6958  6.22196469e-16 
  7547.4521  6.05577735e-16 
   7550.209  5.85875431e-16 
  7552.9653  5.78296339e-16 
  7555.7217  5.93773537e-16 
  7558.4785   6.0753094e-16 
  7561.2349   6.0692203e-16 
  7563.9912  6.07642484e-16 
   7566.748  6.12387457e-16 
  7569.5044  6.22297583e-16 
  7572.2607  6.32816886e-16 
  7575.0176  6.41807505e-16 
  7577.7739  6.59405356e-16 
  7580.5303  6.72705202e-16 
  7583.2871    6.677607e-16 
  7586.0435  6.45267952e-16 
  7588.7998  6.22929682e-16 
  7591.5562  6.27529388e-16 
   7594.313  6.27367764e-16 
  7597.0693  5.78050276e-16 
  7599.8257  5.23695484e-16 
  7602.5825  5.12482991e-16 
  7605.3389  5.07407728e-16 
  7608.0952  4.79951155e-16 
  7610.8521  4.64191631e-16 
  7613.6084  4.81289891e-16 
  7616.3647  5.09177339e-16 
  7619.1216  5.37502968e-16 
  7621.8779  5.65910547e-16 
  7624.6343  5.70819527e-16 
  7627.3911  5.59070756e-16 
  7630.1475  5.82037472e-16 
  7632.9038  6.81555002e-16 
  7635.6606  8.07559412e-16 
   7638.417  7.72526076e-16 
  7641.1733  6.02971097e-16 
  7643.9302  5.38200182e-16 
  7646.6865  5.34705906e-16 
  7649.4429   5.1917164e-16 
  7652.1997  5.22557707e-16 
  7654.9561  5.41441989e-16 
  7657.7124  5.57317133e-16 
  7660.4692  5.58599382e-16 
  7663.2256  5.57247147e-16 
  7665.9819   5.7703696e-16 
  7668.7383  6.02740175e-16 
  7671.4951  6.04592318e-16 
  7674.2515  5.89010724e-16 
  7677.0078  5.72198232e-16 
  7679.7646  5.70109978e-16 
   7682.521  5.87016544e-16 
  7685.2773  5.96878495e-16 
  7688.0342  5.93577608e-16 
  7690.7905  5.91881689e-16 
  7693.5469  5.92855989e-16 
  7696.3037  5.89580936e-16 
  7699.0601  5.80914095e-16 
  7701.8164  5.71309165e-16 
  7704.5732  5.66876271e-16 
  7707.3296  5.78687457e-16 
  7710.0859  6.12563322e-16 
  7712.8428  6.40779736e-16 
  7715.5991  6.42960211e-16 
  7718.3555  6.21923989e-16 
  7721.1123  5.82563903e-16 
  7723.8687  5.47375243e-16 
   7726.625   5.3846615e-16 
  7729.3818  5.43215835e-16 
  7732.1382  5.45067766e-16 
  7734.8945   5.4467289e-16 
  7737.6509  5.35058748e-16 
  7740.4077   5.1473234e-16 
  7743.1641  4.99473624e-16 
  7745.9204  5.00611877e-16 
  7748.6772  5.01181295e-16 
  7751.4336  4.90771631e-16 
  7754.1899  4.81163524e-16 
  7756.9468  4.78737834e-16 
  7759.7031  5.01366425e-16 
  7762.4595  5.34304254e-16 
  7765.2163  5.44681784e-16 
  7767.9727  5.58362637e-16 
   7770.729  5.88470846e-16 
  7773.4858  5.98504693e-16 
  7776.2422  5.90842591e-16 
  7778.9985  5.96649637e-16 
  7781.7554  6.08819595e-16 
  7784.5117  5.97738975e-16 
  7787.2681  5.64402087e-16 
  7790.0249  5.54109949e-16 
  7792.7813  5.78466011e-16 
  7795.5376  5.88413724e-16 
  7798.2944  5.64910201e-16 
  7801.0508  5.31078064e-16 
  7803.8071  5.07418846e-16 
   7806.564   5.0769842e-16 
  7809.3203  5.33954694e-16 
  7812.0767  5.64294779e-16 
   7814.833   5.7176238e-16 
  7817.5898   5.5588623e-16 
  7820.3462  5.39226151e-16 
  7823.1025   5.3348115e-16 
  7825.8594  5.34636714e-16 
  7828.6157  5.49295678e-16 
  7831.3721  5.75130024e-16 
  7834.1289  5.82801813e-16 
  7836.8853  5.71480106e-16 
  7839.6416  5.69417528e-16 
  7842.3984  5.71697582e-16 
  7845.1548  5.60350093e-16 
  7847.9111  5.44791633e-16 
   7850.668   5.4488666e-16 
  7853.4243  5.72947591e-16 
  7856.1807  6.02573574e-16 
  7858.9375  5.93950302e-16 
  7861.6938  5.64618187e-16 
  7864.4502  5.45824643e-16 
   7867.207  5.30497211e-16 
  7869.9634  5.11742896e-16 
  7872.7197  5.07513449e-16 
  7875.4766  5.30584773e-16 
  7878.2329  5.62649523e-16 
  7880.9893  5.73885574e-16 
  7883.7456  5.54797263e-16 
  7886.5024  5.25282453e-16 
  7889.2588   5.0969477e-16 
  7892.0151  5.04297688e-16 
   7894.772  4.92781375e-16 
  7897.5283  4.73683323e-16 
  7900.2847  4.59840158e-16 
  7903.0415  4.68123293e-16 
  7905.7979  4.86341913e-16 
  7908.5542  4.99041108e-16 
   7911.311  5.20191838e-16 
  7914.0674  5.53052587e-16 
  7916.8237  5.70348312e-16 
  7919.5806  5.58696632e-16 
  7922.3369  5.35944163e-16 
  7925.0933  5.29482466e-16 
  7927.8501  5.34078784e-16 
  7930.6064  5.17220711e-16 
  7933.3628  4.87731841e-16 
  7936.1196  4.75985877e-16 
   7938.876  4.92069285e-16 
  7941.6323  5.16927426e-16 
  7944.3892   5.2275173e-16 
  7947.1455  5.06741855e-16 
  7949.9019  4.98677307e-16 
  7952.6587  5.08835508e-16 
   7955.415  5.18976399e-16 
  7958.1714   5.1792666e-16 
  7960.9277  4.99567803e-16 
  7963.6846  4.60127832e-16 
  7966.4409  4.31241017e-16 
  7969.1973  4.48117963e-16 
  7971.9541  4.86751401e-16 
  7974.7104  5.05004167e-16 
  7977.4668  4.98937611e-16 
  7980.2236  4.91896702e-16 
    7982.98  4.87973881e-16 
  7985.7363  4.64961002e-16 
  7988.4932  4.39942851e-16 
  7991.2495  4.47803132e-16 
  7994.0059   4.7935135e-16 
  7996.7627  5.12441857e-16 
   7999.519  5.36423583e-16 
  8002.2754  5.27782365e-16 
  8005.0322  4.80679074e-16 
  8007.7886  4.40071574e-16 
  8010.5449  4.37646968e-16 
  8013.3018  4.48014255e-16 
  8016.0581  4.44203136e-16 
  8018.8145  4.31172407e-16 
  8021.5713   4.1831728e-16 
  8024.3276  4.14679644e-16 
   8027.084  4.24036314e-16 
  8029.8403  4.31501665e-16 
  8032.5972  4.39711982e-16 
  8035.3535  4.61369317e-16 
  8038.1099  4.71356312e-16 
  8040.8667  4.49581213e-16 
   8043.623  4.30975128e-16 
  8046.3794  4.38221839e-16 
  8049.1362  4.49090251e-16 
  8051.8926  4.55640939e-16 
  8054.6489  4.63552756e-16 
  8057.4058    4.667358e-16 
  8060.1621  4.66493337e-16 
  8062.9185  4.65345872e-16 
  8065.6753  4.64052135e-16 
  8068.4316  4.75570989e-16 
   8071.188  4.93505377e-16 
  8073.9448  4.96782124e-16 
  8076.7012  4.91651327e-16 
  8079.4575  4.84955003e-16 
  8082.2144  4.70770324e-16 
  8084.9707   4.5486331e-16 
  8087.7271  4.45991275e-16 
  8090.4839  4.49044511e-16 
  8093.2402  4.58342604e-16 
  8095.9966  4.69594642e-16 
  8098.7534  4.78458101e-16 
  8101.5098  4.80202989e-16 
  8104.2661   4.7254724e-16 
  8107.0225  4.62230009e-16 
  8109.7793  4.61008799e-16 
  8112.5356  4.68588103e-16 
   8115.292  4.82218557e-16 
  8118.0488  4.93033632e-16 
  8120.8052  4.90133815e-16 
  8123.5615  4.84467218e-16 
  8126.3184   4.8571892e-16 
  8129.0747  4.86375159e-16 
  8131.8311  4.74847941e-16 
  8134.5879  4.47566492e-16 
  8137.3442  4.29998499e-16 
  8140.1006  4.37283671e-16 
  8142.8574  4.51247591e-16 
  8145.6138  4.51243568e-16 
  8148.3701  4.34324852e-16 
   8151.127  4.17014702e-16 
  8153.8833  4.14916839e-16 
  8156.6396  4.24825166e-16 
  8159.3965  4.38101481e-16 
  8162.1528  4.55207258e-16 
  8164.9092  4.75278763e-16 
   8167.666  4.77801703e-16 
  8170.4224  4.49549078e-16 
  8173.1787    4.103449e-16 
  8175.9351  3.84928829e-16 
  8178.6919  3.93522613e-16 
  8181.4482  4.36796283e-16 
  8184.2046  4.86807781e-16 
  8186.9614   5.0265058e-16 
  8189.7178  4.83969215e-16 
  8192.4746  4.65921855e-16 
  8195.2305  4.74352427e-16 
  8197.9873   4.9875984e-16 
  8200.7441  5.16346679e-16 
     8203.5  5.10666688e-16 
  8206.2568  4.79755861e-16 
  8209.0137  4.60692856e-16 
  8211.7695  4.66795304e-16 
  8214.5264  4.76776794e-16 
  8217.2832  4.83757351e-16 
  8220.0391  4.82700995e-16 
  8222.7959  4.76904431e-16 
  8225.5527  4.73202209e-16 
  8228.3086  4.70244899e-16 
  8231.0654  4.69085311e-16 
  8233.8223  4.63288217e-16 
  8236.5781  4.58064883e-16 
   8239.335  4.70568466e-16 
  8242.0918   4.9090668e-16 
  8244.8477   5.0049774e-16 
  8247.6045  5.02827821e-16 
  8250.3613  4.97003464e-16 
  8253.1172  4.76349201e-16 
   8255.874  4.61283238e-16 
  8258.6309  4.73360392e-16 
  8261.3867  4.90379455e-16 
  8264.1436  4.79028842e-16 
  8266.9004  4.48435336e-16 
  8269.6563     4.29379e-16 
  8272.4131  4.42243657e-16 
  8275.1699  4.70696156e-16 
  8277.9258   4.7631082e-16 
  8280.6826  4.58739492e-16 
  8283.4385  4.65290127e-16 
  8286.1953  5.04336175e-16 
  8288.9521  5.29784962e-16 
   8291.708  5.12477538e-16 
  8294.4648  4.68915057e-16 
  8297.2217  4.42323623e-16 
  8299.9775  4.52770133e-16 
  8302.7344  4.72079996e-16 
  8305.4912  4.67830061e-16 
  8308.2471  4.53094599e-16 
  8311.0039  4.49494021e-16 
  8313.7607  4.54017124e-16 
  8316.5166  4.62561516e-16 
  8319.2734   4.7302142e-16 
  8322.0303  4.84704387e-16 
  8324.7861  4.84383149e-16 
   8327.543  4.71575905e-16 
  8330.2998  4.69011407e-16 
  8333.0557  4.75392371e-16 
  8335.8125  4.79654641e-16 
  8338.5693  4.85908973e-16 
  8341.3252  4.80656099e-16 
   8344.082  4.61272861e-16 
  8346.8389  4.67608138e-16 
  8349.5947  5.09207726e-16 
  8352.3516  5.47140615e-16 
  8355.1084  5.51211402e-16 
  8357.8643  5.22129743e-16 
  8360.6211  4.89588802e-16 
  8363.3779  4.86069433e-16 
  8366.1338  5.12904972e-16 
  8368.8906  5.38060527e-16 
  8371.6475  5.46242177e-16 
  8374.4033  5.39798162e-16 
  8377.1602  5.21367573e-16 
   8379.917  4.97758859e-16 
  8382.6729  4.70249928e-16 
  8385.4297  4.44621411e-16 
  8388.1865   4.3404189e-16 
  8390.9424  4.39954286e-16 
  8393.6992  4.50181441e-16 
  8396.4561  4.45635839e-16 
  8399.2119  4.26451469e-16 
  8401.9688  4.23977948e-16 
  8404.7256  4.40499511e-16 
  8407.4814  4.49203489e-16 
  8410.2383  4.51545747e-16 
  8412.9951  4.62497406e-16 
   8415.751  4.82227345e-16 
  8418.5078  5.04661065e-16 
  8421.2646   5.1904522e-16 
  8424.0205  5.24813144e-16 
  8426.7773  5.23519142e-16 
  8429.5332  5.10759014e-16 
    8432.29  4.97428198e-16 
  8435.0469  4.92960417e-16 
  8437.8027  4.97486326e-16 
  8440.5596  5.03863107e-16 
  8443.3164  4.97305643e-16 
  8446.0723  4.75620594e-16 
  8448.8291   4.5068712e-16 
  8451.5859  4.28212477e-16 
  8454.3418  4.09180997e-16 
  8457.0986  4.13972239e-16 
  8459.8555  4.54486275e-16 
  8462.6113   5.0113942e-16 
  8465.3682  5.21738838e-16 
   8468.125  5.07448333e-16 
  8470.8809  4.71377594e-16 
  8473.6377  4.39890415e-16 
  8476.3945  4.30882272e-16 
  8479.1504  4.45553359e-16 
  8481.9072  4.76847997e-16 
  8484.6641  5.09064313e-16 
  8487.4199  5.13897271e-16 
  8490.1768  4.91868327e-16 
  8492.9336  4.63926827e-16 
  8495.6895  4.49140544e-16 
  8498.4463  4.41832264e-16 
  8501.2031  4.24176418e-16 
   8503.959  4.12110725e-16 
  8506.7158  4.26733796e-16 
  8509.4727   4.3548947e-16 
  8512.2285   4.1894276e-16 
  8514.9854  4.15693251e-16 
  8517.7422  4.28479743e-16 
   8520.498  4.32522128e-16 
  8523.2549  4.46587428e-16 
  8526.0117  4.69164932e-16 
  8528.7676  4.68524363e-16 
  8531.5244  4.49453999e-16 
  8534.2813  4.40584585e-16 
  8537.0371  4.58236248e-16 
  8539.7939  4.74791031e-16 
  8542.5508  4.65854621e-16 
  8545.3066  4.52037661e-16 
  8548.0635  4.49363419e-16 
  8550.8203   4.4744526e-16 
  8553.5762  4.46209386e-16 
   8556.333  4.42095903e-16 
  8559.0898  4.29113826e-16 
  8561.8457  4.27873611e-16 
  8564.6025  4.41712832e-16 
  8567.3594  4.48743815e-16 
  8570.1152  4.48740427e-16 
  8572.8721  4.42120282e-16 
  8575.6279  4.25833612e-16 
  8578.3848  4.21863198e-16 
  8581.1416  4.39149975e-16 
  8583.8975  4.62435255e-16 
  8586.6543  4.72455814e-16 
  8589.4111  4.60123332e-16 
   8592.167  4.38596016e-16 
  8594.9238  4.31692327e-16 
  8597.6807   4.3992779e-16 
  8600.4365  4.48582508e-16 
  8603.1934  4.45053292e-16 
  8605.9502  4.32122593e-16 
  8608.7061  4.29273995e-16 
  8611.4629  4.32022855e-16 
  8614.2197   4.3467563e-16 
  8616.9756  4.56938488e-16 
  8619.7324   4.7999626e-16 
  8622.4893  4.60643463e-16 
  8625.2451  4.24092932e-16 
   8628.002   4.0612469e-16 
  8630.7588  3.94149206e-16 
  8633.5146  3.97349508e-16 
  8636.2715  4.22002879e-16 
  8639.0283  4.45821339e-16 
  8641.7842  4.59392078e-16 
   8644.541  4.65768277e-16 
  8647.2979  4.70484133e-16 
  8650.0537  4.68158922e-16 
  8652.8105   4.4870231e-16 
  8655.5674  4.17798737e-16 
  8658.3232  3.80322823e-16 
  8661.0801  3.51022444e-16 
  8663.8369  3.47882387e-16 
  8666.5928  3.69266025e-16 
  8669.3496  4.09876384e-16 
  8672.1064   4.4874085e-16 
  8674.8623  4.63370009e-16 
  8677.6191  4.56199928e-16 
   8680.376  4.50866956e-16 
  8683.1318  4.69622065e-16 
  8685.8887  4.88856278e-16 
  8688.6455  4.76920366e-16 
  8691.4014   4.5109089e-16 
  8694.1582  4.36700647e-16 
   8696.915  4.30983175e-16 
  8699.6709  4.29913611e-16 
  8702.4277  4.36534947e-16 
  8705.1846  4.36173025e-16 
  8707.9404  4.20051712e-16 
  8710.6973  4.03961395e-16 
  8713.4541  4.06782676e-16 
    8716.21   4.2968867e-16 
  8718.9668  4.45567018e-16 
  8721.7227  4.28502295e-16 
  8724.4795   3.9951688e-16 
  8727.2363  3.82022209e-16 
  8729.9922  3.82097198e-16 
   8732.749  3.97016121e-16 
  8735.5059  4.08611738e-16 
  8738.2617  4.21834822e-16 
  8741.0186  4.54415389e-16 
  8743.7754  4.81335048e-16 
  8746.5313  4.63314952e-16 
  8749.2881  4.13549781e-16 
  8752.0449  3.81559808e-16 
  8754.8008  3.99591843e-16 
  8757.5576  4.56655526e-16 
  8760.3145  5.04873035e-16 
  8763.0703  5.17386412e-16 
  8765.8271  4.99603167e-16 
   8768.584  4.77634203e-16 
  8771.3398  4.62327841e-16 
  8774.0967  4.51737282e-16 
  8776.8535  4.55221552e-16 
  8779.6094  4.57423944e-16 
  8782.3662  4.45942306e-16 
   8785.123   4.3122892e-16 
  8787.8789  4.12052333e-16 
  8790.6357  3.99611827e-16 
  8793.3926  3.98719849e-16 
