# STATUS =
# OBJECT = 2017egm
# TELESCOPE = XLT
# INSTRUMENT = BFOSC
# DATE-OBS = 2017-05-31 12:58:02.00
# MJD = 57904.54030090012
# EXPTIME = 3000
# AIRMASS = --
# SLIT = --
# DISPERSER = --
# SOURCE = 2023NatAs.tmp...90L
# FILTER =
# RESOLUTION =
# FLUX_STANDARD =
# EXTINCTION_CORRECTED = --
# PHOTOMETRY_CALIBRATED =
# TELLURIC_CORRECTED =
# FLUX_UNITS = erg cm(-2) sec(-1) Ang(-1)
# WAVE_UNITS = Angstrom
# QUALITY = --
# MIN_WAVE = 3724.0972
# MAX_WAVE = 8792.8369
# COMMENT = --
 Wavelength            Flux 
  3726.8518  5.98073913e-15 
  3729.6067  7.87507537e-15 
  3732.3613   7.4401697e-15 
  3735.1162    5.632825e-15 
  3737.8708  5.81212621e-15 
  3740.6257  7.89958427e-15 
  3743.3804  7.61162441e-15 
   3746.135   7.2679103e-15 
  3748.8899  7.22315562e-15 
  3751.6445  7.20544501e-15 
  3754.3994  8.72724558e-15 
  3757.1541  6.84615608e-15 
  3759.9089  6.66700099e-15 
  3762.6636  5.29975894e-15 
  3765.4185  6.75602203e-15 
  3768.1731   7.1441266e-15 
   3770.928  7.22118288e-15 
  3773.6826  6.40611696e-15 
  3776.4373  5.67580091e-15 
  3779.1921  5.75385712e-15 
  3781.9468  5.52285599e-15 
  3784.7017  4.57878991e-15 
  3787.4563  6.69007798e-15 
  3790.2112   5.5466178e-15 
  3792.9658  5.74394895e-15 
  3795.7207  4.85870296e-15 
  3798.4753  5.18364301e-15 
  3801.2302  5.92197706e-15 
  3803.9849  4.92664093e-15 
  3806.7395  5.80150399e-15 
  3809.4944  6.59226515e-15 
   3812.249  5.11149994e-15 
  3815.0039  4.61536098e-15 
  3817.7585  5.86205499e-15 
  3820.5134  4.82698412e-15 
  3823.2681  5.09823413e-15 
  3826.0229  5.02242511e-15 
  3828.7776  6.00590405e-15 
  3831.5325  5.97401792e-15 
  3834.2871  5.30397886e-15 
  3837.0417  5.77086596e-15 
  3839.7966  5.67715193e-15 
  3842.5513  5.15586583e-15 
  3845.3062  5.22882502e-15 
  3848.0608  6.00211782e-15 
  3850.8157  5.64448907e-15 
  3853.5703  4.74219696e-15 
  3856.3252  4.78207485e-15 
  3859.0798  5.62770384e-15 
  3861.8347   5.5587668e-15 
  3864.5894  5.82508497e-15 
   3867.344  5.61622697e-15 
  3870.0989  5.72807598e-15 
  3872.8535  6.26632094e-15 
  3875.6084  4.64573389e-15 
   3878.363  5.74534994e-15 
  3881.1179  5.99309395e-15 
  3883.8726  5.53987796e-15 
  3886.6274  5.10416294e-15 
  3889.3821  5.56355592e-15 
   3892.137  6.66401308e-15 
  3894.8916  5.23969118e-15 
  3897.6462  5.32883589e-15 
  3900.4011  5.87378004e-15 
  3903.1558  5.56461683e-15 
  3905.9106  5.04443018e-15 
  3908.6653  5.31408905e-15 
  3911.4202  4.75699717e-15 
  3914.1748  5.43069711e-15 
  3916.9297  5.23300301e-15 
  3919.6843  4.94109597e-15 
  3922.4392  4.86839598e-15 
  3925.1938  4.76042003e-15 
  3927.9485  4.54369183e-15 
  3930.7034  5.29950399e-15 
   3933.458   4.7671082e-15 
  3936.2129  4.18613085e-15 
  3938.9675  5.29759393e-15 
  3941.7224  4.84534398e-15 
  3944.4771  4.65096093e-15 
  3947.2319  5.16831595e-15 
  3949.9866  4.94371118e-15 
  3952.7415   5.7161218e-15 
  3955.4961  5.28637709e-15 
  3958.2507  4.90886298e-15 
  3961.0056  4.90395315e-15 
  3963.7603  4.84392901e-15 
  3966.5151  5.36337408e-15 
  3969.2698  5.19561921e-15 
  3972.0247  5.66948713e-15 
  3974.7793  4.33323421e-15 
  3977.5342  5.09543596e-15 
  3980.2888  5.24578219e-15 
  3983.0437  4.99261506e-15 
  3985.7983   5.0353449e-15 
  3988.5532  5.20510216e-15 
  3991.3079  5.33877709e-15 
  3994.0625  5.13106301e-15 
  3996.8174   5.0467519e-15 
   3999.572  5.59255494e-15 
  4002.3269  5.27639693e-15 
  4005.0815  4.86477915e-15 
  4007.8364  4.86412312e-15 
  4010.5911  4.44307617e-15 
  4013.3459  4.51755917e-15 
  4016.1006  4.89043408e-15 
  4018.8555  4.47002918e-15 
  4021.6101  4.75437687e-15 
  4024.3647  5.00336094e-15 
  4027.1196  4.42680806e-15 
  4029.8743  4.78440292e-15 
  4032.6292  4.73016613e-15 
  4035.3838   4.7054802e-15 
  4038.1387  5.32791601e-15 
  4040.8933  5.03731002e-15 
  4043.6482  4.94079104e-15 
  4046.4028   4.3094508e-15 
  4049.1577  4.50855605e-15 
  4051.9124  4.69075199e-15 
   4054.667  4.78361306e-15 
  4057.4219  4.44934718e-15 
  4060.1765  4.74926503e-15 
  4062.9314  4.84140697e-15 
   4065.686  5.13933302e-15 
  4068.4409  4.58710989e-15 
  4071.1956  4.92999095e-15 
  4073.9504  4.67208297e-15 
  4076.7051  4.86002179e-15 
    4079.46  4.71589193e-15 
  4082.2146  4.49507891e-15 
  4084.9692  4.64277393e-15 
  4087.7241  4.40246687e-15 
  4090.4788  4.45936885e-15 
  4093.2336  4.22838508e-15 
  4095.9883  4.17023585e-15 
  4098.7432  4.91474816e-15 
   4101.498   4.4930689e-15 
  4104.2524  4.52893101e-15 
  4107.0073   4.9546252e-15 
  4109.7622  4.55423019e-15 
  4112.5171   4.9992469e-15 
  4115.2715   4.7706289e-15 
  4118.0264  4.79717491e-15 
  4120.7813  4.88766386e-15 
  4123.5356  4.46252701e-15 
  4126.2905  4.52824407e-15 
  4129.0454  4.60687498e-15 
  4131.8003  4.91857506e-15 
  4134.5547  5.36809121e-15 
  4137.3096  4.83980396e-15 
  4140.0645   4.4222489e-15 
  4142.8193  4.29092619e-15 
  4145.5737  4.68541103e-15 
  4148.3286  4.28619805e-15 
  4151.0835  4.21036785e-15 
  4153.8379  4.34204208e-15 
  4156.5928  4.40498383e-15 
  4159.3477  4.72734001e-15 
  4162.1025  4.39896397e-15 
  4164.8569   4.3322038e-15 
  4167.6118  3.76746406e-15 
  4170.3667  4.24199606e-15 
  4173.1216  4.36200114e-15 
   4175.876   3.9514358e-15 
  4178.6309  3.70133493e-15 
  4181.3857  3.93030996e-15 
  4184.1401   3.6835142e-15 
   4186.895  4.10403599e-15 
  4189.6499  4.39774212e-15 
  4192.4048  4.27093409e-15 
  4195.1592  3.76323398e-15 
  4197.9141  3.89380495e-15 
  4200.6689  3.85957805e-15 
  4203.4238  3.96083702e-15 
  4206.1782  3.69815601e-15 
  4208.9331  3.90551307e-15 
   4211.688  4.16511003e-15 
  4214.4424  4.00982306e-15 
  4217.1973  3.61610308e-15 
  4219.9521  3.69547515e-15 
   4222.707  3.50905908e-15 
  4225.4614  3.64146918e-15 
  4228.2163  3.96422897e-15 
  4230.9712  3.81669107e-15 
  4233.7261  3.88475991e-15 
  4236.4805  3.68372808e-15 
  4239.2354  3.70534309e-15 
  4241.9902  3.39865596e-15 
  4244.7446  3.62699296e-15 
  4247.4995  3.45634208e-15 
  4250.2544  3.64019397e-15 
  4253.0093  3.71572305e-15 
  4255.7637  3.60975288e-15 
  4258.5186  3.83762507e-15 
  4261.2734  3.60691701e-15 
  4264.0283  3.50744993e-15 
  4266.7827  3.83498317e-15 
  4269.5376  3.88163605e-15 
  4272.2925  3.99766602e-15 
  4275.0469  3.85028694e-15 
  4277.8018  4.05552091e-15 
  4280.5566  3.82991495e-15 
  4283.3115   3.3752211e-15 
  4286.0659  3.50013093e-15 
  4288.8208  3.72615087e-15 
  4291.5757  3.66961693e-15 
  4294.3306  3.45920908e-15 
   4297.085  3.65502594e-15 
  4299.8398   3.7860721e-15 
  4302.5947  3.78599799e-15 
  4305.3491  4.04930199e-15 
   4308.104  3.65973799e-15 
  4310.8589  3.65084118e-15 
  4313.6138  3.72133083e-15 
  4316.3682  3.84932895e-15 
   4319.123  3.93318394e-15 
  4321.8779  3.99725012e-15 
  4324.6328  4.16607311e-15 
  4327.3872   4.0538819e-15 
  4330.1421  4.02201101e-15 
   4332.897   4.0018601e-15 
  4335.6514  4.12817897e-15 
  4338.4063  3.98491817e-15 
  4341.1611  3.79932012e-15 
   4343.916  4.20546395e-15 
  4346.6704    4.077811e-15 
  4349.4253  3.93455486e-15 
  4352.1802  4.00955201e-15 
  4354.9351  3.95806299e-15 
  4357.6895  3.77256404e-15 
  4360.4443  3.74919017e-15 
  4363.1992  3.65126215e-15 
  4365.9536  3.34097704e-15 
  4368.7085  3.73213601e-15 
  4371.4634  3.79904314e-15 
  4374.2183   3.7786991e-15 
  4376.9727  3.83090894e-15 
  4379.7275  3.72719992e-15 
  4382.4824  3.92390596e-15 
  4385.2373  3.81952482e-15 
  4387.9917  3.92734492e-15 
  4390.7466  3.93535997e-15 
  4393.5015  3.52429699e-15 
  4396.2559    3.548516e-15 
  4399.0107  3.72815284e-15 
  4401.7656  3.99166606e-15 
  4404.5205  4.04180914e-15 
  4407.2749   4.1349438e-15 
  4410.0298  3.71360589e-15 
  4412.7847  3.95905021e-15 
  4415.5396  3.76876298e-15 
  4418.2939  3.23056503e-15 
  4421.0488  3.17655206e-15 
  4423.8037  3.44904998e-15 
  4426.5581  3.61711698e-15 
   4429.313    3.643483e-15 
  4432.0679  3.59541981e-15 
  4434.8228  3.82430505e-15 
  4437.5771  3.55850993e-15 
   4440.332  3.46560799e-15 
  4443.0869  3.14263708e-15 
  4445.8418  3.42696804e-15 
  4448.5962  3.45201205e-15 
  4451.3511  3.60321802e-15 
   4454.106  3.44267097e-15 
  4456.8604  3.41913701e-15 
  4459.6152  3.31809995e-15 
  4462.3701  3.09944496e-15 
   4465.125  3.11645592e-15 
  4467.8794  3.19091308e-15 
  4470.6343  3.66536101e-15 
  4473.3892  3.29457806e-15 
   4476.144  3.36254292e-15 
  4478.8984  3.11985591e-15 
  4481.6533  3.26695504e-15 
  4484.4082  3.31778994e-15 
  4487.1626  3.08435909e-15 
  4489.9175  3.17748698e-15 
  4492.6724  3.19693994e-15 
  4495.4272   3.1234071e-15 
  4498.1816  3.26389895e-15 
  4500.9365  3.31673898e-15 
  4503.6914  3.28777405e-15 
  4506.4463  3.29039795e-15 
  4509.2007  3.44189699e-15 
  4511.9556  3.24193009e-15 
  4514.7104  3.35055508e-15 
  4517.4648   3.2176609e-15 
  4520.2197  3.08238508e-15 
  4522.9746  3.06924104e-15 
  4525.7295  2.87781392e-15 
  4528.4839  2.77029198e-15 
  4531.2388   2.9145671e-15 
  4533.9937  2.96933308e-15 
  4536.7485    2.993122e-15 
  4539.5029   3.0195399e-15 
  4542.2578  3.35629606e-15 
  4545.0127  3.13856306e-15 
  4547.7671  2.96526203e-15 
   4550.522   3.2982851e-15 
  4553.2769  3.15453493e-15 
  4556.0317  3.08606099e-15 
  4558.7861  3.25816602e-15 
   4561.541  3.08505705e-15 
  4564.2959  2.67999594e-15 
  4567.0508  3.05992007e-15 
  4569.8052  3.18409595e-15 
  4572.5601  3.05636698e-15 
  4575.3149  3.12865701e-15 
  4578.0693  2.97633508e-15 
  4580.8242  3.08731206e-15 
  4583.5791  3.14576009e-15 
   4586.334  3.25666698e-15 
  4589.0884  3.41339497e-15 
  4591.8433  3.13082499e-15 
  4594.5981  2.78405796e-15 
   4597.353   3.2311319e-15 
  4600.1074  3.22624791e-15 
  4602.8623  2.96629901e-15 
  4605.6172  2.81888309e-15 
  4608.3716    3.195983e-15 
  4611.1265  3.10519293e-15 
  4613.8813  3.08572599e-15 
  4616.6362  3.15862906e-15 
  4619.3906  3.24106506e-15 
  4622.1455    3.113846e-15 
  4624.9004   3.4237239e-15 
  4627.6553  3.20708104e-15 
  4630.4097  3.10206992e-15 
  4633.1646  3.22603594e-15 
  4635.9194  3.33732908e-15 
  4638.6738  3.34948697e-15 
  4641.4287  3.23536199e-15 
  4644.1836  3.20658806e-15 
  4646.9385  3.21886094e-15 
  4649.6929  3.17115604e-15 
  4652.4478  3.31153905e-15 
  4655.2026  3.47955798e-15 
  4657.9575  3.59631809e-15 
  4660.7119  3.18488602e-15 
  4663.4668  3.31552603e-15 
  4666.2217  3.23342694e-15 
  4668.9766  3.24371394e-15 
   4671.731  3.23134303e-15 
  4674.4858  3.31339003e-15 
  4677.2407  3.35814301e-15 
  4679.9951  3.31680907e-15 
    4682.75    3.072871e-15 
  4685.5049  3.24426494e-15 
  4688.2598  3.36874892e-15 
  4691.0142  3.29268303e-15 
   4693.769  3.31217009e-15 
  4696.5239   3.4614211e-15 
  4699.2788  3.28073902e-15 
  4702.0332  3.19576002e-15 
  4704.7881  3.23310994e-15 
   4707.543  3.34862893e-15 
  4710.2974  3.04003598e-15 
  4713.0522   3.2335451e-15 
  4715.8071  3.12399007e-15 
   4718.562  3.23138898e-15 
  4721.3164   3.1412039e-15 
  4724.0713   3.1047639e-15 
  4726.8262  3.22609396e-15 
  4729.5811  3.38130597e-15 
  4732.3354  3.25406405e-15 
  4735.0903  3.14412595e-15 
  4737.8452  3.06885606e-15 
  4740.5996  3.35794396e-15 
  4743.3545  3.17176696e-15 
  4746.1094  3.36745995e-15 
  4748.8643  3.27726005e-15 
  4751.6187  3.06184707e-15 
  4754.3735  3.07114707e-15 
  4757.1284  3.06370906e-15 
  4759.8833   3.0245681e-15 
  4762.6377  2.89366297e-15 
  4765.3926  3.02492194e-15 
  4768.1475  3.12415503e-15 
  4770.9019  2.96101903e-15 
  4773.6567  2.79722699e-15 
  4776.4116  3.06440893e-15 
  4779.1665  3.10223001e-15 
  4781.9209  2.78715492e-15 
  4784.6758  2.77370595e-15 
  4787.4307  2.86596901e-15 
  4790.1855  2.78291997e-15 
  4792.9399  2.80573692e-15 
  4795.6948   2.8579889e-15 
  4798.4497   2.7518129e-15 
  4801.2041   2.7760031e-15 
   4803.959  2.95052005e-15 
  4806.7139  2.81442197e-15 
  4809.4688  2.84892501e-15 
  4812.2231  2.83532992e-15 
   4814.978  2.94955592e-15 
  4817.7329  2.94989896e-15 
  4820.4878  2.84281092e-15 
  4823.2422  2.82784808e-15 
  4825.9971  2.72915201e-15 
   4828.752  2.58661797e-15 
  4831.5063   2.7811501e-15 
  4834.2612  2.77817892e-15 
  4837.0161   2.6341651e-15 
   4839.771  2.69604806e-15 
  4842.5254  2.60391904e-15 
  4845.2803  2.54156407e-15 
  4848.0352  2.56080506e-15 
    4850.79  2.85747793e-15 
  4853.5444  2.68761394e-15 
  4856.2993    2.690194e-15 
  4859.0542  2.89994604e-15 
  4861.8086    2.970333e-15 
  4864.5635  2.86377901e-15 
  4867.3184    2.662564e-15 
  4870.0732  2.75233806e-15 
  4872.8276   2.9400971e-15 
  4875.5825  2.60424303e-15 
  4878.3374  2.44107801e-15 
  4881.0923   2.6790011e-15 
  4883.8467  2.91169291e-15 
  4886.6016  2.76614808e-15 
  4889.3564    2.545143e-15 
  4892.1108  2.66662701e-15 
  4894.8657  2.69680192e-15 
  4897.6206  2.67843698e-15 
  4900.3755   2.6158819e-15 
  4903.1299     2.60497e-15 
  4905.8848   2.3011469e-15 
  4908.6396  2.50261602e-15 
  4911.3945  2.71652805e-15 
  4914.1489  2.58052399e-15 
  4916.9038   2.5935611e-15 
  4919.6587    2.700452e-15 
  4922.4131  2.75510405e-15 
   4925.168   2.8412401e-15 
  4927.9229  2.71544808e-15 
  4930.6777  2.70029191e-15 
  4933.4321  2.40783303e-15 
   4936.187  2.60177795e-15 
  4938.9419    2.795772e-15 
  4941.6968  2.58326795e-15 
  4944.4512  2.45357302e-15 
  4947.2061  2.52475598e-15 
  4949.9609  2.52336007e-15 
  4952.7153  2.53351006e-15 
  4955.4702  2.48031809e-15 
  4958.2251  2.38401002e-15 
    4960.98  2.46535991e-15 
  4963.7344  2.62859502e-15 
  4966.4893  2.63593794e-15 
  4969.2441  2.41413009e-15 
   4971.999  2.30762501e-15 
  4974.7534  2.60554894e-15 
  4977.5083  2.51002501e-15 
  4980.2632   2.5538361e-15 
  4983.0176  2.50118898e-15 
  4985.7725  2.31043991e-15 
  4988.5273  2.35875404e-15 
  4991.2822  2.39107491e-15 
  4994.0366  2.46904196e-15 
  4996.7915  2.49232499e-15 
  4999.5464  2.66857391e-15 
  5002.3013  2.43297996e-15 
  5005.0557  2.18632608e-15 
  5007.8105  2.37185107e-15 
  5010.5654    2.367985e-15 
  5013.3198  2.46007591e-15 
  5016.0747  2.51751109e-15 
  5018.8296  2.45186794e-15 
  5021.5845  2.46654194e-15 
  5024.3389  2.45718202e-15 
  5027.0938  2.22765705e-15 
  5029.8486  2.25277793e-15 
  5032.6035  2.22890706e-15 
  5035.3579  2.25760094e-15 
  5038.1128  2.16017097e-15 
  5040.8677  2.27512796e-15 
  5043.6221  2.32824899e-15 
   5046.377  2.15608806e-15 
  5049.1318   2.3328109e-15 
  5051.8867  2.34243997e-15 
  5054.6411     2.05562e-15 
   5057.396  2.10554391e-15 
  5060.1509  2.19958596e-15 
  5062.9058    2.325998e-15 
  5065.6602  2.32959408e-15 
   5068.415  2.33000002e-15 
  5071.1699  2.43762403e-15 
  5073.9243  2.30003199e-15 
  5076.6792  2.43414505e-15 
  5079.4341  2.32208005e-15 
   5082.189  2.27924602e-15 
  5084.9434  2.39549197e-15 
  5087.6982  2.35550799e-15 
  5090.4531  2.28307905e-15 
   5093.208  2.02560899e-15 
  5095.9624  2.21241597e-15 
  5098.7173  2.28313708e-15 
  5101.4722   2.1430319e-15 
  5104.2266   2.1653311e-15 
  5106.9814  2.29782992e-15 
  5109.7363  2.24702107e-15 
  5112.4912   2.1553539e-15 
  5115.2456  2.23610494e-15 
  5118.0005  2.16072705e-15 
  5120.7554  2.27772305e-15 
  5123.5103  2.15803497e-15 
  5126.2646  2.13345301e-15 
  5129.0195  2.27308809e-15 
  5131.7744  2.16714502e-15 
  5134.5288  2.23637408e-15 
  5137.2837  2.07430491e-15 
  5140.0386  2.20949709e-15 
  5142.7935  2.16635093e-15 
  5145.5479  2.13353708e-15 
  5148.3027  2.05424209e-15 
  5151.0576  2.05713598e-15 
  5153.8125  2.14566807e-15 
  5156.5669  2.01402306e-15 
  5159.3218    2.142497e-15 
  5162.0767  2.22238808e-15 
  5164.8311  2.35108796e-15 
  5167.5859  2.16791307e-15 
  5170.3408  1.98610104e-15 
  5173.0957  2.13999507e-15 
  5175.8501  2.04246198e-15 
   5178.605  2.11746908e-15 
  5181.3599  2.30229505e-15 
  5184.1147  2.13433901e-15 
  5186.8691  1.99497096e-15 
   5189.624  2.06357809e-15 
  5192.3789  2.06803793e-15 
  5195.1338  2.09460893e-15 
  5197.8882  2.20651702e-15 
  5200.6431  2.15645695e-15 
  5203.3979  1.97332398e-15 
  5206.1523  2.00353891e-15 
  5208.9072  2.16861801e-15 
  5211.6621  2.04525105e-15 
   5214.417  2.06660496e-15 
  5217.1714  2.16074208e-15 
  5219.9263  2.17279409e-15 
  5222.6812  2.18862302e-15 
   5225.436  2.08124402e-15 
  5228.1904  2.07271101e-15 
  5230.9453  2.15038901e-15 
  5233.7002  2.10284992e-15 
  5236.4546  2.09944295e-15 
  5239.2095  2.02533794e-15 
  5241.9644  1.98452006e-15 
  5244.7192  2.12011902e-15 
  5247.4736  2.15298093e-15 
  5250.2285  2.07681806e-15 
  5252.9834   2.0769629e-15 
  5255.7383    2.167404e-15 
  5258.4927  2.14638191e-15 
  5261.2476  2.10950506e-15 
  5264.0024  2.14015707e-15 
  5266.7568    1.975482e-15 
  5269.5117  2.14608291e-15 
  5272.2666  1.92627299e-15 
  5275.0215  1.97839707e-15 
  5277.7759    1.869587e-15 
  5280.5308  1.90542793e-15 
  5283.2856  1.88660199e-15 
  5286.0405  1.87114004e-15 
  5288.7949  1.97666806e-15 
  5291.5498  1.92934899e-15 
  5294.3047  1.85338707e-15 
  5297.0591  1.83193491e-15 
   5299.814  1.79286297e-15 
  5302.5688  2.06949694e-15 
  5305.3237  1.96071695e-15 
  5308.0781   1.9052689e-15 
   5310.833  1.94629791e-15 
  5313.5879  1.82367401e-15 
  5316.3428  1.81113093e-15 
  5319.0972  1.96264501e-15 
  5321.8521  1.97774697e-15 
  5324.6069  1.93074003e-15 
  5327.3613  1.79828695e-15 
  5330.1162  1.72915603e-15 
  5332.8711   1.7877111e-15 
   5335.626  1.81514502e-15 
  5338.3804  1.80662196e-15 
  5341.1353  1.83142097e-15 
  5343.8901  1.78855306e-15 
   5346.645  1.87997607e-15 
  5349.3994  1.96135603e-15 
  5352.1543  1.89734893e-15 
  5354.9092  1.72153104e-15 
  5357.6636  1.67272903e-15 
  5360.4185  1.77343405e-15 
  5363.1733  1.79762393e-15 
  5365.9282  1.69889896e-15 
  5368.6826  1.73835905e-15 
  5371.4375  1.84842304e-15 
  5374.1924  1.80092207e-15 
  5376.9473  1.73677298e-15 
  5379.7017     1.83614e-15 
  5382.4565  1.94972204e-15 
  5385.2114  1.75246003e-15 
  5387.9658  1.65919799e-15 
  5390.7207  1.77752998e-15 
  5393.4756  1.86408298e-15 
  5396.2305  1.83735592e-15 
  5398.9849  1.65584703e-15 
  5401.7397  1.67272596e-15 
  5404.4946  1.65676405e-15 
  5407.2495  1.61966104e-15 
  5410.0039  1.65539799e-15 
  5412.7588  1.73730301e-15 
  5415.5137  1.75901204e-15 
  5418.2681  1.62092703e-15 
  5421.0229  1.58448704e-15 
  5423.7778  1.67880501e-15 
  5426.5327   1.8052629e-15 
  5429.2871  1.59355696e-15 
   5432.042  1.53328199e-15 
  5434.7969  1.68587403e-15 
  5437.5518  1.67124598e-15 
  5440.3062  1.73511999e-15 
   5443.061  1.73767899e-15 
  5445.8159  1.71484097e-15 
  5448.5703  1.68532303e-15 
  5451.3252  1.81083701e-15 
  5454.0801  1.75165704e-15 
   5456.835  1.72325296e-15 
  5459.5894  1.67275899e-15 
  5462.3442    1.734614e-15 
  5465.0991  1.57293902e-15 
   5467.854  1.54912204e-15 
  5470.6084  1.57008102e-15 
  5473.3633  1.60280995e-15 
  5476.1182  1.60785403e-15 
  5478.8726  1.65163897e-15 
  5481.6274  1.78527207e-15 
  5484.3823  1.73840098e-15 
  5487.1372  1.69242699e-15 
  5489.8916  1.58089096e-15 
  5492.6465  1.67785898e-15 
  5495.4014  1.67589598e-15 
  5498.1563  1.70967396e-15 
  5500.9106  1.49484205e-15 
  5503.6655  1.57418903e-15 
  5506.4204  1.58258895e-15 
  5509.1748  1.58690903e-15 
  5511.9297  1.61929099e-15 
  5514.6846  1.55636597e-15 
  5517.4395  1.54962497e-15 
  5520.1938  1.45433302e-15 
  5522.9487  1.52609301e-15 
  5525.7036  1.56658998e-15 
  5528.4585  1.56210695e-15 
  5531.2129  1.67397501e-15 
  5533.9678  1.64600196e-15 
  5536.7227  1.70999001e-15 
  5539.4771  1.55473903e-15 
  5542.2319  1.73064205e-15 
  5544.9868  1.67703905e-15 
  5547.7417  1.52332396e-15 
  5550.4961  1.47280998e-15 
   5553.251  1.60686502e-15 
  5556.0059    1.698563e-15 
  5558.7607  1.52388903e-15 
  5561.5151  1.43459397e-15 
    5564.27  1.40221805e-15 
  5567.0249  1.41699104e-15 
  5569.7793  1.44558497e-15 
  5572.5342  1.59333303e-15 
  5575.2891  1.58934403e-15 
  5578.0439    1.665179e-15 
  5580.7983  1.73849097e-15 
  5583.5532  1.64389804e-15 
  5586.3081  1.47502804e-15 
   5589.063  1.60470297e-15 
  5591.8174  1.49854697e-15 
  5594.5723  1.52941804e-15 
  5597.3271  1.56873901e-15 
  5600.0815  1.51351701e-15 
  5602.8364  1.49776696e-15 
  5605.5913  1.56732404e-15 
  5608.3462  1.50361699e-15 
  5611.1006    1.470768e-15 
  5613.8555  1.47173605e-15 
  5616.6104  1.51367604e-15 
  5619.3652  1.59014395e-15 
  5622.1196  1.56033305e-15 
  5624.8745  1.34499705e-15 
  5627.6294  1.42771204e-15 
  5630.3838  1.45591803e-15 
  5633.1387  1.41569201e-15 
  5635.8936  1.49143603e-15 
  5638.6484  1.55109002e-15 
  5641.4028  1.33673795e-15 
  5644.1577  1.41469304e-15 
  5646.9126  1.37903602e-15 
  5649.6675  1.43006796e-15 
  5652.4219  1.40231895e-15 
  5655.1768  1.49769602e-15 
  5657.9316  1.45228405e-15 
   5660.686  1.40037596e-15 
  5663.4409  1.38524096e-15 
  5666.1958  1.38326102e-15 
  5668.9507  1.41800896e-15 
  5671.7051    1.395624e-15 
    5674.46  1.37314205e-15 
  5677.2148  1.36952903e-15 
  5679.9697  1.25220904e-15 
  5682.7241  1.41293005e-15 
   5685.479  1.43814802e-15 
  5688.2339  1.44828499e-15 
  5690.9883  1.44403797e-15 
  5693.7432  1.55601699e-15 
   5696.498  1.47545304e-15 
  5699.2529  1.27965799e-15 
  5702.0073  1.42979405e-15 
  5704.7622  1.52382402e-15 
  5707.5171  1.43535101e-15 
   5710.272  1.36688004e-15 
  5713.0264  1.46640398e-15 
  5715.7813  1.46063801e-15 
  5718.5361    1.435792e-15 
   5721.291  1.43047898e-15 
  5724.0454  1.51359303e-15 
  5726.8003  1.47946205e-15 
  5729.5552  1.30507395e-15 
  5732.3096  1.29626301e-15 
  5735.0645  1.38455995e-15 
  5737.8193  1.32100802e-15 
  5740.5742  1.47585602e-15 
  5743.3286    1.491531e-15 
  5746.0835    1.413844e-15 
  5748.8384  1.44650802e-15 
  5751.5933  1.46781101e-15 
  5754.3477  1.58380603e-15 
  5757.1025    1.563147e-15 
  5759.8574    1.524254e-15 
  5762.6118  1.44128405e-15 
  5765.3667  1.27651105e-15 
  5768.1216  1.39440597e-15 
  5770.8765  1.46905805e-15 
  5773.6309  1.50894504e-15 
  5776.3857  1.44245698e-15 
  5779.1406  1.48040903e-15 
  5781.8955  1.41093401e-15 
  5784.6499  1.47305605e-15 
  5787.4048  1.51261005e-15 
  5790.1597  1.44029398e-15 
  5792.9141  1.30237001e-15 
  5795.6689  1.47517405e-15 
  5798.4238  1.47973903e-15 
  5801.1787  1.50401404e-15 
  5803.9331  1.38763002e-15 
   5806.688  1.41060801e-15 
  5809.4429  1.48986203e-15 
  5812.1978  1.38412203e-15 
  5814.9521  1.38032701e-15 
   5817.707  1.36299703e-15 
  5820.4619  1.41037201e-15 
  5823.2163  1.42780702e-15 
  5825.9712  1.24209398e-15 
  5828.7261  1.30802597e-15 
   5831.481  1.28312797e-15 
  5834.2354  1.23124805e-15 
  5836.9902  1.43712396e-15 
  5839.7451  1.40864597e-15 
     5842.5  1.34007897e-15 
  5845.2544  1.24830401e-15 
  5848.0093  1.29790996e-15 
  5850.7642    1.468081e-15 
  5853.5186  1.36719101e-15 
  5856.2734  1.31746202e-15 
  5859.0283  1.38974199e-15 
  5861.7832  1.43352004e-15 
  5864.5376  1.37162004e-15 
  5867.2925  1.42935804e-15 
  5870.0474  1.40854697e-15 
  5872.8022  1.29825597e-15 
  5875.5566  1.30244498e-15 
  5878.3115    1.393841e-15 
  5881.0664  1.41074004e-15 
  5883.8208  1.29139204e-15 
  5886.5757    1.278086e-15 
  5889.3306  1.19882701e-15 
  5892.0854  1.16551797e-15 
  5894.8398  1.25060296e-15 
  5897.5947    1.230752e-15 
  5900.3496  1.21835197e-15 
  5903.1045  1.25360696e-15 
  5905.8589  1.36091195e-15 
  5908.6138  1.38185304e-15 
  5911.3687  1.35561895e-15 
   5914.123    1.331273e-15 
  5916.8779  1.33227599e-15 
  5919.6328  1.37186102e-15 
  5922.3877  1.24939001e-15 
  5925.1421  1.30772496e-15 
   5927.897  1.34842701e-15 
  5930.6519     1.22431e-15 
  5933.4067  1.23697801e-15 
  5936.1611  1.28861399e-15 
   5938.916  1.40375298e-15 
  5941.6709  1.29168999e-15 
  5944.4253  1.30810104e-15 
  5947.1802  1.36412803e-15 
  5949.9351  1.30682096e-15 
  5952.6899  1.30744004e-15 
  5955.4443  1.20389502e-15 
  5958.1992  1.27764004e-15 
  5960.9541  1.37655199e-15 
   5963.709  1.30651105e-15 
  5966.4634  1.24012304e-15 
  5969.2183  1.20694296e-15 
  5971.9731    1.348092e-15 
  5974.7275  1.38612495e-15 
  5977.4824  1.32394204e-15 
  5980.2373  1.30540398e-15 
  5982.9922  1.30930605e-15 
  5985.7466  1.32828795e-15 
  5988.5015  1.27213104e-15 
  5991.2563     1.18805e-15 
  5994.0112  1.13209797e-15 
  5996.7656  1.24796805e-15 
  5999.5205  1.17092003e-15 
  6002.2754  1.17497795e-15 
  6005.0298  1.24731001e-15 
  6007.7847  1.13122499e-15 
  6010.5396  1.22927202e-15 
  6013.2944  1.21152499e-15 
  6016.0488  1.12229695e-15 
  6018.8037  1.17189803e-15 
  6021.5586  1.28878001e-15 
  6024.3135  1.24644297e-15 
  6027.0679  1.11789005e-15 
  6029.8228  1.15252004e-15 
  6032.5776  1.28404795e-15 
   6035.332  1.24487405e-15 
  6038.0869  1.23107197e-15 
  6040.8418  1.11844401e-15 
  6043.5967  1.20649997e-15 
  6046.3511  1.24977297e-15 
   6049.106  1.22694798e-15 
  6051.8608  1.26299399e-15 
  6054.6157  1.25752703e-15 
  6057.3701  1.19400898e-15 
   6060.125  1.12892096e-15 
  6062.8799  1.16333305e-15 
  6065.6343     1.13489e-15 
  6068.3892  1.08784304e-15 
   6071.144  1.12525998e-15 
  6073.8989  1.12842396e-15 
  6076.6533  1.16886195e-15 
  6079.4082     1.19203e-15 
  6082.1631  1.10931405e-15 
   6084.918  1.10005397e-15 
  6087.6724  1.15886304e-15 
  6090.4272    1.175818e-15 
  6093.1821  1.14766103e-15 
  6095.9365  1.09413395e-15 
  6098.6914  1.21561902e-15 
  6101.4463  1.34042996e-15 
  6104.2012  1.32537098e-15 
  6106.9556  1.21091502e-15 
  6109.7104  1.17900305e-15 
  6112.4653    1.128756e-15 
  6115.2202  1.11367595e-15 
  6117.9746  1.23665201e-15 
  6120.7295  1.09760605e-15 
  6123.4844  1.08070202e-15 
  6126.2388  1.20333005e-15 
  6128.9937  1.15573199e-15 
  6131.7485  1.10578902e-15 
  6134.5034  1.10380103e-15 
  6137.2578  1.16027695e-15 
  6140.0127  1.04349599e-15 
  6142.7676  1.01451804e-15 
  6145.5225  1.09259902e-15 
  6148.2769  1.06791595e-15 
  6151.0317  9.89497113e-16 
  6153.7866  9.07748692e-16 
   6156.541  9.98628763e-16 
  6159.2959  1.07850101e-15 
  6162.0508  1.04154602e-15 
  6164.8057  1.05487503e-15 
  6167.5601  9.89746458e-16 
  6170.3149  1.06578196e-15 
  6173.0698  1.06734505e-15 
  6175.8247  1.07013804e-15 
  6178.5791  1.11987401e-15 
   6181.334  1.15837505e-15 
  6184.0889  1.06751499e-15 
  6186.8433  1.11228301e-15 
  6189.5981  1.16714597e-15 
   6192.353  1.06730704e-15 
  6195.1079  1.07691398e-15 
  6197.8623  1.13614499e-15 
  6200.6172  1.05816322e-15 
  6203.3721  1.05081976e-15 
   6206.127  1.06469945e-15 
  6208.8813  1.01896698e-15 
  6211.6362  1.07064816e-15 
  6214.3911  1.05782895e-15 
  6217.1455  1.12969165e-15 
  6219.9004  1.16213714e-15 
  6222.6553  9.97382672e-16 
  6225.4102  1.04377467e-15 
  6228.1646  1.03278028e-15 
  6230.9194  1.09641056e-15 
  6233.6743  1.17778089e-15 
  6236.4292  1.01282768e-15 
  6239.1836   1.0562522e-15 
  6241.9385  1.00641257e-15 
  6244.6934  1.03532604e-15 
  6247.4478  1.05478271e-15 
  6250.2026  1.14128256e-15 
  6252.9575  1.15855854e-15 
  6255.7124  1.11835698e-15 
  6258.4668  1.07442561e-15 
  6261.2217  1.00509607e-15 
  6263.9766  1.04571691e-15 
  6266.7314  9.29089899e-16 
  6269.4858  1.00445624e-15 
  6272.2407  1.02346282e-15 
  6274.9956  9.80838636e-16 
  6277.7505  9.39903545e-16 
  6280.5049  1.07362263e-15 
  6283.2598  1.00159719e-15 
  6286.0146  9.86314704e-16 
   6288.769   1.0033496e-15 
  6291.5239  9.78048615e-16 
  6294.2788  9.66512238e-16 
  6297.0337  9.21847132e-16 
  6299.7881  8.53014641e-16 
   6302.543  9.33731428e-16 
  6305.2979  1.01579018e-15 
  6308.0527  1.04986272e-15 
  6310.8071  1.01047145e-15 
   6313.562  9.88960411e-16 
  6316.3169  9.67890679e-16 
  6319.0713  9.62795987e-16 
  6321.8262  1.06086239e-15 
  6324.5811  9.82566054e-16 
  6327.3359   1.0112503e-15 
  6330.0903  1.01356619e-15 
  6332.8452  9.13671464e-16 
  6335.6001    9.217529e-16 
   6338.355  8.98434506e-16 
  6341.1094  8.38019458e-16 
  6343.8643  7.96918561e-16 
  6346.6191  9.61355396e-16 
  6349.3735  1.12386089e-15 
  6352.1284  1.02613552e-15 
  6354.8833  9.80480341e-16 
  6357.6382  9.70553433e-16 
  6360.3926  1.01942448e-15 
  6363.1475  9.60554526e-16 
  6365.9023  9.29270423e-16 
  6368.6572  9.45072246e-16 
  6371.4116  9.40089257e-16 
  6374.1665  9.45922773e-16 
  6376.9214  9.50624971e-16 
  6379.6758  9.16516119e-16 
  6382.4307  8.88780872e-16 
  6385.1855  1.00209609e-15 
  6387.9404  9.37198969e-16 
  6390.6948   9.0087375e-16 
  6393.4497  1.00267642e-15 
  6396.2046  9.60565855e-16 
  6398.9595  9.27522147e-16 
  6401.7139  9.34613825e-16 
  6404.4688  9.54397444e-16 
  6407.2236  1.00925003e-15 
   6409.978  9.29802995e-16 
  6412.7329  9.25897114e-16 
  6415.4878  1.02181004e-15 
  6418.2427  9.48481236e-16 
  6420.9971  9.54002621e-16 
   6423.752  1.00346903e-15 
  6426.5068  9.78427769e-16 
  6429.2617      1.0355e-15 
  6432.0161  1.00315001e-15 
   6434.771  9.64864548e-16 
  6437.5259  9.46854086e-16 
  6440.2803  9.62834739e-16 
  6443.0352  1.02774796e-15 
    6445.79  8.50158711e-16 
  6448.5449  9.30737696e-16 
  6451.2993  1.00108696e-15 
  6454.0542  8.96358958e-16 
  6456.8091  9.96708645e-16 
   6459.564  1.00687304e-15 
  6462.3184  9.15293533e-16 
  6465.0732   8.5421261e-16 
  6467.8281  9.75850671e-16 
  6470.5825  9.13341016e-16 
  6473.3374  9.29517757e-16 
  6476.0923  9.08982608e-16 
  6478.8472  8.61915475e-16 
  6481.6016  8.86287525e-16 
  6484.3564  1.00480797e-15 
  6487.1113  9.72875891e-16 
  6489.8662  8.00294622e-16 
  6492.6206  8.32246611e-16 
  6495.3755  9.04842522e-16 
  6498.1304  8.96441544e-16 
  6500.8848  8.97403244e-16 
  6503.6396  8.45895594e-16 
  6506.3945   8.8561821e-16 
  6509.1494   9.2639464e-16 
  6511.9038  8.46738074e-16 
  6514.6587   8.8598561e-16 
  6517.4136  9.04467816e-16 
  6520.1685  8.68601582e-16 
  6522.9229  9.27894948e-16 
  6525.6777  1.00682402e-15 
  6528.4326  9.62486079e-16 
   6531.187  9.96540615e-16 
  6533.9419  9.06400534e-16 
  6536.6968  9.32594286e-16 
  6539.4517  9.35390236e-16 
  6542.2061  9.72806434e-16 
  6544.9609  9.54503641e-16 
  6547.7158  8.45388909e-16 
  6550.4707  8.17390923e-16 
  6553.2251   8.7568119e-16 
    6555.98  8.42698097e-16 
  6558.7349  7.86371624e-16 
  6561.4893  9.40257499e-16 
  6564.2441  9.51437699e-16 
   6566.999  9.04945331e-16 
  6569.7539   9.6342565e-16 
  6572.5083  9.61061687e-16 
  6575.2632  9.34807372e-16 
  6578.0181  9.13339851e-16 
  6580.7729  9.30474798e-16 
  6583.5273  9.79182263e-16 
  6586.2822  9.25303874e-16 
  6589.0371  8.57198507e-16 
  6591.7915  9.18593996e-16 
  6594.5464  9.73176058e-16 
  6597.3013  9.77106715e-16 
  6600.0562  1.01805599e-15 
  6602.8105  8.81708094e-16 
  6605.5654  9.13924833e-16 
  6608.3203  9.07719893e-16 
  6611.0752  9.26921813e-16 
  6613.8296  9.09363455e-16 
  6616.5845  9.59172169e-16 
  6619.3394  9.22058149e-16 
  6622.0938   9.2727312e-16 
  6624.8486  9.01801462e-16 
  6627.6035  9.79833949e-16 
  6630.3584   9.4147998e-16 
  6633.1128  8.73746619e-16 
  6635.8677  8.48824687e-16 
  6638.6226   8.8961287e-16 
  6641.3774  9.33803426e-16 
  6644.1318  8.85991275e-16 
  6646.8867   9.2902976e-16 
  6649.6416  9.48748899e-16 
   6652.396  9.24721962e-16 
  6655.1509  9.56718738e-16 
  6657.9058  9.75955703e-16 
  6660.6606  1.02623304e-15 
   6663.415  9.85338393e-16 
  6666.1699  8.64291191e-16 
  6668.9248  8.79424122e-16 
  6671.6797   9.0907144e-16 
  6674.4341  9.12181957e-16 
   6677.189  8.57637588e-16 
  6679.9438  9.02856018e-16 
  6682.6982  9.45235088e-16 
  6685.4531  9.80450483e-16 
   6688.208  9.92781165e-16 
  6690.9629  9.76327656e-16 
  6693.7173  9.38855554e-16 
  6696.4722  8.87842412e-16 
  6699.2271  9.19203966e-16 
  6701.9819  9.10001059e-16 
  6704.7363   9.5700747e-16 
  6707.4912  9.96653482e-16 
  6710.2461  9.05071645e-16 
  6713.0005  8.60039456e-16 
  6715.7554  8.99189001e-16 
  6718.5103  9.36130014e-16 
  6721.2651  8.81428149e-16 
  6724.0195  8.76844166e-16 
  6726.7744  8.70605715e-16 
  6729.5293  8.47480181e-16 
  6732.2842   9.1730513e-16 
  6735.0386  8.89875556e-16 
  6737.7935  8.22359354e-16 
  6740.5483   8.8182599e-16 
  6743.3027  9.36361254e-16 
  6746.0576  9.39293152e-16 
  6748.8125  9.00205229e-16 
  6751.5674  9.73916153e-16 
  6754.3218  1.04412989e-15 
  6757.0767  1.09074667e-15 
  6759.8315   9.6125714e-16 
  6762.5864  9.80845624e-16 
  6765.3408  8.92586379e-16 
  6768.0957  8.96505495e-16 
  6770.8506  9.04946178e-16 
   6773.605   1.0267403e-15 
  6776.3599  1.00948391e-15 
  6779.1147  1.01016376e-15 
  6781.8696  9.49447913e-16 
   6784.624  9.34250024e-16 
  6787.3789  9.53921517e-16 
  6790.1338  9.71423335e-16 
  6792.8887  9.15263886e-16 
  6795.6431  9.15987147e-16 
  6798.3979  9.01166823e-16 
  6801.1528   8.7089233e-16 
  6803.9077  8.94885862e-16 
  6806.6621  8.64879667e-16 
   6809.417  8.35403344e-16 
  6812.1719  8.30333957e-16 
  6814.9263  8.44664484e-16 
  6817.6812  8.75631479e-16 
   6820.436  8.44453573e-16 
  6823.1909  7.75103968e-16 
  6825.9453  7.96426064e-16 
  6828.7002  8.04551227e-16 
  6831.4551  7.84338163e-16 
    6834.21  8.40283842e-16 
  6836.9644  7.76426663e-16 
  6839.7192  8.25044501e-16 
  6842.4741  8.40725728e-16 
  6845.2285  9.27833008e-16 
  6847.9834  9.20084986e-16 
  6850.7383  8.59389623e-16 
  6853.4932  8.76274272e-16 
  6856.2476   9.0874798e-16 
  6859.0024  8.60503842e-16 
  6861.7573  8.21619577e-16 
  6864.5122  7.90243729e-16 
  6867.2666  7.22350015e-16 
  6870.0215  8.09718075e-16 
  6872.7764  8.98046883e-16 
  6875.5308   8.2859754e-16 
  6878.2856  8.16241447e-16 
  6881.0405  8.16117515e-16 
  6883.7954  8.84010647e-16 
  6886.5498  9.09263187e-16 
  6889.3047   8.2981155e-16 
  6892.0596  8.64542389e-16 
  6894.8145  8.38819904e-16 
  6897.5688  8.61344892e-16 
  6900.3237  8.32672986e-16 
  6903.0786  8.79385582e-16 
   6905.833   8.7346874e-16 
  6908.5879  8.78365225e-16 
  6911.3428  8.47243541e-16 
  6914.0977  7.89542227e-16 
  6916.8521  8.33577405e-16 
  6919.6069   8.4878297e-16 
  6922.3618  9.08728921e-16 
  6925.1167   8.5483285e-16 
  6927.8711  7.93125547e-16 
   6930.626  8.65246697e-16 
  6933.3809  8.16308256e-16 
  6936.1353  8.17754777e-16 
  6938.8901   9.3296624e-16 
   6941.645  8.91109577e-16 
  6944.3999  7.82951834e-16 
  6947.1543  7.36164381e-16 
  6949.9092  7.18673469e-16 
  6952.6641  6.68975081e-16 
  6955.4189  8.04101029e-16 
  6958.1733  6.99251268e-16 
  6960.9282  7.29192241e-16 
  6963.6831  8.20048066e-16 
  6966.4375  7.73647336e-16 
  6969.1924  7.80337785e-16 
  6971.9473  8.22653169e-16 
  6974.7021  8.55904453e-16 
  6977.4565  8.01724467e-16 
  6980.2114   8.0211172e-16 
  6982.9663  8.26823747e-16 
  6985.7212  8.16690374e-16 
  6988.4756  8.27092309e-16 
  6991.2305  7.83530623e-16 
  6993.9854  7.75876198e-16 
  6996.7397  8.39170417e-16 
  6999.4946  7.85077252e-16 
  7002.2495  7.43593019e-16 
  7005.0044  7.38574137e-16 
  7007.7588  7.82350176e-16 
  7010.5137   8.1369696e-16 
  7013.2686  7.93928428e-16 
  7016.0234  7.65038729e-16 
  7018.7778  7.70530996e-16 
  7021.5327  7.90060505e-16 
  7024.2876  7.92302337e-16 
   7027.042  7.84924256e-16 
  7029.7969  7.92832738e-16 
  7032.5518  8.06293521e-16 
  7035.3066   7.9951154e-16 
   7038.061  7.80433605e-16 
  7040.8159  7.76467585e-16 
  7043.5708  7.94033037e-16 
  7046.3257  8.10946644e-16 
  7049.0801  8.01119844e-16 
   7051.835  7.62343205e-16 
  7054.5898  7.35820751e-16 
  7057.3442  7.43366067e-16 
  7060.0991  7.57117012e-16 
   7062.854  7.65724931e-16 
  7065.6089  7.76145448e-16 
  7068.3633  7.80005007e-16 
  7071.1182  7.75390424e-16 
   7073.873  7.72529729e-16 
  7076.6279  7.78362345e-16 
  7079.3823  7.92817915e-16 
  7082.1372  7.95529003e-16 
  7084.8921  7.75373219e-16 
  7087.6465  7.58278823e-16 
  7090.4014  7.59407706e-16 
  7093.1563  7.67419791e-16 
  7095.9111  7.73654907e-16 
  7098.6655   7.6563181e-16 
  7101.4204  7.54584913e-16 
  7104.1753  7.55259574e-16 
  7106.9302  7.51408327e-16 
  7109.6846    7.447795e-16 
  7112.4395  7.49726543e-16 
  7115.1943  7.65371454e-16 
  7117.9487  7.75944701e-16 
  7120.7036  7.65585224e-16 
  7123.4585  7.55747412e-16 
  7126.2134  7.64972872e-16 
  7128.9678  7.65142543e-16 
  7131.7227  7.48801266e-16 
  7134.4775  7.51878484e-16 
  7137.2324  7.82641079e-16 
  7139.9868  8.10210413e-16 
  7142.7417  8.15695534e-16 
  7145.4966  8.01389942e-16 
   7148.251  7.95284687e-16 
  7151.0059  8.08389875e-16 
  7153.7607  8.07290903e-16 
  7156.5156  7.97091938e-16 
    7159.27  7.95826417e-16 
  7162.0249  7.81681655e-16 
  7164.7798  7.71132972e-16 
  7167.5347  7.89234595e-16 
  7170.2891  8.04290606e-16 
  7173.0439  8.05388678e-16 
  7175.7988  8.13918194e-16 
  7178.5532  8.15849006e-16 
  7181.3081  7.99665224e-16 
   7184.063  7.89219243e-16 
  7186.8179  7.92269673e-16 
  7189.5723  7.89310352e-16 
  7192.3271  7.75198571e-16 
   7195.082  7.60193965e-16 
  7197.8369  7.48593796e-16 
  7200.5913  7.41765545e-16 
  7203.3462  7.27824124e-16 
  7206.1011  7.10107795e-16 
  7208.8555  7.06302076e-16 
  7211.6104  7.24207294e-16 
  7214.3652  7.57139405e-16 
  7217.1201  7.80497345e-16 
  7219.8745  7.79187302e-16 
  7222.6294   7.6539083e-16 
  7225.3843  7.51383181e-16 
  7228.1392   7.3706213e-16 
  7230.8936  7.39492109e-16 
  7233.6484  7.58024343e-16 
  7236.4033  7.67440491e-16 
  7239.1577   7.7953485e-16 
  7241.9126  8.01249864e-16 
  7244.6675  8.11926767e-16 
  7247.4224  8.13461908e-16 
  7250.1768  8.12252027e-16 
  7252.9316  8.11158031e-16 
  7255.6865  8.06512267e-16 
  7258.4414   7.9213436e-16 
  7261.1958  7.92300908e-16 
  7263.9507  8.08390987e-16 
  7266.7056  8.09533369e-16 
    7269.46  7.95960884e-16 
  7272.2148  7.82044291e-16 
  7274.9697  7.71217357e-16 
  7277.7246   7.7274567e-16 
   7280.479  7.77570369e-16 
  7283.2339  7.87895754e-16 
  7285.9888  8.01436581e-16 
  7288.7437  7.90246853e-16 
   7291.498  7.71706413e-16 
  7294.2529  7.79661164e-16 
  7297.0078  7.94502293e-16 
  7299.7622   7.8923396e-16 
  7302.5171  7.77219539e-16 
   7305.272  7.60779529e-16 
  7308.0269  7.23441046e-16 
  7310.7813  6.97154861e-16 
  7313.5361  7.06140769e-16 
   7316.291   7.2342887e-16 
  7319.0459   7.4152647e-16 
  7321.8003  7.66588587e-16 
  7324.5552  7.69367173e-16 
  7327.3101  7.51311024e-16 
  7330.0649  7.46730906e-16 
  7332.8193  7.51710083e-16 
  7335.5742  7.51453697e-16 
  7338.3291  7.37719957e-16 
  7341.0835  7.11585973e-16 
  7343.8384  6.98734736e-16 
  7346.5933  7.11667871e-16 
  7349.3481  7.25325059e-16 
  7352.1025  7.16218608e-16 
  7354.8574  7.02248017e-16 
  7357.6123  7.07224812e-16 
  7360.3672  7.11867453e-16 
  7363.1216  6.97408918e-16 
  7365.8765  6.79981109e-16 
  7368.6313  6.75595755e-16 
  7371.3857  6.81600531e-16 
  7374.1406  6.87850469e-16 
  7376.8955  6.87000418e-16 
  7379.6504  6.63427968e-16 
  7382.4048  6.29137057e-16 
  7385.1597  6.30993277e-16 
  7387.9146  6.66173096e-16 
  7390.6694  6.87838293e-16 
  7393.4238  6.76190161e-16 
  7396.1787  6.58765422e-16 
  7398.9336  6.55488728e-16 
   7401.688  6.49432813e-16 
  7404.4429  6.42471949e-16 
  7407.1978  6.44084435e-16 
  7409.9526  6.37301396e-16 
   7412.707  6.24171856e-16 
  7415.4619  6.20721837e-16 
  7418.2168  6.26652815e-16 
  7420.9717  6.28306753e-16 
  7423.7261  6.15915825e-16 
   7426.481  6.14358238e-16 
  7429.2358  6.25217412e-16 
  7431.9902   6.1215447e-16 
  7434.7451  5.88716062e-16 
     7437.5   5.8726213e-16 
  7440.2549  5.91807627e-16 
  7443.0093  5.86917494e-16 
  7445.7642  5.79449839e-16 
   7448.519  5.84160984e-16 
  7451.2739  6.01740253e-16 
  7454.0283   6.0757128e-16 
  7456.7832  6.02724558e-16 
  7459.5381  6.12092795e-16 
  7462.2925   6.2526384e-16 
  7465.0474  6.14874081e-16 
  7467.8022  5.91683166e-16 
  7470.5571  5.79192024e-16 
  7473.3115  5.75824962e-16 
  7476.0664  5.87424284e-16 
  7478.8213  6.04826152e-16 
  7481.5762  6.03247177e-16 
  7484.3306  5.88355279e-16 
  7487.0854  5.80390364e-16 
  7489.8403  5.92731634e-16 
  7492.5947   6.0996436e-16 
  7495.3496  6.00602793e-16 
  7498.1045  5.76006703e-16 
  7500.8594  5.64701196e-16 
  7503.6138  5.55322582e-16 
  7506.3687  5.43271368e-16 
  7509.1235  5.48939448e-16 
  7511.8784  5.66355557e-16 
  7514.6328  5.66635237e-16 
  7517.3877  5.45520029e-16 
  7520.1426  5.24247432e-16 
   7522.897  5.05780049e-16 
  7525.6519  4.98193492e-16 
  7528.4067  5.17239081e-16 
  7531.1616  5.43445539e-16 
   7533.916  5.52005442e-16 
  7536.6709  5.37426788e-16 
  7539.4258  5.22808058e-16 
  7542.1807  5.29296383e-16 
  7544.9351  5.41187085e-16 
  7547.6899   5.4271725e-16 
  7550.4448  5.45294506e-16 
  7553.1992  5.62078941e-16 
  7555.9541  5.75650155e-16 
   7558.709  5.62647353e-16 
  7561.4639  5.45123935e-16 
  7564.2183  5.53053858e-16 
  7566.9731  5.76157793e-16 
   7569.728  5.94888285e-16 
  7572.4829  5.95106238e-16 
  7575.2373  5.72185208e-16 
  7577.9922  5.48206606e-16 
  7580.7471  5.47533585e-16 
  7583.5015  5.56130122e-16 
  7586.2563  5.47330085e-16 
  7589.0112  5.29326559e-16 
  7591.7661  5.23399234e-16 
  7594.5205  5.24684236e-16 
  7597.2754  5.12465415e-16 
  7600.0303  4.97329625e-16 
  7602.7852  4.98213662e-16 
  7605.5396  4.98882395e-16 
  7608.2944  4.90093581e-16 
  7611.0493  4.85894521e-16 
  7613.8037  4.99540328e-16 
  7616.5586   5.2908669e-16 
  7619.3135  5.45474236e-16 
  7622.0684  5.31382096e-16 
  7624.8228  5.12592099e-16 
  7627.5776  5.21372761e-16 
  7630.3325  5.41407578e-16 
  7633.0874  5.41940891e-16 
  7635.8418  5.34471119e-16 
  7638.5967  5.37331603e-16 
  7641.3516  5.50444043e-16 
   7644.106  5.50128259e-16 
  7646.8608  5.40152063e-16 
  7649.6157  5.49090696e-16 
  7652.3706  5.69175859e-16 
   7655.125  5.75663496e-16 
  7657.8799   5.7258649e-16 
  7660.6348  5.74890208e-16 
  7663.3896  5.78346844e-16 
   7666.144  5.64737036e-16 
  7668.8989  5.37517156e-16 
  7671.6538  5.32001383e-16 
  7674.4082  5.59148736e-16 
  7677.1631   5.9109289e-16 
   7679.918  6.00541172e-16 
  7682.6729   5.8329574e-16 
  7685.4272  5.59360283e-16 
  7688.1821  5.46302105e-16 
   7690.937  5.49116743e-16 
  7693.6919  5.67053353e-16 
  7696.4463  5.80006764e-16 
  7699.2012  5.77930898e-16 
  7701.9561  5.80753529e-16 
  7704.7104  5.82860365e-16 
  7707.4653  5.63905832e-16 
  7710.2202  5.46049848e-16 
  7712.9751  5.51869653e-16 
  7715.7295  5.65260714e-16 
  7718.4844  5.68764731e-16 
  7721.2393  5.64429828e-16 
  7723.9941  5.53175619e-16 
  7726.7485  5.42093992e-16 
  7729.5034  5.48992652e-16 
  7732.2583  5.55150793e-16 
  7735.0127  5.53876538e-16 
  7737.7676    5.576443e-16 
  7740.5225  5.57221683e-16 
  7743.2773  5.51071324e-16 
  7746.0317  5.33484008e-16 
  7748.7866  5.09076913e-16 
  7751.5415  4.98601445e-16 
  7754.2964  5.17887749e-16 
  7757.0508  5.56950474e-16 
  7759.8057  5.68803112e-16 
  7762.5605  5.49882407e-16 
  7765.3149  5.44173617e-16 
  7768.0698  5.50867718e-16 
  7770.8247  5.46566697e-16 
  7773.5796  5.36488169e-16 
   7776.334  5.29478442e-16 
  7779.0889  5.13308742e-16 
  7781.8438  4.97081656e-16 
  7784.5986  5.08998033e-16 
   7787.353  5.26462052e-16 
  7790.1079  5.01468175e-16 
  7792.8628  4.65920002e-16 
  7795.6172   4.7727559e-16 
  7798.3721  5.18525195e-16 
   7801.127  5.50350393e-16 
  7803.8818  5.58145108e-16 
  7806.6362  5.60299324e-16 
  7809.3911  5.82379303e-16 
   7812.146  6.07238608e-16 
  7814.9009  6.07418761e-16 
  7817.6553  5.93265953e-16 
  7820.4102  5.89690997e-16 
   7823.165  5.96728464e-16 
  7825.9194  5.94520567e-16 
  7828.6743  5.66548575e-16 
  7831.4292  5.33139901e-16 
  7834.1841  5.26789536e-16 
  7836.9385  5.36411937e-16 
  7839.6934  5.41735962e-16 
  7842.4482  5.52202325e-16 
  7845.2031  5.63844793e-16 
  7847.9575  5.62324104e-16 
  7850.7124  5.48308514e-16 
  7853.4673  5.22947236e-16 
  7856.2222  5.02547824e-16 
  7858.9766  5.13789433e-16 
  7861.7314  5.45299218e-16 
  7864.4863  5.58203765e-16 
  7867.2407  5.51028866e-16 
  7869.9956  5.51695587e-16 
  7872.7505  5.45966362e-16 
  7875.5054  5.16783113e-16 
  7878.2598  4.93478113e-16 
  7881.0146  4.90475222e-16 
  7883.7695  5.04034208e-16 
  7886.5244  5.16253294e-16 
  7889.2788  5.12583523e-16 
  7892.0337  5.13201593e-16 
  7894.7886  5.33812128e-16 
   7897.543  5.61857865e-16 
  7900.2979  5.76514817e-16 
  7903.0527  5.64921636e-16 
  7905.8076  5.41545221e-16 
   7908.562  5.38636298e-16 
  7911.3169  5.48213647e-16 
  7914.0718  5.48203853e-16 
  7916.8267  5.48510849e-16 
  7919.5811  5.36433165e-16 
  7922.3359  5.01231376e-16 
  7925.0908  4.77813615e-16 
  7927.8452  4.81380735e-16 
  7930.6001  4.84484952e-16 
   7933.355  4.82453503e-16 
  7936.1099   4.9131442e-16 
  7938.8643  5.08071855e-16 
  7941.6191  5.08068255e-16 
   7944.374  4.88037673e-16 
  7947.1289  4.82883901e-16 
  7949.8833  5.01915355e-16 
  7952.6382  5.13124089e-16 
  7955.3931  5.06128179e-16 
  7958.1475  4.96015771e-16 
  7960.9023  4.88698518e-16 
  7963.6572  4.85518227e-16 
  7966.4121  4.84170332e-16 
  7969.1665  4.76616387e-16 
  7971.9214  4.70326479e-16 
  7974.6763  4.85905427e-16 
  7977.4312   5.2653188e-16 
  7980.1855  5.70362235e-16 
  7982.9404   5.7869111e-16 
  7985.6953  5.51784526e-16 
  7988.4497  5.23643656e-16 
  7991.2046  4.99010614e-16 
  7993.9595  4.83314617e-16 
  7996.7144  4.75084316e-16 
  7999.4688  4.60201788e-16 
  8002.2236  4.56402422e-16 
  8004.9785  4.75231382e-16 
  8007.7334  4.99484265e-16 
  8010.4878    5.098817e-16 
  8013.2427   4.9573895e-16 
  8015.9976  4.74258988e-16 
   8018.752  4.68050184e-16 
  8021.5068  4.72535858e-16 
  8024.2617  4.79286923e-16 
  8027.0166    4.937066e-16 
   8029.771  5.07752153e-16 
  8032.5259  4.97416604e-16 
  8035.2808  4.69942932e-16 
  8038.0356  4.63128287e-16 
    8040.79  4.81581535e-16 
  8043.5449  5.01016494e-16 
  8046.2998  5.19372757e-16 
  8049.0542  5.36654876e-16 
  8051.8091   5.2626914e-16 
   8054.564  4.93905017e-16 
  8057.3188  4.77812768e-16 
  8060.0732  4.78082124e-16 
  8062.8281  4.76034687e-16 
   8065.583  4.60596559e-16 
  8068.3379  4.35094541e-16 
  8071.0923  4.12516242e-16 
  8073.8472  4.10640699e-16 
  8076.6021  4.34035591e-16 
  8079.3564  4.59216848e-16 
  8082.1113  4.65078157e-16 
  8084.8662  4.59439988e-16 
  8087.6211  4.58765856e-16 
  8090.3755  4.64766872e-16 
  8093.1304   4.7244115e-16 
  8095.8853  4.77851149e-16 
  8098.6401   4.7311417e-16 
  8101.3945  4.56619898e-16 
  8104.1494  4.46988074e-16 
  8106.9043   4.5551129e-16 
  8109.6587  4.61364182e-16 
  8112.4136  4.57289954e-16 
  8115.1685  4.58306711e-16 
  8117.9233  4.66633521e-16 
  8120.6777  4.64015289e-16 
  8123.4326  4.43831659e-16 
  8126.1875  4.38810315e-16 
  8128.9424  4.54419888e-16 
  8131.6968  4.63532163e-16 
  8134.4517  4.65779659e-16 
  8137.2065  4.66832786e-16 
  8139.9609  4.59412459e-16 
  8142.7158  4.42373306e-16 
  8145.4707   4.2544755e-16 
  8148.2256  4.19253542e-16 
    8150.98  4.15854002e-16 
  8153.7349  4.11148999e-16 
  8156.4897   4.1747517e-16 
  8159.2446  4.25588025e-16 
   8161.999  4.29999134e-16 
  8164.7539  4.34599397e-16 
  8167.5088  4.34498759e-16 
  8170.2632  4.44798812e-16 
  8173.0181  4.69124857e-16 
  8175.7729  4.86323173e-16 
  8178.5278  4.89220449e-16 
  8181.2822  4.82274408e-16 
  8184.0371  4.69281664e-16 
   8186.792  4.58028355e-16 
  8189.5469  4.50765576e-16 
  8192.3018  4.41089681e-16 
  8195.0566  4.34437587e-16 
  8197.8105  4.33171458e-16 
  8200.5654   4.3693914e-16 
  8203.3203  4.62631449e-16 
  8206.0752  4.94837918e-16 
  8208.8301   5.0203484e-16 
   8211.585  4.88208668e-16 
  8214.3398   4.6889764e-16 
  8217.0938   4.4621521e-16 
  8219.8486  4.15741585e-16 
  8222.6035   3.8893458e-16 
  8225.3584  3.89013725e-16 
  8228.1133  4.21998485e-16 
  8230.8682  4.74683775e-16 
   8233.623  5.15308746e-16 
   8236.377  5.15058024e-16 
  8239.1318  4.90097446e-16 
  8241.8867  4.70870327e-16 
  8244.6416  4.66322766e-16 
  8247.3965  4.71906037e-16 
  8250.1514  4.79790749e-16 
  8252.9063   4.9096936e-16 
  8255.6611  5.01071604e-16 
   8258.415  5.05906945e-16 
  8261.1699  5.02519501e-16 
  8263.9248  4.98480742e-16 
  8266.6797  5.03209304e-16 
  8269.4346  5.06527767e-16 
  8272.1895  5.08893371e-16 
  8274.9443  5.17819616e-16 
  8277.6982  5.24444261e-16 
  8280.4531  5.22666974e-16 
   8283.208  5.22274427e-16 
  8285.9629  5.29351493e-16 
  8288.7178  5.22331073e-16 
  8291.4727  4.97384417e-16 
  8294.2275   4.8610125e-16 
  8296.9814  4.85480269e-16 
  8299.7363   4.7598233e-16 
  8302.4912  4.59665987e-16 
  8305.2461   4.4543361e-16 
   8308.001  4.47393909e-16 
  8310.7559  4.71721701e-16 
  8313.5107  4.92003376e-16 
  8316.2656  4.90818588e-16 
  8319.0195  4.88870677e-16 
  8321.7744  4.99667859e-16 
  8324.5293  5.00839835e-16 
  8327.2842  4.69650705e-16 
  8330.0391  4.27498746e-16 
  8332.7939  4.06884029e-16 
  8335.5488   4.0791005e-16 
  8338.3027  4.32163754e-16 
  8341.0576  4.85500651e-16 
  8343.8125  5.51404049e-16 
  8346.5674  5.88444376e-16 
  8349.3223  5.82373797e-16 
  8352.0771  5.64393246e-16 
   8354.832  5.58450728e-16 
  8357.5859  5.43678315e-16 
  8360.3408  5.10657423e-16 
  8363.0957  4.87956781e-16 
  8365.8506  4.82879084e-16 
  8368.6055  4.75829546e-16 
  8371.3604  4.89020125e-16 
  8374.1152  5.28983881e-16 
  8376.8701  5.37978577e-16 
   8379.624   5.0696616e-16 
  8382.3789  4.78189433e-16 
  8385.1338  4.70655975e-16 
  8387.8887  4.71106543e-16 
  8390.6436  4.58756168e-16 
  8393.3984  4.31458493e-16 
  8396.1533  3.98774429e-16 
  8398.9072  3.79172287e-16 
  8401.6621  3.84177484e-16 
   8404.417  4.13268487e-16 
  8407.1719  4.54428518e-16 
  8409.9268  4.94908275e-16 
  8412.6816  5.28605681e-16 
  8415.4365  5.50006498e-16 
  8418.1904  5.54534736e-16 
  8420.9453  5.47018695e-16 
  8423.7002  5.38761606e-16 
  8426.4551  5.19027856e-16 
    8429.21  4.93004357e-16 
  8431.9648   5.0595639e-16 
  8434.7197  5.43609758e-16 
  8437.4746  5.53674627e-16 
  8440.2285  5.26472905e-16 
  8442.9834  4.81458821e-16 
  8445.7383  4.52961509e-16 
  8448.4932  4.49829976e-16 
   8451.248  4.57293659e-16 
  8454.0029  4.74098846e-16 
  8456.7578  5.13114825e-16 
  8459.5117   5.5105846e-16 
  8462.2666  5.36720733e-16 
  8465.0215  4.78593362e-16 
  8467.7764  4.26183622e-16 
  8470.5313  4.06254922e-16 
  8473.2861  4.17836165e-16 
   8476.041  4.27435457e-16 
  8478.7949  4.18740637e-16 
  8481.5498  4.17663847e-16 
  8484.3047  4.42773477e-16 
  8487.0596    4.838816e-16 
  8489.8145  5.20651777e-16 
  8492.5693  5.33042016e-16 
  8495.3242   5.1977658e-16 
  8498.0791  5.00222613e-16 
   8500.833  4.80026912e-16 
  8503.5879  4.61457779e-16 
  8506.3428  4.55265068e-16 
  8509.0977   4.5020087e-16 
  8511.8525  4.33572263e-16 
  8514.6074   4.1622802e-16 
  8517.3623  4.13753731e-16 
  8520.1162  4.31759189e-16 
  8522.8711  4.49180407e-16 
   8525.626  4.52938587e-16 
  8528.3809  4.59070735e-16 
  8531.1357  4.70792771e-16 
  8533.8906  4.71279973e-16 
  8536.6455  4.56004634e-16 
  8539.3994  4.40667832e-16 
  8542.1543  4.37930857e-16 
  8544.9092  4.43390487e-16 
  8547.6641   4.4197536e-16 
  8550.4189  4.40364621e-16 
  8553.1738  4.51150976e-16 
  8555.9287  4.62190304e-16 
  8558.6836   4.5545581e-16 
  8561.4375  4.33128948e-16 
  8564.1924  4.19469006e-16 
  8566.9473  4.13061467e-16 
  8569.7021  3.95518938e-16 
   8572.457   3.7775941e-16 
  8575.2119  3.86335115e-16 
  8577.9668  4.07776802e-16 
  8580.7207  4.15618368e-16 
  8583.4756  4.17564055e-16 
  8586.2305  4.39739219e-16 
  8588.9854  4.72658784e-16 
  8591.7402  4.82702742e-16 
  8594.4951  4.79707528e-16 
    8597.25  4.86978458e-16 
  8600.0039  4.95768119e-16 
  8602.7588  5.01498244e-16 
  8605.5137  5.13893354e-16 
  8608.2686  5.24926964e-16 
  8611.0234  5.08416545e-16 
  8613.7783   4.7350407e-16 
  8616.5332  4.57566828e-16 
  8619.2881  4.69161067e-16 
   8622.042  4.87010593e-16 
  8624.7969  4.90844793e-16 
  8627.5518  4.92259074e-16 
  8630.3066  4.91242528e-16 
  8633.0615   4.7607905e-16 
  8635.8164  4.60062875e-16 
  8638.5713  4.39404932e-16 
  8641.3252  4.16587638e-16 
  8644.0801  4.39461842e-16 
   8646.835  4.88690206e-16 
  8649.5898  4.91982306e-16 
  8652.3447  4.71597664e-16 
  8655.0996  4.65348996e-16 
  8657.8545  4.50930642e-16 
  8660.6094  4.24805128e-16 
  8663.3633  4.14695261e-16 
  8666.1182  4.28946855e-16 
   8668.873  4.40750391e-16 
  8671.6279  4.46207322e-16 
  8674.3828  4.69760767e-16 
  8677.1377  5.00800024e-16 
  8679.8926  5.06146285e-16 
  8682.6465  4.99876229e-16 
  8685.4014  5.06927831e-16 
  8688.1563  5.05514292e-16 
  8690.9111  4.78859489e-16 
   8693.666  4.56764687e-16 
  8696.4209   4.6058957e-16 
  8699.1758   4.5957509e-16 
  8701.9297  4.32310423e-16 
  8704.6846  4.07953196e-16 
  8707.4395  4.10840096e-16 
  8710.1943  4.29555024e-16 
  8712.9492  4.57299324e-16 
  8715.7041   4.8579833e-16 
   8718.459   4.9069958e-16 
  8721.2139   4.6965277e-16 
  8723.9678  4.53644536e-16 
  8726.7227  4.48961608e-16 
  8729.4775  4.41020039e-16 
  8732.2324   4.3346882e-16 
  8734.9873  4.26343234e-16 
  8737.7422  4.30330642e-16 
  8740.4971  4.48837994e-16 
   8743.251  4.52384998e-16 
  8746.0059  4.41738138e-16 
  8748.7607  4.35210875e-16 
  8751.5156  4.49594183e-16 
  8754.2705  4.77668349e-16 
  8757.0254  4.86187383e-16 
  8759.7803   4.6933905e-16 
  8762.5342  4.66289308e-16 
  8765.2891  4.88206815e-16 
  8768.0439  5.06916343e-16 
  8770.7988  5.04786479e-16 
  8773.5537  4.75673269e-16 
  8776.3086  4.40936024e-16 
  8779.0635  4.46202186e-16 
  8781.8184  4.73526358e-16 
  8784.5723  4.79066906e-16 
  8787.3271   4.6908944e-16 
   8790.082  4.50542701e-16 
  8792.8369  4.38395454e-16 
