# STATUS =
# OBJECT = DES15X1noe
# TELESCOPE = GTC
# INSTRUMENT = OSIRIS
# DATE-OBS = 2016-01-28
# MJD = 57415.0
# EXPTIME =
# AIRMASS =
# SLIT =
# DISPERSER =
# SOURCE = 2019MNRAS.487.2215A
# FILTER =
# RESOLUTION =
# FLUX_STANDARD =
# EXTINCTION_CORRECTED =
# PHOTOMETRY_CALIBRATED =
# TELLURIC_CORRECTED =
# FLUX_UNITS =
# WAVE_UNITS =
# QUALITY = MEDIUM
# MIN_WAVE =
# MAX_WAVE =
# COMMENT = Obtained from private comm with Angus.
 Wavelength          Flux 
  4804.7606  -2.98079e-18 
  4809.3736   2.61741e-18 
  4813.9866   6.32805e-18 
  4818.5995   5.72551e-18 
  4823.2125   5.43172e-18 
  4827.8255   6.01687e-18 
  4832.4385   8.81523e-18 
  4837.0514   5.20264e-18 
  4841.6644   6.88275e-18 
  4846.2774   8.36992e-18 
  4850.8903   1.15194e-18 
  4855.5033   3.47465e-18 
  4860.1163   3.06204e-18 
  4864.7293    4.5586e-18 
  4869.3422   2.46511e-18 
  4873.9552   5.73722e-18 
  4878.5682   6.14159e-18 
  4883.1812   2.58495e-18 
  4887.7941   4.72849e-18 
  4892.4071   4.57846e-18 
  4897.0201   4.12129e-18 
   4901.633   4.98464e-18 
   4906.246   3.54994e-18 
   4910.859   2.95995e-18 
   4915.472   2.86468e-18 
  4920.0849   3.37056e-18 
  4924.6979   2.57975e-18 
  4929.3109   3.52058e-18 
  4933.9239   2.57161e-18 
  4938.5368   2.96829e-18 
  4943.1498   2.00267e-18 
  4947.7628   3.35983e-18 
  4952.3757     3.893e-18 
  4956.9887   3.09431e-18 
  4961.6017   3.10328e-18 
  4966.2147   3.03442e-18 
  4970.8276    2.6566e-18 
  4975.4406   2.77976e-18 
  4980.0536   2.38267e-18 
  4984.6666   2.28475e-18 
  4989.2795   3.02913e-18 
  4993.8925   3.33347e-18 
  4998.5055   2.04888e-18 
  5003.1184   2.44766e-18 
  5007.7314   2.33604e-18 
  5012.3444   2.08877e-18 
  5016.9574   2.20471e-18 
  5021.5703   2.43445e-18 
  5026.1833   2.20864e-18 
  5030.7963   1.83192e-18 
  5035.4093   1.74945e-18 
  5040.0222   1.86565e-18 
  5044.6352   1.43273e-18 
  5049.2482   2.14088e-18 
  5053.8611   2.29121e-18 
  5058.4741   2.52326e-18 
  5063.0871   2.42756e-18 
  5067.7001   2.07792e-18 
   5072.313   1.76873e-18 
   5076.926   2.10036e-18 
   5081.539  -3.28874e-18 
   5086.152  -4.95804e-18 
  5090.7649    2.1614e-18 
  5095.3779   2.00185e-18 
  5099.9909   1.70617e-18 
  5104.6038   1.97904e-18 
  5109.2168   2.38664e-18 
  5113.8298   2.09945e-18 
  5118.4428   2.06384e-18 
  5123.0557   1.86057e-18 
  5127.6687   1.61296e-18 
  5132.2817   2.24348e-18 
  5136.8947   1.65037e-18 
  5141.5076   1.70052e-18 
  5146.1206   1.92573e-18 
  5150.7336   1.77522e-18 
  5155.3465   2.10648e-18 
  5159.9595   2.09337e-18 
  5164.5725   1.87941e-18 
  5169.1855   2.13059e-18 
  5173.7984   1.75993e-18 
  5178.4114   1.73102e-18 
  5183.0244   1.96023e-18 
  5187.6374   1.73944e-18 
  5192.2503   1.61601e-18 
  5196.8633   2.30703e-18 
  5201.4763   2.17241e-18 
  5206.0892   1.86223e-18 
  5210.7022   2.27889e-18 
  5215.3152   2.05481e-18 
  5219.9282   2.31679e-18 
  5224.5411    2.3931e-18 
  5229.1541   2.54294e-18 
  5233.7671   2.49232e-18 
  5238.3801   2.39198e-18 
   5242.993   2.45355e-18 
   5247.606   2.21699e-18 
   5252.219   2.50948e-18 
  5256.8319   2.12255e-18 
  5261.4449   2.17212e-18 
  5266.0579   2.12708e-18 
  5270.6709    1.8708e-18 
  5275.2838   2.45369e-18 
  5279.8968   2.02387e-18 
  5284.5098   2.09862e-18 
  5289.1228   2.57915e-18 
  5293.7357   2.64197e-18 
  5298.3487   3.11827e-18 
  5302.9617   2.94194e-18 
  5307.5746   2.10078e-18 
  5312.1876   2.65867e-18 
  5316.8006    2.8944e-18 
  5321.4136   2.20125e-18 
  5326.0265   2.66357e-18 
  5330.6395   3.06954e-18 
  5335.2525   2.67792e-18 
  5339.8655   2.91789e-18 
  5344.4784    2.5711e-18 
  5349.0914   2.38529e-18 
  5353.7044   1.94906e-18 
  5358.3173   3.24736e-18 
  5362.9303   2.87658e-18 
  5367.5433   2.45142e-18 
  5372.1563   2.57812e-18 
  5376.7692   2.58459e-18 
  5381.3822   2.84935e-18 
  5385.9952   3.14825e-18 
  5390.6082    2.8062e-18 
  5395.2211   2.88723e-18 
  5399.8341   2.65205e-18 
  5404.4471   2.59883e-18 
    5409.06   2.70739e-18 
   5413.673   2.88393e-18 
   5418.286   3.09117e-18 
   5422.899   2.43516e-18 
  5427.5119   2.95958e-18 
  5432.1249   3.31469e-18 
  5436.7379   2.67152e-18 
  5441.3509    2.9781e-18 
  5445.9638   3.11873e-18 
  5450.5768   2.59542e-18 
  5455.1898   2.76419e-18 
  5459.8027   2.42155e-18 
  5464.4157   3.27199e-18 
  5469.0287    2.2975e-18 
  5473.6417   2.64202e-18 
  5478.2546   2.75449e-18 
  5482.8676   2.19966e-18 
  5487.4806   2.31624e-18 
  5492.0936   2.10133e-18 
  5496.7065    3.1475e-18 
  5501.3195   1.88322e-18 
  5505.9325   2.33657e-18 
  5510.5454   2.38435e-18 
  5515.1584   2.35437e-18 
  5519.7714   2.52204e-18 
  5524.3844   2.30336e-18 
  5528.9973   2.21772e-18 
  5533.6103   2.42247e-18 
  5538.2233   2.88559e-18 
  5542.8363   2.77497e-18 
  5547.4492    2.7198e-18 
  5552.0622   1.99186e-18 
  5556.6752   2.23388e-18 
  5561.2881   2.05002e-18 
  5565.9011   2.58983e-18 
  5570.5141   1.96576e-18 
  5575.1271   3.63742e-18 
    5579.74    1.5128e-18 
   5584.353   1.39326e-18 
   5588.966   1.80724e-18 
   5593.579   2.50851e-18 
  5598.1919   2.28703e-18 
  5602.8049   1.92565e-18 
  5607.4179   1.84805e-18 
  5612.0308   1.93594e-18 
  5616.6438   2.04933e-18 
  5621.2568   1.80371e-18 
  5625.8698   2.22961e-18 
  5630.4827   2.21904e-18 
  5635.0957    2.1382e-18 
  5639.7087   1.67881e-18 
  5644.3217   1.72747e-18 
  5648.9346   2.07157e-18 
  5653.5476   1.74694e-18 
  5658.1606   1.96914e-18 
  5662.7735   1.84627e-18 
  5667.3865   1.81534e-18 
  5671.9995   1.76685e-18 
  5676.6125   2.22753e-18 
  5681.2254   2.42705e-18 
  5685.8384   2.32813e-18 
  5690.4514   1.42573e-18 
  5695.0644   2.28617e-18 
  5699.6773   1.74049e-18 
  5704.2903   1.56958e-18 
  5708.9033   2.21491e-18 
  5713.5162   1.78509e-18 
  5718.1292   1.52677e-18 
  5722.7422   2.39544e-18 
  5727.3552   2.10382e-18 
  5731.9681   1.80291e-18 
  5736.5811   1.98734e-18 
  5741.1941   2.22471e-18 
  5745.8071   2.49148e-18 
    5750.42   2.09147e-18 
   5755.033   2.14865e-18 
   5759.646   2.50045e-18 
  5764.2589   2.59503e-18 
  5768.8719   2.70862e-18 
  5773.4849   2.59078e-18 
  5778.0979   2.71672e-18 
  5782.7108   2.72037e-18 
  5787.3238     2.766e-18 
  5791.9368   2.83963e-18 
  5796.5498   2.38924e-18 
  5801.1627    2.5906e-18 
  5805.7757   2.81605e-18 
  5810.3887   3.12955e-18 
  5815.0016   2.87135e-18 
  5819.6146   3.00652e-18 
  5824.2276   2.92652e-18 
  5828.8406   2.92649e-18 
  5833.4535   2.57912e-18 
  5838.0665   2.81117e-18 
  5842.6795   3.26244e-18 
  5847.2925   3.53459e-18 
  5851.9054    3.1202e-18 
  5856.5184   2.94136e-18 
  5861.1314   3.43585e-18 
  5865.7443   3.12658e-18 
  5870.3573   3.29946e-18 
  5874.9703   3.26893e-18 
  5879.5833   2.83074e-18 
  5884.1962   2.23553e-18 
  5888.8092   2.56601e-18 
  5893.4222   3.69382e-18 
  5898.0352   3.75956e-18 
  5902.6481   2.81887e-18 
  5907.2611    3.2663e-18 
  5911.8741   3.01377e-18 
   5916.487   2.76585e-18 
     5921.1   3.48674e-18 
   5925.713   3.58236e-18 
   5930.326   2.75108e-18 
  5934.9389   2.90407e-18 
  5939.5519    3.1533e-18 
  5944.1649   3.04167e-18 
  5948.7779   2.89612e-18 
  5953.3908    3.0791e-18 
  5958.0038   2.99555e-18 
  5962.6168   3.16176e-18 
  5967.2297    2.9196e-18 
  5971.8427   2.89132e-18 
  5976.4557   2.94519e-18 
  5981.0687   2.85172e-18 
  5985.6816   2.74711e-18 
  5990.2946   2.32965e-18 
  5994.9076   2.48181e-18 
  5999.5206   2.61904e-18 
  6004.1335   2.77608e-18 
  6008.7465   2.66776e-18 
  6013.3595    2.6063e-18 
  6017.9724   2.83424e-18 
  6022.5854    2.8146e-18 
  6027.1984    2.7614e-18 
  6031.8114   2.65457e-18 
  6036.4243   2.64583e-18 
  6041.0373    2.3593e-18 
  6045.6503   2.61443e-18 
  6050.2633   2.71298e-18 
  6054.8762   2.53478e-18 
  6059.4892   2.65917e-18 
  6064.1022   2.69013e-18 
  6068.7151   4.19042e-18 
  6073.3281   3.21119e-18 
  6077.9411    2.4233e-18 
  6082.5541   3.21147e-18 
   6087.167   2.71757e-18 
    6091.78   2.19866e-18 
   6096.393   2.17795e-18 
   6101.006   2.55369e-18 
  6105.6189   2.69861e-18 
  6110.2319    2.4144e-18 
  6114.8449   2.28158e-18 
  6119.4578   2.68749e-18 
  6124.0708   2.25091e-18 
  6128.6838   2.39905e-18 
  6133.2968   2.49923e-18 
  6137.9097    2.2362e-18 
  6142.5227   2.41982e-18 
  6147.1357   2.42718e-18 
  6151.7487   2.45816e-18 
  6156.3616   2.18004e-18 
  6160.9746   2.78108e-18 
  6165.5876   2.69271e-18 
  6170.2005   2.85141e-18 
  6174.8135   2.77478e-18 
  6179.4265   2.90792e-18 
  6184.0395   2.53947e-18 
  6188.6524   2.37084e-18 
  6193.2654   2.78777e-18 
  6197.8784   2.58456e-18 
  6202.4914   2.61571e-18 
  6207.1043   2.56184e-18 
  6211.7173   2.76168e-18 
  6216.3303   2.75688e-18 
  6220.9432   2.73232e-18 
  6225.5562   2.47165e-18 
  6230.1692   2.54444e-18 
  6234.7822    2.5689e-18 
  6239.3951   2.35643e-18 
  6244.0081   2.87003e-18 
  6248.6211   3.16723e-18 
  6253.2341   2.93086e-18 
   6257.847   2.98109e-18 
    6262.46   3.08498e-18 
   6267.073   2.30081e-18 
  6271.6859   2.39891e-18 
  6276.2989   2.56553e-18 
  6280.9119   2.21354e-18 
  6285.5249   2.34065e-18 
  6290.1378   3.15648e-18 
  6294.7508   1.62689e-18 
  6299.3638   3.24347e-18 
  6303.9768    2.3611e-18 
  6308.5897   3.13422e-18 
  6313.2027   2.35892e-18 
  6317.8157   2.53725e-18 
  6322.4286   2.51552e-18 
  6327.0416   2.40727e-18 
  6331.6546   2.31785e-18 
  6336.2676   2.37591e-18 
  6340.8805   2.13227e-18 
  6345.4935   2.33596e-18 
  6350.1065   2.33326e-18 
  6354.7195    2.6035e-18 
  6359.3324   2.98124e-18 
  6363.9454   2.59455e-18 
  6368.5584   2.17442e-18 
  6373.1713   1.99639e-18 
  6377.7843   2.55161e-18 
  6382.3973   2.65404e-18 
  6387.0103   2.53508e-18 
  6391.6232   2.61625e-18 
  6396.2362   2.71462e-18 
  6400.8492   2.66892e-18 
  6405.4622   2.74021e-18 
  6410.0751   2.83995e-18 
  6414.6881   2.63685e-18 
  6419.3011   2.48412e-18 
   6423.914   2.62426e-18 
   6428.527    2.3618e-18 
    6433.14   2.29586e-18 
   6437.753   2.63245e-18 
  6442.3659   2.81366e-18 
  6446.9789    2.8319e-18 
  6451.5919    2.7088e-18 
  6456.2049   2.64524e-18 
  6460.8178   2.49121e-18 
  6465.4308   2.41888e-18 
  6470.0438   2.54644e-18 
  6474.6567   2.42383e-18 
  6479.2697   2.51012e-18 
  6483.8827   2.47564e-18 
  6488.4957   2.57378e-18 
  6493.1086   2.64095e-18 
  6497.7216   2.66267e-18 
  6502.3346    2.5179e-18 
  6506.9476    2.6196e-18 
  6511.5605   2.79496e-18 
  6516.1735   2.60699e-18 
  6520.7865   2.74468e-18 
  6525.3994   2.56409e-18 
  6530.0124    2.5087e-18 
  6534.6254   2.58021e-18 
  6539.2384   2.48239e-18 
  6543.8513   2.91454e-18 
  6548.4643   2.79963e-18 
  6553.0773   2.76194e-18 
  6557.6903   2.73244e-18 
  6562.3032   2.72738e-18 
  6566.9162   2.83777e-18 
  6571.5292   2.65246e-18 
  6576.1421    2.7634e-18 
  6580.7551   2.67824e-18 
  6585.3681   2.77273e-18 
  6589.9811   2.26276e-18 
   6594.594   2.83673e-18 
   6599.207   2.90507e-18 
    6603.82   2.97432e-18 
   6608.433   2.78423e-18 
  6613.0459   2.51971e-18 
  6617.6589   2.55291e-18 
  6622.2719   2.91352e-18 
  6626.8849   2.67186e-18 
  6631.4978   2.61513e-18 
  6636.1108   2.86081e-18 
  6640.7238   2.80856e-18 
  6645.3367   2.82653e-18 
  6649.9497   2.66758e-18 
  6654.5627   2.63338e-18 
  6659.1757   2.90706e-18 
  6663.7886   2.55733e-18 
  6668.4016    2.2466e-18 
  6673.0146   2.52086e-18 
  6677.6276   2.72385e-18 
  6682.2405   2.65656e-18 
  6686.8535    2.8332e-18 
  6691.4665   2.76644e-18 
  6696.0794   2.34775e-18 
  6700.6924   2.55675e-18 
  6705.3054   3.00854e-18 
  6709.9184   2.91926e-18 
  6714.5313   2.79158e-18 
  6719.1443   2.78872e-18 
  6723.7573   2.72401e-18 
  6728.3703   2.73456e-18 
  6732.9832   2.54084e-18 
  6737.5962   2.36081e-18 
  6742.2092   2.78515e-18 
  6746.8221   2.78123e-18 
  6751.4351   2.64558e-18 
  6756.0481   2.72445e-18 
  6760.6611   2.70462e-18 
   6765.274   2.73726e-18 
   6769.887   2.64621e-18 
     6774.5   2.62968e-18 
   6779.113   2.58609e-18 
  6783.7259   2.33342e-18 
  6788.3389   2.83594e-18 
  6792.9519   2.75601e-18 
  6797.5648   2.61731e-18 
  6802.1778   2.57305e-18 
  6806.7908   2.75455e-18 
  6811.4038   2.62575e-18 
  6816.0167   2.52701e-18 
  6820.6297   2.50323e-18 
  6825.2427   2.86244e-18 
  6829.8557   2.48944e-18 
  6834.4686   2.06823e-18 
  6839.0816   2.33509e-18 
  6843.6946   2.60503e-18 
  6848.3075   2.64557e-18 
  6852.9205   2.30869e-18 
  6857.5335    2.4982e-18 
  6862.1465    2.1358e-18 
  6866.7594   2.23927e-18 
  6871.3724   2.27636e-18 
  6875.9854   1.93875e-18 
  6880.5984   1.92545e-18 
  6885.2113   2.14821e-18 
  6889.8243   2.16803e-18 
  6894.4373   2.17203e-18 
  6899.0502   2.02534e-18 
  6903.6632   2.21292e-18 
  6908.2762   2.05626e-18 
  6912.8892   2.34393e-18 
  6917.5021   2.21885e-18 
  6922.1151   2.24492e-18 
  6926.7281   2.38213e-18 
  6931.3411   2.23318e-18 
   6935.954   2.33725e-18 
   6940.567   2.58152e-18 
    6945.18   2.22743e-18 
  6949.7929   2.13233e-18 
  6954.4059   2.48358e-18 
  6959.0189   2.42704e-18 
  6963.6319   2.36093e-18 
  6968.2448   2.49258e-18 
  6972.8578   2.37794e-18 
  6977.4708   2.46201e-18 
  6982.0838   2.59493e-18 
  6986.6967   2.35798e-18 
  6991.3097   2.39059e-18 
  6995.9227    2.8064e-18 
  7000.5356   2.65927e-18 
  7005.1486   2.44921e-18 
  7009.7616   2.50371e-18 
  7014.3746   2.43526e-18 
  7018.9875   2.53073e-18 
  7023.6005   2.49215e-18 
  7028.2135   2.34416e-18 
  7032.8265   2.44006e-18 
  7037.4394   2.78059e-18 
  7042.0524   2.75395e-18 
  7046.6654   2.53777e-18 
  7051.2783   2.48639e-18 
  7055.8913   2.72605e-18 
  7060.5043   2.51525e-18 
  7065.1173   2.34436e-18 
  7069.7302   2.53867e-18 
  7074.3432   2.55534e-18 
  7078.9562   2.64353e-18 
  7083.5692   2.56764e-18 
  7088.1821   2.45315e-18 
  7092.7951   2.53321e-18 
  7097.4081   2.41921e-18 
   7102.021   2.58268e-18 
   7106.634   2.60284e-18 
   7111.247   2.48655e-18 
    7115.86    2.4307e-18 
  7120.4729   2.34582e-18 
  7125.0859   2.18978e-18 
  7129.6989   2.32034e-18 
  7134.3119   2.26254e-18 
  7138.9248     2.247e-18 
  7143.5378   2.54077e-18 
  7148.1508   2.27698e-18 
  7152.7637   2.36461e-18 
  7157.3767   2.31482e-18 
  7161.9897   2.36122e-18 
  7166.6027   2.25969e-18 
  7171.2156   2.15597e-18 
  7175.8286   2.01482e-18 
  7180.4416   2.17439e-18 
  7185.0546   1.86443e-18 
  7189.6675   1.93564e-18 
  7194.2805   1.89036e-18 
  7198.8935   2.19418e-18 
  7203.5064   2.27765e-18 
  7208.1194    2.0648e-18 
  7212.7324   2.09823e-18 
  7217.3454    2.1628e-18 
  7221.9583   2.32448e-18 
  7226.5713   2.20546e-18 
  7231.1843   2.22561e-18 
  7235.7973   2.19766e-18 
  7240.4102   1.91133e-18 
  7245.0232   2.72326e-18 
  7249.6362   1.95677e-18 
  7254.2491   2.31572e-18 
  7258.8621   2.47743e-18 
  7263.4751   2.08449e-18 
  7268.0881   2.05605e-18 
   7272.701   2.15951e-18 
   7277.314   2.48256e-18 
   7281.927   1.93988e-18 
    7286.54    1.9861e-18 
  7291.1529   2.29642e-18 
  7295.7659   2.17092e-18 
  7300.3789   1.99914e-18 
  7304.9918   2.24643e-18 
  7309.6048   2.10818e-18 
  7314.2178   2.13054e-18 
  7318.8308   1.85755e-18 
  7323.4437   1.89519e-18 
  7328.0567   1.78419e-18 
  7332.6697   1.88395e-18 
  7337.2827   1.92165e-18 
  7341.8956   2.49062e-18 
  7346.5086    2.2256e-18 
  7351.1216   2.02391e-18 
  7355.7345   2.14688e-18 
  7360.3475   1.96677e-18 
  7364.9605   1.99186e-18 
  7369.5735   2.24416e-18 
  7374.1864    1.8726e-18 
  7378.7994      2.06e-18 
  7383.4124    1.8719e-18 
  7388.0254   2.07198e-18 
  7392.6383   2.46337e-18 
  7397.2513   2.08104e-18 
  7401.8643   2.42534e-18 
  7406.4772   2.42676e-18 
  7411.0902   1.91013e-18 
  7415.7032   2.16444e-18 
  7420.3162   2.06841e-18 
  7424.9291   1.91327e-18 
  7429.5421   2.00787e-18 
  7434.1551   2.04667e-18 
  7438.7681   2.18683e-18 
   7443.381   2.10925e-18 
   7447.994   2.11104e-18 
   7452.607   2.06523e-18 
  7457.2199   2.22845e-18 
  7461.8329    2.1889e-18 
  7466.4459   2.20039e-18 
  7471.0589   2.35164e-18 
  7475.6718   2.28375e-18 
  7480.2848   2.47223e-18 
  7484.8978   2.18528e-18 
  7489.5108   2.24173e-18 
  7494.1237   2.27771e-18 
  7498.7367   2.11068e-18 
  7503.3497   1.89989e-18 
  7507.9626     1.858e-18 
  7512.5756   2.28293e-18 
  7517.1886   1.92096e-18 
  7521.8016   2.11101e-18 
  7526.4145    1.9501e-18 
  7531.0275   2.29038e-18 
  7535.6405   2.22363e-18 
  7540.2535   2.32866e-18 
  7544.8664   2.06656e-18 
  7549.4794   2.00561e-18 
  7554.0924   2.18047e-18 
  7558.7053   2.22214e-18 
  7563.3183    2.3299e-18 
  7567.9313   2.24077e-18 
  7572.5443   2.16756e-18 
  7577.1572    2.1908e-18 
  7581.7702   2.25023e-18 
  7586.3832   1.88338e-18 
  7590.9962   1.46691e-18 
  7595.6091   1.24224e-18 
  7600.2221   7.01333e-19 
  7604.8351    6.4974e-19 
   7609.448   7.27423e-19 
   7614.061   7.90586e-19 
   7618.674   1.32834e-18 
   7623.287   1.31421e-18 
  7627.8999   8.67359e-19 
  7632.5129   8.26823e-19 
  7637.1259   1.08373e-18 
  7641.7389   1.18892e-18 
  7646.3518   1.35282e-18 
  7650.9648   1.29879e-18 
  7655.5778   1.42146e-18 
  7660.1907   1.58646e-18 
  7664.8037   1.48987e-18 
  7669.4167   1.75721e-18 
  7674.0297   1.78507e-18 
  7678.6426   1.85823e-18 
  7683.2556   1.85708e-18 
  7687.8686   1.85536e-18 
  7692.4816   1.72436e-18 
  7697.0945    1.6248e-18 
  7701.7075   1.86466e-18 
  7706.3205   1.94191e-18 
  7710.9334   1.95107e-18 
  7715.5464   1.91533e-18 
  7720.1594   2.09978e-18 
  7724.7724   1.59328e-18 
  7729.3853   2.04484e-18 
  7733.9983   2.41298e-18 
  7738.6113   1.96323e-18 
  7743.2243   1.71161e-18 
  7747.8372   1.86719e-18 
  7752.4502   1.94032e-18 
  7757.0632   2.02009e-18 
  7761.6761   2.26113e-18 
  7766.2891   2.25797e-18 
  7770.9021   2.28941e-18 
  7775.5151   1.91161e-18 
   7780.128   2.29551e-18 
   7784.741   2.30106e-18 
   7789.354   2.30675e-18 
   7793.967    1.6195e-18 
  7798.5799   2.19144e-18 
  7803.1929   2.23137e-18 
  7807.8059   2.27901e-18 
  7812.4188     1.892e-18 
  7817.0318   1.73874e-18 
  7821.6448    2.4276e-18 
  7826.2578    2.5655e-18 
  7830.8707   2.06866e-18 
  7835.4837   1.72274e-18 
  7840.0967   1.82692e-18 
  7844.7097   1.92145e-18 
  7849.3226   2.86406e-18 
  7853.9356   3.26874e-18 
  7858.5486   4.40385e-18 
  7863.1615     3.968e-18 
  7867.7745   2.69257e-18 
  7872.3875     1.919e-18 
  7877.0005   1.85228e-18 
  7881.6134    2.0043e-18 
  7886.2264   1.59861e-18 
  7890.8394   2.30382e-18 
  7895.4524   1.84539e-18 
  7900.0653   2.24798e-18 
  7904.6783   2.15305e-18 
  7909.2913   2.35347e-18 
  7913.9042   2.53549e-18 
  7918.5172   2.42601e-18 
  7923.1302   1.48056e-18 
  7927.7432   2.21449e-18 
  7932.3561   2.23214e-18 
  7936.9691   2.00905e-18 
  7941.5821   2.23394e-18 
  7946.1951   2.18715e-18 
   7950.808   2.26628e-18 
   7955.421   1.81136e-18 
   7960.034   1.74651e-18 
  7964.6469   2.86446e-18 
  7969.2599   2.31364e-18 
  7973.8729   1.72757e-18 
  7978.4859   2.00949e-18 
  7983.0988   2.11155e-18 
  7987.7118    2.0974e-18 
  7992.3248     2.411e-18 
  7996.9378    2.4431e-18 
  8001.5507   1.94017e-18 
  8006.1637   1.75361e-18 
  8010.7767   1.66991e-18 
  8015.3896   1.79457e-18 
  8020.0026   1.63019e-18 
  8024.6156   2.49689e-18 
  8029.2286   1.90607e-18 
  8033.8415   1.89542e-18 
  8038.4545   1.76416e-18 
  8043.0675   1.85525e-18 
  8047.6805   1.93293e-18 
  8052.2934   1.80355e-18 
  8056.9064    2.1823e-18 
  8061.5194   2.24358e-18 
  8066.1323   1.68829e-18 
  8070.7453   1.39726e-18 
  8075.3583   1.55615e-18 
  8079.9713   1.88404e-18 
  8084.5842   2.22556e-18 
  8089.1972   1.92724e-18 
  8093.8102   2.02044e-18 
  8098.4232   2.03433e-18 
  8103.0361   1.82795e-18 
  8107.6491   1.58267e-18 
  8112.2621   1.61812e-18 
   8116.875   1.74376e-18 
   8121.488   1.86178e-18 
   8126.101   1.93481e-18 
   8130.714   1.82028e-18 
  8135.3269    1.6579e-18 
  8139.9399   1.82201e-18 
  8144.5529   1.88579e-18 
  8149.1659   2.62973e-18 
  8153.7788   3.44765e-18 
  8158.3918   3.68728e-18 
  8163.0048   2.84434e-18 
  8167.6177   1.85502e-18 
  8172.2307   1.70202e-18 
  8176.8437   1.77722e-18 
  8181.4567   1.71714e-18 
  8186.0696   1.61565e-18 
  8190.6826   2.05399e-18 
  8195.2956   2.49702e-18 
  8199.9086   2.60431e-18 
  8204.5215   2.52514e-18 
  8209.1345   2.12156e-18 
  8213.7475   1.95818e-18 
  8218.3604   1.96931e-18 
  8222.9734   1.87143e-18 
  8227.5864   1.81466e-18 
  8232.1994   1.87923e-18 
  8236.8123   1.79083e-18 
  8241.4253   2.19591e-18 
  8246.0383   2.37458e-18 
  8250.6513   2.16976e-18 
  8255.2642   2.02998e-18 
  8259.8772   2.26513e-18 
  8264.4902   2.31429e-18 
  8269.1031   1.96031e-18 
  8273.7161   2.28787e-18 
  8278.3291   2.04959e-18 
  8282.9421   1.81202e-18 
   8287.555   2.25809e-18 
   8292.168   1.95835e-18 
   8296.781   2.28043e-18 
   8301.394   2.46408e-18 
  8306.0069   2.31306e-18 
  8310.6199   2.00542e-18 
  8315.2329   2.00191e-18 
  8319.8458   1.95822e-18 
  8324.4588   2.17065e-18 
  8329.0718   2.24662e-18 
  8333.6848   2.06712e-18 
  8338.2977   2.43817e-18 
  8342.9107   2.40868e-18 
  8347.5237   1.18911e-18 
  8352.1367   2.17247e-18 
  8356.7496   2.21334e-18 
  8361.3626   3.26959e-18 
  8365.9756   3.38572e-18 
  8370.5885   3.32242e-18 
  8375.2015   2.72475e-18 
  8379.8145   1.93192e-18 
  8384.4275   1.57643e-18 
  8389.0404     1.986e-18 
  8393.6534   2.24177e-18 
  8398.2664   1.75702e-18 
  8402.8794   2.69519e-18 
  8407.4923   2.45088e-18 
  8412.1053   2.38566e-18 
  8416.7183   2.01152e-18 
  8421.3312   2.08297e-18 
  8425.9442   2.14233e-18 
  8430.5572   1.91863e-18 
  8435.1702   2.59226e-18 
  8439.7831   2.50692e-18 
  8444.3961   1.91497e-18 
  8449.0091    1.8699e-18 
  8453.6221   1.97994e-18 
   8458.235   1.64251e-18 
   8462.848    2.4901e-18 
   8467.461    2.3197e-18 
  8472.0739    2.4741e-18 
  8476.6869   2.12368e-18 
  8481.2999   2.16159e-18 
  8485.9129   1.91225e-18 
  8490.5258   2.31043e-18 
  8495.1388   2.44122e-18 
  8499.7518   1.46328e-18 
  8504.3648   2.42392e-18 
  8508.9777   2.44212e-18 
  8513.5907   2.51085e-18 
  8518.2037   2.37802e-18 
  8522.8166   1.95742e-18 
  8527.4296   2.14162e-18 
  8532.0426   2.05464e-18 
  8536.6556   2.27439e-18 
  8541.2685   2.38669e-18 
  8545.8815   2.09884e-18 
  8550.4945   2.33801e-18 
  8555.1075   2.01649e-18 
  8559.7204   2.13806e-18 
  8564.3334   2.10948e-18 
  8568.9464   2.06335e-18 
  8573.5593   1.93712e-18 
  8578.1723   1.88944e-18 
  8582.7853   1.85463e-18 
  8587.3983   1.96646e-18 
  8592.0112    2.2175e-18 
  8596.6242     1.908e-18 
  8601.2372   1.65887e-18 
  8605.8502   1.87456e-18 
  8610.4631   2.37537e-18 
  8615.0761   2.01796e-18 
  8619.6891   1.84055e-18 
   8624.302   1.67465e-18 
   8628.915   2.41754e-18 
   8633.528   2.08002e-18 
   8638.141   2.33747e-18 
  8642.7539   3.46365e-18 
  8647.3669   3.50772e-18 
  8651.9799   2.78221e-18 
  8656.5929   2.22531e-18 
  8661.2058   1.44573e-18 
  8665.8188   1.77931e-18 
  8670.4318   2.15074e-18 
  8675.0447    2.1848e-18 
  8679.6577   2.06899e-18 
  8684.2707   1.97439e-18 
  8688.8837   1.87034e-18 
  8693.4966   1.74893e-18 
  8698.1096    1.7629e-18 
  8702.7226   1.85016e-18 
  8707.3356   2.16466e-18 
  8711.9485   1.94086e-18 
  8716.5615   1.84889e-18 
  8721.1745   2.09203e-18 
  8725.7874   1.69757e-18 
  8730.4004    1.6762e-18 
  8735.0134   1.74515e-18 
  8739.6264   1.77135e-18 
  8744.2393   1.85658e-18 
  8748.8523   1.74778e-18 
  8753.4653   1.40117e-18 
  8758.0783   1.24452e-18 
  8762.6912   9.07603e-19 
  8767.3042    8.1362e-19 
  8771.9172   1.57259e-18 
  8776.5301   1.55104e-18 
  8781.1431   1.91695e-18 
  8785.7561   2.02599e-18 
  8790.3691   1.39952e-18 
   8794.982   1.69193e-18 
   8799.595   1.83902e-18 
   8804.208   1.78498e-18 
   8808.821   1.73709e-18 
  8813.4339   1.70692e-18 
  8818.0469   1.34919e-18 
  8822.6599   1.18471e-18 
  8827.2728   1.84964e-18 
  8831.8858   1.90195e-18 
  8836.4988   1.07465e-18 
  8841.1118   1.48469e-18 
  8845.7247   1.79933e-18 
  8850.3377   9.85077e-19 
  8854.9507   1.89164e-18 
  8859.5637   1.45582e-18 
  8864.1766   1.43371e-18 
  8868.7896   1.20695e-18 
  8873.4026   1.18191e-18 
  8878.0155    1.2526e-18 
  8882.6285   1.89855e-18 
  8887.2415    8.3436e-19 
  8891.8545   2.59445e-18 
  8896.4674   1.86492e-18 
  8901.0804   1.62059e-19 
  8905.6934   9.75405e-19 
  8910.3064   6.21282e-19 
  8914.9193  -3.99499e-19 
  8919.5323  -1.83469e-19 
  8924.1453  -3.38368e-20 
  8928.7582   1.23278e-19 
  8933.3712   7.86124e-19 
  8937.9842   7.30335e-19 
  8942.5972   6.39604e-19 
  8947.2101   8.10825e-19 
  8951.8231   7.35849e-19 
  8956.4361   2.02856e-18 
  8961.0491   2.58942e-18 
   8965.662   2.68618e-18 
   8970.275   1.68113e-18 
   8974.888   9.79129e-19 
  8979.5009   1.09303e-18 
  8984.1139   7.29231e-19 
  8988.7269    6.7541e-19 
  8993.3399   5.69146e-19 
  8997.9528   4.34337e-19 
  9002.5658   1.76316e-18 
  9007.1788    2.4839e-18 
  9011.7918   1.50448e-18 
  9016.4047   8.54068e-19 
  9021.0177   1.02491e-18 
  9025.6307   1.10023e-18 
  9030.2436   1.19269e-18 
  9034.8566   1.12152e-18 
  9039.4696   5.10972e-19 
  9044.0826    5.7325e-19 
  9048.6955    1.4312e-18 
  9053.3085   1.29945e-18 
  9057.9215   9.41778e-19 
  9062.5345   9.94437e-19 
  9067.1474   1.00844e-18 
  9071.7604   1.12456e-18 
  9076.3734    9.2894e-19 
  9080.9863   7.24648e-19 
  9085.5993   8.51121e-19 
  9090.2123   9.49336e-19 
  9094.8253   9.77112e-19 
  9099.4382    9.5651e-19 
  9104.0512   8.23353e-19 
  9108.6642   8.58323e-19 
  9113.2772   8.08077e-19 
  9117.8901   1.00627e-18 
  9122.5031   1.10294e-18 
  9127.1161   8.35591e-19 
   9131.729   6.99008e-19 
   9136.342   9.19518e-19 
   9140.955   8.39133e-19 
   9145.568   1.44903e-18 
  9150.1809   1.67111e-18 
  9154.7939   1.62199e-18 
  9159.4069   8.60378e-19 
  9164.0199   5.74468e-19 
  9168.6328   6.07272e-19 
  9173.2458   8.83184e-19 
  9177.8588   8.94522e-19 
  9182.4717   7.98975e-19 
  9187.0847   9.40893e-19 
  9191.6977   9.74876e-19 
  9196.3107    9.9543e-19 
