# STATUS =
# OBJECT = 2020rmv
# TELESCOPE = Keck1
# INSTRUMENT = LRIS
# DATE-OBS = 2020-10-12 00:00:00.000
# MJD = 59134.0
# EXPTIME =
# AIRMASS =
# SLIT =
# DISPERSER =
# SOURCE = DOI 10.3847/1538-4357/aca161
# FILTER =
# RESOLUTION =
# FLUX_STANDARD =
# EXTINCTION_CORRECTED =
# PHOTOMETRY_CALIBRATED =
# TELLURIC_CORRECTED =
# FLUX_UNITS =
# WAVE_UNITS =
# QUALITY =
# MIN_WAVE = 3063.3462
# MAX_WAVE = 10306.435
# COMMENT =
 Wavelength          Flux 
  3065.2869  -2.62854e-17 
   3067.228    1.5514e-16 
  3069.1699   6.37703e-17 
  3071.1123   1.20863e-17 
  3073.0554   6.07665e-17 
   3074.999   1.53725e-17 
  3076.9434    5.7971e-17 
  3078.8882  -2.06994e-17 
  3080.8337   9.10976e-17 
  3082.7798   3.68581e-17 
  3084.7268   4.67137e-17 
  3086.6741   5.11818e-17 
  3088.6221    5.0389e-17 
  3090.5708    8.5028e-17 
    3092.52   6.02135e-18 
    3094.47   8.14397e-17 
  3096.4204   4.28067e-17 
  3098.3716   4.00707e-17 
  3100.3232   6.78819e-17 
  3102.2756   6.88293e-17 
  3104.2285   7.89484e-17 
  3106.1819   5.58617e-17 
  3108.1362   4.91046e-17 
  3110.0911   5.60498e-17 
  3112.0464   1.13882e-17 
  3114.0022   1.77771e-17 
   3115.959   1.05118e-16 
   3117.916   6.43958e-17 
  3119.8738   3.38583e-17 
  3121.8323   5.15544e-17 
  3123.7913   5.96277e-17 
   3125.751   5.54251e-17 
  3127.7112   5.96501e-17 
  3129.6719    4.7095e-17 
  3131.6333   5.11667e-17 
  3133.5955   4.83603e-17 
  3135.5581   5.28259e-17 
  3137.5212   3.33959e-17 
  3139.4849   4.65245e-17 
  3141.4492   6.21661e-17 
  3143.4143   5.85577e-17 
  3145.3799    5.6506e-17 
  3147.3462   8.69231e-17 
  3149.3127   4.02803e-17 
  3151.2803   4.25429e-17 
   3153.248   3.51199e-17 
  3155.2166   8.98744e-17 
  3157.1858   4.52955e-17 
  3159.1555   3.87738e-17 
  3161.1257   4.66892e-17 
  3163.0967   8.01312e-17 
  3165.0681   6.88456e-17 
    3167.04    9.1517e-17 
  3169.0127    4.4205e-17 
  3170.9858   5.20856e-17 
  3172.9597   5.86877e-17 
  3174.9341   7.66355e-17 
  3176.9089   5.50299e-17 
  3178.8845   5.60085e-17 
  3180.8606   6.51007e-17 
  3182.8374    6.4886e-17 
  3184.8145   5.70719e-17 
  3186.7922   7.51282e-17 
  3188.7708   7.42286e-17 
  3190.7498   5.92901e-17 
  3192.7292    6.5964e-17 
  3194.7095   5.18216e-17 
  3196.6899   6.48224e-17 
  3198.6714   6.96936e-17 
  3200.6531   7.68458e-17 
  3202.6355   7.32367e-17 
  3204.6184   7.65506e-17 
  3206.6021   7.60992e-17 
  3208.5862   7.60942e-17 
  3210.5708   7.49579e-17 
  3212.5559   9.18321e-17 
  3214.5417   6.53039e-17 
  3216.5281   8.50888e-17 
  3218.5149   6.49917e-17 
  3220.5024   7.91087e-17 
  3222.4905   5.29676e-17 
   3224.479   8.52259e-17 
   3226.468   7.74001e-17 
  3228.4578   8.22036e-17 
   3230.448   7.49709e-17 
  3232.4387    1.0635e-16 
  3234.4302   6.96927e-17 
  3236.4221   9.37367e-17 
  3238.4146   8.87048e-17 
  3240.4077   8.62291e-17 
  3242.4011   8.61393e-17 
  3244.3953   7.79992e-17 
  3246.3899   9.75072e-17 
   3248.385    7.0738e-17 
  3250.3809   7.74277e-17 
  3252.3772   9.57552e-17 
   3254.374   7.37406e-17 
  3256.3713   9.82673e-17 
  3258.3694   8.95868e-17 
  3260.3679   7.23176e-17 
  3262.3667   9.15278e-17 
  3264.3665   7.36434e-17 
  3266.3665   7.18778e-17 
  3268.3672   9.45148e-17 
  3270.3684   8.82999e-17 
  3272.3701   8.54889e-17 
  3274.3723    6.5807e-17 
   3276.375   8.14414e-17 
  3278.3784   7.99157e-17 
  3280.3823   8.49763e-17 
  3282.3867    8.7491e-17 
  3284.3916   8.06571e-17 
   3286.397   9.06277e-17 
  3288.4031   9.05943e-17 
  3290.4097   7.90966e-17 
  3292.4165    8.6953e-17 
  3294.4243   7.22251e-17 
  3296.4324   1.00623e-16 
  3298.4409   7.80175e-17 
  3300.4502    6.5126e-17 
  3302.4597   6.99671e-17 
    3304.47   7.83049e-17 
  3306.4807   7.10472e-17 
  3308.4919   8.42666e-17 
  3310.5037   7.64004e-17 
  3312.5161   6.91934e-17 
  3314.5288   7.37391e-17 
   3316.542   6.78463e-17 
  3318.5559   6.12523e-17 
  3320.5703   7.56927e-17 
  3322.5852   6.98432e-17 
  3324.6006   6.55249e-17 
  3326.6167   6.85759e-17 
  3328.6331   6.63574e-17 
  3330.6499    5.4271e-17 
  3332.6675   4.89363e-17 
  3334.6853   6.18275e-17 
  3336.7039   5.93392e-17 
  3338.7229   5.55251e-17 
  3340.7422   6.14298e-17 
  3342.7622   4.85982e-17 
   3344.783   4.73599e-17 
   3346.804   4.59731e-17 
  3348.8254    5.2588e-17 
  3350.8474   3.71175e-17 
  3352.8701   4.80376e-17 
  3354.8931   3.34428e-17 
  3356.9165   4.79277e-17 
  3358.9407   3.79418e-17 
  3360.9651    4.3956e-17 
  3362.9902   3.03612e-17 
  3365.0156    3.6343e-17 
  3367.0417   2.39867e-17 
  3369.0684   3.95652e-17 
  3371.0952   3.20902e-17 
  3373.1228   3.47637e-17 
  3375.1509   1.77338e-17 
  3377.1794   3.02556e-17 
  3379.2085   3.70989e-17 
  3381.2378   2.72869e-17 
  3383.2678   2.05579e-17 
  3385.2983   2.83103e-17 
  3387.3293   3.17851e-17 
  3389.3608   3.08835e-17 
  3391.3928   3.12606e-17 
  3393.4253   3.07167e-17 
  3395.4583   3.13241e-17 
  3397.4917   3.16253e-17 
  3399.5254   1.80138e-17 
  3401.5598   2.29218e-17 
  3403.5947   2.93655e-17 
  3405.6301    2.2994e-17 
   3407.666   3.04395e-17 
  3409.7021   2.30452e-17 
   3411.739   3.61917e-17 
  3413.7764   2.94516e-17 
   3415.814   2.39317e-17 
  3417.8523   3.60418e-17 
  3419.8911   3.64316e-17 
  3421.9302   2.78385e-17 
  3423.9697   4.37341e-17 
    3426.01   3.93777e-17 
  3428.0505   4.08121e-17 
  3430.0916   4.37234e-17 
  3432.1333    4.4244e-17 
  3434.1753    4.4703e-17 
  3436.2178   3.97222e-17 
  3438.2605   4.73769e-17 
  3440.3042   6.18794e-17 
  3442.3479   5.49472e-17 
  3444.3923   6.50385e-17 
  3446.4373   5.94774e-17 
  3448.4824   5.72048e-17 
  3450.5283   6.76603e-17 
  3452.5745   6.65734e-17 
  3454.6211   6.96509e-17 
  3456.6682    6.4492e-17 
  3458.7158   7.69336e-17 
  3460.7639   7.63422e-17 
  3462.8125   7.92272e-17 
  3464.8616   8.23023e-17 
  3466.9109   8.48843e-17 
  3468.9607   8.53499e-17 
  3471.0112   8.52766e-17 
   3473.062   8.52755e-17 
  3475.1133   9.71154e-17 
   3477.165   1.00106e-16 
   3479.217    9.9388e-17 
  3481.2698   1.08247e-16 
   3483.323   9.68755e-17 
  3485.3765   9.64344e-17 
  3487.4304    1.1013e-16 
  3489.4849   1.13484e-16 
  3491.5398   1.16051e-16 
   3493.595   1.09963e-16 
  3495.6509   1.14584e-16 
   3497.707   1.19773e-16 
  3499.7637   1.10772e-16 
  3501.8208   1.10968e-16 
  3503.8784   1.09339e-16 
  3505.9363   1.17823e-16 
  3507.9946   1.14053e-16 
  3510.0537   1.16947e-16 
  3512.1128   1.21717e-16 
  3514.1726    1.1614e-16 
  3516.2329   1.15921e-16 
  3518.2935   1.25523e-16 
  3520.3545   1.25087e-16 
   3522.416   1.27754e-16 
   3524.478   1.30495e-16 
  3526.5403   1.25327e-16 
  3528.6033   1.22089e-16 
  3530.6665   1.20803e-16 
  3532.7302   1.26451e-16 
  3534.7942   1.36684e-16 
  3536.8589   1.29658e-16 
  3538.9238   1.21333e-16 
  3540.9893   1.37095e-16 
  3543.0549   1.36843e-16 
  3545.1211    1.4273e-16 
   3547.188   1.37918e-16 
  3549.2549   1.45242e-16 
  3551.3225   1.47965e-16 
  3553.3904   1.40299e-16 
   3555.459   1.63016e-16 
  3557.5276   1.63409e-16 
  3559.5969   1.43518e-16 
  3561.6665   1.57135e-16 
  3563.7366   1.54754e-16 
  3565.8071   1.53993e-16 
  3567.8779   1.46086e-16 
  3569.9495   1.42385e-16 
   3572.021   1.44983e-16 
  3574.0933   1.53272e-16 
  3576.1658   1.47506e-16 
  3578.2388   1.38289e-16 
  3580.3123   1.31494e-16 
   3582.386   1.34407e-16 
  3584.4602    1.2998e-16 
  3586.5349   1.25574e-16 
  3588.6099   1.23633e-16 
  3590.6853   1.22261e-16 
  3592.7612   1.14965e-16 
  3594.8374   1.09696e-16 
  3596.9143   1.04433e-16 
  3598.9912   1.07144e-16 
  3601.0688   1.01745e-16 
  3603.1467   9.49606e-17 
  3605.2251   9.79119e-17 
  3607.3037   9.89526e-17 
  3609.3828   1.01185e-16 
  3611.4624   9.93918e-17 
  3613.5422   9.72478e-17 
  3615.6226   9.53889e-17 
  3617.7034   9.82685e-17 
  3619.7844   9.04944e-17 
   3621.866   1.03547e-16 
   3623.948     1.046e-16 
  3626.0303   1.04149e-16 
  3628.1128   1.04682e-16 
   3630.196   1.01553e-16 
  3632.2795   1.12584e-16 
  3634.3633   1.10666e-16 
  3636.4478   1.15551e-16 
  3638.5325   1.18948e-16 
  3640.6174   1.10184e-16 
  3642.7029   1.14636e-16 
  3644.7888   1.20688e-16 
   3646.875   1.23103e-16 
  3648.9617   1.21528e-16 
  3651.0486   1.31346e-16 
   3653.136   1.19395e-16 
  3655.2239   1.25821e-16 
   3657.312   1.24639e-16 
  3659.4004   1.25554e-16 
  3661.4895   1.40923e-16 
  3663.5789    1.3161e-16 
  3665.6685   1.30739e-16 
  3667.7585    1.3718e-16 
  3669.8491    1.3174e-16 
  3671.9399    1.3789e-16 
   3674.031   1.40234e-16 
  3676.1228   1.36351e-16 
  3678.2146   1.34601e-16 
  3680.3071   1.34553e-16 
  3682.3999   1.36245e-16 
  3684.4929   1.36982e-16 
  3686.5864   1.44792e-16 
  3688.6804   1.42082e-16 
  3690.7744   1.47774e-16 
  3692.8691   1.47351e-16 
  3694.9641   1.47583e-16 
  3697.0593   1.49579e-16 
   3699.155   1.51051e-16 
  3701.2512   1.47704e-16 
  3703.3477   1.53476e-16 
  3705.4446   1.56778e-16 
  3707.5417   1.49455e-16 
  3709.6394   1.68461e-16 
  3711.7373   1.63599e-16 
  3713.8354   1.65964e-16 
  3715.9341   1.72204e-16 
  3718.0332   1.61848e-16 
  3720.1326   1.61868e-16 
  3722.2322   1.61998e-16 
  3724.3323   1.62589e-16 
  3726.4329     1.641e-16 
  3728.5337   1.74133e-16 
  3730.6348   1.73743e-16 
  3732.7363   1.66482e-16 
  3734.8381   1.70369e-16 
  3736.9404   1.73822e-16 
  3739.0432   1.69896e-16 
   3741.146   1.74013e-16 
  3743.2493   1.74905e-16 
   3745.353   1.73113e-16 
   3747.457   1.70678e-16 
  3749.5613   1.64321e-16 
   3751.666   1.71157e-16 
  3753.7712   1.66045e-16 
  3755.8767   1.65417e-16 
  3757.9824   1.66526e-16 
  3760.0884   1.61932e-16 
  3762.1951   1.54695e-16 
  3764.3018   1.66032e-16 
  3766.4089   1.58301e-16 
  3768.5164   1.68031e-16 
  3770.6243   1.61962e-16 
  3772.7324   1.56053e-16 
  3774.8411   1.65248e-16 
    3776.95   1.57579e-16 
  3779.0591   1.60341e-16 
  3781.1687   1.50139e-16 
  3783.2786   1.54253e-16 
  3785.3889   1.56821e-16 
  3787.4995   1.56112e-16 
  3789.6104   1.61428e-16 
  3791.7217   1.58713e-16 
   3793.833   1.49285e-16 
  3795.9451   1.52739e-16 
  3798.0574     1.424e-16 
  3800.1699    1.4026e-16 
   3802.283   1.30638e-16 
   3804.396   1.32402e-16 
  3806.5098   1.23235e-16 
  3808.6235   1.20927e-16 
  3810.7378   1.24285e-16 
  3812.8525   1.11024e-16 
  3814.9673   1.16991e-16 
  3817.0825   1.15268e-16 
  3819.1982   1.06451e-16 
  3821.3142   1.09153e-16 
  3823.4304   1.04627e-16 
  3825.5469   1.06752e-16 
  3827.6638   1.02177e-16 
   3829.781   1.03432e-16 
  3831.8984   9.39589e-17 
  3834.0164   9.17616e-17 
  3836.1345    9.4488e-17 
  3838.2529   9.94993e-17 
  3840.3716   1.11057e-16 
  3842.4907   1.11278e-16 
  3844.6104   1.13285e-16 
    3846.73   1.15303e-16 
  3848.8501   1.19095e-16 
  3850.9705    1.2382e-16 
  3853.0913   1.25469e-16 
  3855.2122   1.30097e-16 
  3857.3335   1.29165e-16 
  3859.4551   1.29123e-16 
  3861.5771   1.35435e-16 
  3863.6995   1.35656e-16 
   3865.822   1.39096e-16 
  3867.9448      1.36e-16 
  3870.0681   1.38728e-16 
  3872.1917    1.3698e-16 
  3874.3154   1.37153e-16 
  3876.4397   1.41534e-16 
  3878.5642   1.37092e-16 
  3880.6887    1.4178e-16 
   3882.814   1.37022e-16 
  3884.9392   1.41275e-16 
  3887.0649   1.46217e-16 
  3889.1909    1.4656e-16 
  3891.3171   1.42691e-16 
  3893.4436   1.45604e-16 
  3895.5706    1.3546e-16 
  3897.6978   1.38176e-16 
  3899.8252   1.35862e-16 
  3901.9529   1.39211e-16 
  3904.0811   1.38667e-16 
  3906.2095   1.33835e-16 
  3908.3381   1.40701e-16 
   3910.467   1.33737e-16 
  3912.5962   1.34063e-16 
  3914.7258    1.3162e-16 
  3916.8557   1.28635e-16 
  3918.9858   1.37297e-16 
  3921.1162   1.33784e-16 
  3923.2471   1.43627e-16 
  3925.3782   1.37404e-16 
  3927.5095   1.39259e-16 
  3929.6411   1.37021e-16 
  3931.7729   1.31271e-16 
   3933.905   1.35323e-16 
  3936.0376   1.29559e-16 
  3938.1704   1.37201e-16 
  3940.3032   1.30189e-16 
  3942.4368   1.30056e-16 
  3944.5703   1.34592e-16 
  3946.7041   1.39301e-16 
  3948.8384   1.31061e-16 
  3950.9729     1.326e-16 
  3953.1077   1.31671e-16 
  3955.2427   1.29352e-16 
  3957.3779   1.31618e-16 
  3959.5134   1.28262e-16 
  3961.6494   1.29409e-16 
  3963.7854   1.33419e-16 
  3965.9221   1.32462e-16 
  3968.0586   1.28252e-16 
  3970.1958   1.27935e-16 
   3972.333   1.28228e-16 
  3974.4705   1.32372e-16 
  3976.6084   1.29317e-16 
  3978.7463   1.31586e-16 
  3980.8848   1.31397e-16 
  3983.0232   1.29312e-16 
  3985.1621   1.32426e-16 
  3987.3015   1.40915e-16 
  3989.4409   1.36748e-16 
  3991.5806   1.33312e-16 
  3993.7207   1.37633e-16 
  3995.8608   1.36972e-16 
  3998.0012   1.36574e-16 
  4000.1421   1.40832e-16 
  4002.2832   1.43879e-16 
  4004.4246    1.4057e-16 
  4006.5662   1.40738e-16 
   4008.708   1.42004e-16 
  4010.8501   1.41927e-16 
  4012.9924   1.41212e-16 
   4015.135   1.40993e-16 
  4017.2781   1.48734e-16 
  4019.4211   1.47431e-16 
  4021.5647   1.47264e-16 
  4023.7083   1.45891e-16 
  4025.8523    1.4857e-16 
  4027.9963    1.4674e-16 
  4030.1409   1.47533e-16 
  4032.2856   1.47562e-16 
  4034.4304   1.52131e-16 
  4036.5757    1.4706e-16 
  4038.7212   1.58602e-16 
  4040.8669   1.52392e-16 
  4043.0129   1.49375e-16 
  4045.1592    1.4924e-16 
  4047.3057   1.50186e-16 
  4049.4524   1.48814e-16 
  4051.5996   1.55633e-16 
  4053.7466   1.46692e-16 
  4055.8943   1.48639e-16 
   4058.042   1.55018e-16 
  4060.1899   1.54632e-16 
  4062.3381    1.5056e-16 
  4064.4868   1.56772e-16 
  4066.6355   1.50216e-16 
  4068.7844   1.54674e-16 
  4070.9336   1.49817e-16 
  4073.0833   1.59456e-16 
  4075.2329   1.55946e-16 
  4077.3828   1.53595e-16 
   4079.533   1.54221e-16 
  4081.6836   1.48113e-16 
  4083.8342   1.53848e-16 
  4085.9851   1.51049e-16 
  4088.1362   1.53183e-16 
  4090.2876   1.49844e-16 
  4092.4392   1.52232e-16 
  4094.5913   1.50791e-16 
  4096.7432   1.51541e-16 
  4098.8955   1.42901e-16 
  4101.0483    1.4952e-16 
  4103.2012   1.39054e-16 
   4105.354   1.42469e-16 
  4107.5073   1.43619e-16 
  4109.6611   1.38642e-16 
  4111.8149   1.31521e-16 
  4113.9688   1.38403e-16 
   4116.123   1.34082e-16 
  4118.2773   1.37791e-16 
  4120.4321   1.33986e-16 
  4122.5869   1.38234e-16 
  4124.7422   1.32376e-16 
  4126.8975    1.3181e-16 
  4129.0532   1.31793e-16 
   4131.209   1.30376e-16 
  4133.3652   1.29766e-16 
  4135.5215   1.31654e-16 
  4137.6777    1.3036e-16 
  4139.8345   1.31013e-16 
  4141.9912   1.24408e-16 
  4144.1484   1.29413e-16 
  4146.3062   1.24258e-16 
  4148.4634   1.29194e-16 
  4150.6216   1.27388e-16 
  4152.7793   1.22385e-16 
   4154.938   1.25544e-16 
  4157.0962   1.28319e-16 
  4159.2549   1.25044e-16 
  4161.4141   1.31131e-16 
  4163.5732   1.29114e-16 
  4165.7324   1.26059e-16 
  4167.8921   1.33961e-16 
  4170.0518   1.27528e-16 
  4172.2119   1.28865e-16 
  4174.3721   1.24315e-16 
  4176.5327   1.33389e-16 
  4178.6929   1.33478e-16 
   4180.854   1.30702e-16 
  4183.0151   1.26318e-16 
  4185.1763   1.30935e-16 
  4187.3379   1.24006e-16 
  4189.4995   1.29755e-16 
  4191.6616    1.3266e-16 
  4193.8237   1.34247e-16 
  4195.9858   1.32287e-16 
  4198.1484   1.33992e-16 
   4200.311   1.29892e-16 
  4202.4741   1.36466e-16 
  4204.6372   1.37592e-16 
  4206.8008   1.40224e-16 
  4208.9644   1.39277e-16 
  4211.1279   1.45722e-16 
   4213.292   1.41407e-16 
  4215.4561   1.40489e-16 
  4217.6206    1.3972e-16 
  4219.7852   1.40829e-16 
  4221.9497   1.36517e-16 
  4224.1147   1.39461e-16 
  4226.2798   1.37298e-16 
  4228.4453   1.40085e-16 
  4230.6108   1.38032e-16 
  4232.7764   1.41323e-16 
  4234.9424    1.3565e-16 
  4237.1089   1.43166e-16 
  4239.2749    1.4341e-16 
  4241.4414   1.43866e-16 
  4243.6084   1.44388e-16 
  4245.7754   1.38451e-16 
  4247.9424   1.35317e-16 
  4250.1094   1.44068e-16 
  4252.2773   1.44044e-16 
  4254.4448   1.40837e-16 
  4256.6128   1.43776e-16 
  4258.7808   1.40743e-16 
  4260.9492   1.41352e-16 
  4263.1177   1.42093e-16 
  4265.2861   1.45996e-16 
  4267.4551   1.42442e-16 
   4269.624   1.47009e-16 
   4271.793   1.43926e-16 
  4273.9624   1.39874e-16 
  4276.1323   1.42946e-16 
  4278.3018   1.47146e-16 
  4280.4717   1.45381e-16 
  4282.6421   1.36079e-16 
   4284.812   1.39276e-16 
  4286.9829   1.39518e-16 
  4289.1533    1.3584e-16 
  4291.3242   1.40658e-16 
  4293.4951   1.34633e-16 
  4295.6665   1.35136e-16 
  4297.8379   1.37174e-16 
  4300.0093   1.34437e-16 
  4302.1812   1.29726e-16 
   4304.353   1.19778e-16 
  4306.5249   1.25257e-16 
  4308.6973   1.28101e-16 
  4310.8696   1.30411e-16 
  4313.0425    1.3005e-16 
  4315.2153   1.34696e-16 
  4317.3882   1.29661e-16 
  4319.5615   1.28701e-16 
  4321.7344   1.25586e-16 
  4323.9082   1.27209e-16 
  4326.0815   1.32507e-16 
  4328.2554   1.31592e-16 
  4330.4297   1.31236e-16 
  4332.6035   1.25393e-16 
  4334.7778   1.34315e-16 
  4336.9526    1.3581e-16 
  4339.1274    1.2716e-16 
  4341.3018   1.25799e-16 
  4343.4771    1.3366e-16 
  4345.6523   1.34111e-16 
  4347.8276   1.36797e-16 
  4350.0029   1.36199e-16 
  4352.1787   1.38515e-16 
  4354.3545   1.35663e-16 
  4356.5303   1.33583e-16 
  4358.7065   1.36364e-16 
  4360.8828   1.30547e-16 
  4363.0591   1.33855e-16 
  4365.2358   1.35857e-16 
  4367.4126    1.3631e-16 
  4369.5898   1.39395e-16 
  4371.7666   1.33456e-16 
  4373.9438    1.3867e-16 
  4376.1216   1.35928e-16 
  4378.2988   1.36735e-16 
  4380.4766   1.38461e-16 
  4382.6548   1.37327e-16 
  4384.8325   1.52263e-16 
  4387.0107   1.68383e-16 
   4389.189   1.34925e-16 
  4391.3677   1.39753e-16 
  4393.5464   1.36065e-16 
  4395.7251   1.38849e-16 
  4397.9043   1.39494e-16 
   4400.083   1.41001e-16 
  4402.2627   1.40767e-16 
  4404.4419   1.43734e-16 
  4406.6216   1.45493e-16 
  4408.8013   1.43353e-16 
   4410.981   1.40413e-16 
  4413.1611   1.42136e-16 
  4415.3413   1.44068e-16 
  4417.5215   1.37081e-16 
  4419.7017   1.40651e-16 
  4421.8823   1.38069e-16 
   4424.063   1.40362e-16 
  4426.2441   1.40175e-16 
  4428.4253   1.37001e-16 
  4430.6064   1.40051e-16 
  4432.7876    1.3686e-16 
  4434.9692   1.40721e-16 
  4437.1509   1.41158e-16 
  4439.3325   1.35703e-16 
  4441.5142   1.38704e-16 
  4443.6963   1.39122e-16 
  4445.8784   1.44078e-16 
  4448.0605   1.39175e-16 
  4450.2432   1.39969e-16 
  4452.4258   1.40649e-16 
  4454.6084   1.40398e-16 
  4456.7915   1.41477e-16 
  4458.9741   1.41004e-16 
  4461.1572   1.39322e-16 
  4463.3408   1.42577e-16 
  4465.5239   1.44276e-16 
  4467.7075   1.39887e-16 
  4469.8911   1.41655e-16 
  4472.0752    1.4633e-16 
  4474.2588   1.42471e-16 
  4476.4429   1.43741e-16 
   4478.627   1.43855e-16 
  4480.8115   1.44025e-16 
  4482.9961   1.48089e-16 
  4485.1802   1.47626e-16 
  4487.3652   1.44834e-16 
  4489.5498   1.50311e-16 
  4491.7349   1.51013e-16 
  4493.9199   1.52522e-16 
   4496.105   1.46807e-16 
  4498.2905   1.57612e-16 
  4500.4761   1.50195e-16 
  4502.6616   1.56421e-16 
  4504.8472   1.51449e-16 
  4507.0332    1.5408e-16 
  4509.2192   1.54307e-16 
  4511.4053   1.57263e-16 
  4513.5913   1.52112e-16 
  4515.7778   1.57605e-16 
  4517.9639   1.59764e-16 
  4520.1509   1.51645e-16 
  4522.3374   1.54856e-16 
  4524.5244   1.56931e-16 
  4526.7109   1.54454e-16 
  4528.8984   1.56141e-16 
  4531.0854   1.52748e-16 
  4533.2725   1.52016e-16 
    4535.46   1.58581e-16 
  4537.6475   1.53783e-16 
   4539.835   1.57387e-16 
  4542.0229   1.55842e-16 
  4544.2109   1.52606e-16 
  4546.3989   1.55822e-16 
  4548.5869   1.57321e-16 
  4550.7749   1.54308e-16 
  4552.9634   1.51405e-16 
  4555.1519   1.56272e-16 
  4557.3403   1.48416e-16 
  4559.5288   1.53347e-16 
  4561.7178   1.49275e-16 
  4563.9067   1.56031e-16 
  4566.0957   1.58209e-16 
  4568.2847   1.53616e-16 
  4570.4741   1.50703e-16 
  4572.6631   1.55072e-16 
  4574.8525   1.56345e-16 
  4577.0425   1.52898e-16 
  4579.2319    1.5197e-16 
  4581.4214   1.50997e-16 
  4583.6113   1.52928e-16 
  4585.8013   1.48694e-16 
  4587.9917   1.49878e-16 
  4590.1816   1.45033e-16 
  4592.3721   1.45367e-16 
  4594.5625   1.41534e-16 
  4596.7529    1.4355e-16 
  4598.9434   1.41099e-16 
  4601.1338   1.38964e-16 
  4603.3247   1.39295e-16 
  4605.5156   1.39877e-16 
  4607.7065   1.38711e-16 
  4609.8979   1.37851e-16 
  4612.0889   1.31633e-16 
  4614.2803   1.35355e-16 
  4616.4717   1.38664e-16 
  4618.6631   1.30056e-16 
  4620.8545   1.33501e-16 
  4623.0464   1.30515e-16 
  4625.2383   1.32174e-16 
  4627.4297   1.33405e-16 
  4629.6221   1.34789e-16 
   4631.814   1.34591e-16 
  4634.0059   1.32854e-16 
  4636.1982   1.39337e-16 
  4638.3906    1.3329e-16 
   4640.583   1.38358e-16 
  4642.7754   1.35656e-16 
  4644.9683     1.353e-16 
  4647.1611   1.38023e-16 
  4649.3535   1.33274e-16 
  4651.5464   1.38411e-16 
  4653.7397   1.37775e-16 
  4655.9326   1.39138e-16 
   4658.126   1.34289e-16 
  4660.3193   1.32972e-16 
  4662.5122   1.37141e-16 
  4664.7056    1.3658e-16 
  4666.8994   1.38579e-16 
  4669.0928   1.38808e-16 
  4671.2866   1.36801e-16 
  4673.4805   1.41299e-16 
  4675.6743   1.42942e-16 
  4677.8682   1.40595e-16 
   4680.062   1.39406e-16 
  4682.2563    1.4182e-16 
  4684.4502   1.40641e-16 
  4686.6445   1.37542e-16 
  4688.8389   1.39722e-16 
  4691.0337   1.39336e-16 
   4693.228   1.40711e-16 
  4695.4224    1.4256e-16 
  4697.6172   1.45394e-16 
   4699.812   1.42002e-16 
  4702.0068    1.4399e-16 
  4704.2017   1.37796e-16 
  4706.3965   1.40146e-16 
  4708.5918    1.3886e-16 
  4710.7871   1.40417e-16 
  4712.9824   1.39261e-16 
  4715.1777    1.3557e-16 
   4717.373   1.28248e-16 
  4719.5684   1.28096e-16 
  4721.7637   1.29887e-16 
  4723.9595   1.24623e-16 
  4726.1553   1.27294e-16 
  4728.3511   1.24095e-16 
  4730.5469   1.25352e-16 
  4732.7427   1.22479e-16 
  4734.9385   1.18972e-16 
  4737.1348   1.23311e-16 
  4739.3306   1.21793e-16 
  4741.5269   1.20026e-16 
  4743.7231   1.23851e-16 
  4745.9194   1.20408e-16 
  4748.1157   1.24058e-16 
  4750.3125   1.22682e-16 
  4752.5088   1.25392e-16 
  4754.7056   1.24395e-16 
  4756.9023   1.20548e-16 
  4759.0991   1.23105e-16 
  4761.2959   1.15623e-16 
  4763.4927   1.24997e-16 
  4765.6895   1.18816e-16 
  4767.8867   1.20867e-16 
  4770.0835   1.19062e-16 
  4772.2808   1.23619e-16 
   4774.478   1.22215e-16 
  4776.6753    1.1687e-16 
  4778.8726   1.20524e-16 
  4781.0698   1.22779e-16 
  4783.2676   1.21105e-16 
  4785.4648   1.21924e-16 
  4787.6626   1.22215e-16 
  4789.8599   1.21909e-16 
  4792.0576    1.2422e-16 
  4794.2554   1.21952e-16 
  4796.4536   1.24019e-16 
  4798.6514   1.25349e-16 
  4800.8491   1.26812e-16 
  4803.0474   1.25704e-16 
  4805.2451   1.23394e-16 
  4807.4434   1.25448e-16 
  4809.6416   1.23833e-16 
  4811.8398   1.25002e-16 
  4814.0381   1.17327e-16 
  4816.2363   1.20788e-16 
  4818.4346   1.21015e-16 
  4820.6333   1.15095e-16 
   4822.832   1.17173e-16 
  4825.0303   1.17838e-16 
   4827.229   1.19237e-16 
  4829.4277   1.08741e-16 
  4831.6265   1.15752e-16 
  4833.8252   1.13482e-16 
  4836.0239   1.12818e-16 
  4838.2227   1.14715e-16 
  4840.4219   1.14599e-16 
  4842.6206   1.09166e-16 
  4844.8198    1.1908e-16 
   4847.019   1.14569e-16 
  4849.2178    1.1023e-16 
   4851.417   1.09119e-16 
  4853.6167   1.14635e-16 
  4855.8159   1.12354e-16 
  4858.0151   1.07527e-16 
  4860.2144    1.0532e-16 
  4862.4141   1.02607e-16 
  4864.6133   1.03961e-16 
   4866.813   1.01806e-16 
  4869.0122   1.06012e-16 
  4871.2119   9.88046e-17 
  4873.4116   1.04091e-16 
  4875.6113   1.00718e-16 
   4877.811   9.85802e-17 
  4880.0107   1.02876e-16 
  4882.2109   1.07248e-16 
  4884.4106   1.06867e-16 
  4886.6108   1.07131e-16 
  4888.8105   1.02424e-16 
  4891.0107   1.09773e-16 
  4893.2104   1.04697e-16 
  4895.4106    1.0791e-16 
  4897.6108   1.04409e-16 
   4899.811   1.07671e-16 
  4902.0112   1.05085e-16 
  4904.2114   1.08919e-16 
  4906.4116   1.08761e-16 
  4908.6123   1.09356e-16 
  4910.8125   1.11047e-16 
  4913.0127   1.14327e-16 
  4915.2134   1.13363e-16 
  4917.4136   1.14431e-16 
  4919.6143   1.17099e-16 
  4921.8149   1.11199e-16 
  4924.0156   1.15408e-16 
  4926.2158   1.19124e-16 
  4928.4165   1.16341e-16 
  4930.6172   1.16878e-16 
  4932.8179   1.18444e-16 
   4935.019   1.22707e-16 
  4937.2197   1.17452e-16 
  4939.4204   1.18303e-16 
  4941.6216   1.19848e-16 
  4943.8223   1.20861e-16 
  4946.0234   1.23011e-16 
  4948.2241   1.21007e-16 
  4950.4253    1.2256e-16 
   4952.626    1.2516e-16 
  4954.8271   1.22199e-16 
  4957.0283    1.2572e-16 
  4959.2295   1.23851e-16 
  4961.4307    1.3163e-16 
  4963.6318    1.2678e-16 
   4965.833   1.26247e-16 
  4968.0342   1.27409e-16 
  4970.2354   1.29503e-16 
   4972.437   1.26588e-16 
  4974.6382   1.28247e-16 
  4976.8394   1.26951e-16 
   4979.041   1.22134e-16 
  4981.2422   1.28111e-16 
  4983.4438   1.27368e-16 
   4985.645    1.2694e-16 
  4987.8467    1.2535e-16 
  4990.0483    1.2358e-16 
  4992.2495   1.30473e-16 
  4994.4512   1.28543e-16 
  4996.6528   1.27902e-16 
  4998.8545   1.30509e-16 
  5001.0562   1.26155e-16 
  5003.2578   1.32467e-16 
  5005.4595   1.24033e-16 
  5007.6611   1.31295e-16 
  5009.8628   1.33777e-16 
  5012.0645   1.25988e-16 
  5014.2661   1.23916e-16 
  5016.4678   1.29666e-16 
  5018.6699   1.26619e-16 
  5020.8716   1.30926e-16 
  5023.0732   1.26172e-16 
  5025.2754   1.28989e-16 
  5027.4771   1.27608e-16 
  5029.6792   1.29586e-16 
  5031.8809   1.21021e-16 
   5034.083   1.24691e-16 
  5036.2847   1.20563e-16 
  5038.4868    1.2814e-16 
  5040.6885   1.25137e-16 
  5042.8906   1.22383e-16 
  5045.0928   1.20623e-16 
  5047.2949   1.24194e-16 
  5049.4966   1.23979e-16 
  5051.6987   1.22807e-16 
  5053.9009   1.15986e-16 
   5056.103   1.18413e-16 
  5058.3052   1.14177e-16 
  5060.5073   1.17433e-16 
  5062.7095   1.10454e-16 
  5064.9116   1.16901e-16 
  5067.1138   1.12724e-16 
  5069.3159   1.14836e-16 
  5071.5181   1.11618e-16 
  5073.7202   1.12251e-16 
  5075.9224    1.1082e-16 
  5078.1245   1.09757e-16 
  5080.3267   1.06271e-16 
  5082.5288   1.06024e-16 
   5084.731   1.07495e-16 
  5086.9336   1.08361e-16 
  5089.1357   1.04427e-16 
  5091.3379   1.07639e-16 
  5093.5405   1.04292e-16 
  5095.7427   1.05305e-16 
  5097.9448   1.03017e-16 
   5100.147   1.05675e-16 
  5102.3496   1.01358e-16 
  5104.5518   1.05864e-16 
  5106.7539   1.04284e-16 
  5108.9565    1.0465e-16 
  5111.1587   1.00099e-16 
  5113.3613   9.96434e-17 
  5115.5635   1.01446e-16 
  5117.7661    1.0243e-16 
  5119.9683   1.04077e-16 
  5122.1704   1.00861e-16 
   5124.373   1.02401e-16 
  5126.5752   1.01218e-16 
  5128.7778   9.86189e-17 
    5130.98   1.04583e-16 
  5133.1826   9.75663e-17 
  5135.3848   9.76354e-17 
  5137.5874   1.05084e-16 
  5139.7896   1.03661e-16 
  5141.9922   1.04971e-16 
  5144.1943   1.04144e-16 
   5146.397   1.04489e-16 
  5148.5991   1.05786e-16 
  5150.8018   1.05837e-16 
  5153.0039   1.10208e-16 
  5155.2065   1.02186e-16 
  5157.4087    1.0575e-16 
  5159.6113    1.1196e-16 
  5161.8135   1.05248e-16 
  5164.0161   1.08943e-16 
  5166.2183   1.07154e-16 
  5168.4209   1.09808e-16 
   5170.623   1.11019e-16 
  5172.8257   1.12545e-16 
  5175.0278    1.0922e-16 
  5177.2305    1.1011e-16 
  5179.4326       1.1e-16 
  5181.6353   1.10129e-16 
  5183.8374   1.08339e-16 
    5186.04    1.1049e-16 
  5188.2422    1.1445e-16 
  5190.4448    1.1248e-16 
   5192.647   1.10982e-16 
  5194.8491   1.04774e-16 
  5197.0518   1.13412e-16 
  5199.2539   1.12543e-16 
  5201.4565   1.07165e-16 
  5203.6587   1.13415e-16 
  5205.8608   1.11003e-16 
  5208.0635    1.1294e-16 
  5210.2656   1.08933e-16 
  5212.4678   1.13179e-16 
  5214.6704   1.12614e-16 
  5216.8726   1.10004e-16 
  5219.0747   1.14298e-16 
  5221.2769   1.12126e-16 
  5223.4795   1.13869e-16 
  5225.6816   1.12496e-16 
  5227.8838   1.14978e-16 
  5230.0859   1.08563e-16 
  5232.2881   1.11916e-16 
  5234.4902   1.08265e-16 
  5236.6924   1.10219e-16 
   5238.895   1.14021e-16 
  5241.0972   1.10773e-16 
  5243.2993   1.12849e-16 
  5245.5015   1.13216e-16 
  5247.7036   1.11531e-16 
  5249.9058   1.13059e-16 
  5252.1079   1.13192e-16 
  5254.3101   1.10904e-16 
  5256.5122   1.07192e-16 
  5258.7139   1.11568e-16 
   5260.916   1.09737e-16 
  5263.1182   1.10486e-16 
  5265.3203   1.04967e-16 
  5267.5225   1.07437e-16 
  5269.7241   1.10519e-16 
  5271.9263   1.04828e-16 
  5274.1284   1.06512e-16 
  5276.3301   1.11771e-16 
  5278.5322   1.05901e-16 
  5280.7339   1.03101e-16 
   5282.936   1.04965e-16 
  5285.1382   1.08795e-16 
  5287.3398   1.02906e-16 
  5289.5415   1.00905e-16 
  5291.7437   1.05343e-16 
  5293.9453   1.06224e-16 
  5296.1475   1.04404e-16 
  5298.3491   9.93687e-17 
  5300.5508   1.02594e-16 
  5302.7529   1.00552e-16 
  5304.9546   1.02565e-16 
  5307.1562   1.00248e-16 
  5309.3579   1.02818e-16 
  5311.5596   1.03026e-16 
  5313.7612   1.07611e-16 
  5315.9629   1.01118e-16 
  5318.1646   1.01533e-16 
  5320.3662   1.03212e-16 
  5322.5679    9.7178e-17 
  5324.7695   1.03321e-16 
  5326.9707   1.03927e-16 
  5329.1724   9.87443e-17 
   5331.374   9.87686e-17 
  5333.5757   9.99696e-17 
  5335.7769   1.04159e-16 
  5337.9785   1.03286e-16 
  5340.1797   1.04391e-16 
  5342.3813   1.00668e-16 
  5344.5825   1.02802e-16 
  5346.7842   1.00921e-16 
  5348.9854   1.02388e-16 
  5351.1865   1.02853e-16 
  5353.3882   9.34051e-17 
  5355.5894   1.01945e-16 
  5357.7905   1.02866e-16 
  5359.9917   9.97165e-17 
  5362.1929   9.75509e-17 
   5364.394   1.00189e-16 
  5366.5952   9.62173e-17 
  5368.7964   9.82953e-17 
  5370.9976   9.19161e-17 
  5373.1987   9.50856e-17 
  5375.3999   9.36611e-17 
  5377.6006   9.49805e-17 
  5379.8018   9.63693e-17 
  5382.0029   9.21289e-17 
  5384.2036   9.63841e-17 
  5386.4048     9.078e-17 
  5388.6055   9.26613e-17 
  5390.8066   9.68284e-17 
  5393.0073    8.9973e-17 
   5395.208   9.35306e-17 
  5397.4087    9.6289e-17 
  5399.6099   9.06625e-17 
  5401.8105   8.82894e-17 
  5404.0112   9.45939e-17 
  5406.2119   9.21543e-17 
  5408.4126   8.42545e-17 
  5410.6133   9.28065e-17 
  5412.8135   9.28216e-17 
  5415.0142   9.01978e-17 
  5417.2148   9.27688e-17 
  5419.4155   9.20917e-17 
  5421.6157   9.14769e-17 
  5423.8164   9.33838e-17 
  5426.0166   8.97318e-17 
  5428.2173   8.94483e-17 
  5430.4175   8.90934e-17 
  5432.6177   8.94507e-17 
  5434.8179   9.26582e-17 
  5437.0181   9.15099e-17 
  5439.2188   9.56224e-17 
  5441.4189   9.07085e-17 
  5443.6191   9.29004e-17 
  5445.8193    9.0286e-17 
   5448.019   9.50854e-17 
  5450.2192   9.29585e-17 
  5452.4194   8.84659e-17 
  5454.6196   9.16584e-17 
  5456.8193    9.2943e-17 
  5459.0195    9.3928e-17 
  5461.2192   9.59059e-17 
  5463.4194    8.9939e-17 
  5465.6191    9.3771e-17 
  5467.8188   8.91893e-17 
  5470.0186    8.9399e-17 
  5472.2183   8.93709e-17 
   5474.418   8.84924e-17 
  5476.6177   8.49691e-17 
  5478.8174   8.74945e-17 
  5481.0171   8.75563e-17 
  5483.2168   8.14589e-17 
  5485.4165   8.42851e-17 
  5487.6157   7.94178e-17 
  5489.8154   7.84118e-17 
  5492.0146   7.64136e-17 
  5494.2144   8.03778e-17 
  5496.4136   7.85784e-17 
  5498.6128   7.57582e-17 
   5500.812   7.98018e-17 
  5503.0117    7.2273e-17 
  5505.2109   8.01234e-17 
  5507.4097   7.78514e-17 
  5509.6089    7.5973e-17 
  5511.8081   7.71075e-17 
  5514.0073   7.72373e-17 
  5516.2065   7.84795e-17 
  5518.4053   7.95552e-17 
  5520.6045   7.84651e-17 
  5522.8032   7.55308e-17 
  5525.0024   7.46762e-17 
  5527.2012   7.44239e-17 
  5529.3999   7.87824e-17 
  5531.5986   8.25182e-17 
  5533.7974   7.88257e-17 
  5535.9961   7.46322e-17 
  5538.1948   7.49277e-17 
  5540.3936   7.94776e-17 
  5542.5923   8.01873e-17 
   5544.791   7.86896e-17 
  5546.9893   7.83645e-17 
   5549.188   7.62622e-17 
  5551.3862    7.9023e-17 
  5553.5845   8.56043e-17 
  5555.7832   8.15353e-17 
  5557.9814   8.89037e-17 
  5560.1797   8.74155e-17 
  5562.3779   8.88677e-17 
  5564.5762   9.02211e-17 
  5566.7744   9.10648e-17 
  5568.9727   9.19188e-17 
  5571.1704   8.62403e-17 
  5573.3687   8.82628e-17 
  5575.5669   8.85578e-17 
  5577.7646   9.18855e-17 
  5579.9624   7.97848e-17 
  5582.1606   8.53189e-17 
  5584.3584   9.33215e-17 
  5586.5562   8.98132e-17 
  5588.7539   9.89293e-17 
  5590.9517   9.51122e-17 
  5593.1494   9.00178e-17 
  5595.3472   9.03155e-17 
  5597.5449   9.81915e-17 
  5599.7422   9.92908e-17 
  5601.9399   9.57028e-17 
  5604.1372   9.63963e-17 
   5606.335   9.27238e-17 
  5608.5322   1.01616e-16 
  5610.7295   9.26359e-17 
  5612.9268   9.04926e-17 
   5615.124   8.77758e-17 
  5617.3213   9.97097e-17 
  5619.5186   9.18919e-17 
  5621.7158   9.15806e-17 
  5623.9131   9.76719e-17 
  5626.1099   9.39262e-17 
  5628.3071    9.3638e-17 
  5630.5039   9.08701e-17 
  5632.7007   1.05247e-16 
  5634.8979   9.85242e-17 
  5637.0947   1.01634e-16 
  5639.2915   9.79161e-17 
  5641.4883   1.03421e-16 
  5643.6851   9.53834e-17 
  5645.8818   9.33011e-17 
  5646.3052   1.01185e-16 
  5647.4521   9.35365e-17 
  5648.5991   9.77673e-17 
  5649.7466   9.01372e-17 
  5650.8936   1.05545e-16 
   5652.041   9.11769e-17 
   5653.188   1.00758e-16 
   5654.335   1.01137e-16 
  5655.4824   1.00162e-16 
  5656.6299   9.90942e-17 
  5657.7773   1.04559e-16 
  5658.9243   9.34881e-17 
  5660.0718   1.01479e-16 
  5661.2192   9.49861e-17 
  5662.3667   9.94942e-17 
  5663.5142   1.06035e-16 
  5664.6616   1.11094e-16 
  5665.8091   9.71251e-17 
  5666.9565   1.05055e-16 
  5668.1045   1.06433e-16 
   5669.252   1.05862e-16 
  5670.3994   9.23568e-17 
  5671.5474   9.72328e-17 
  5672.6948   1.04612e-16 
  5673.8428   1.01316e-16 
  5674.9902   9.83551e-17 
  5676.1382   9.76148e-17 
  5677.2861   9.84481e-17 
  5678.4336    9.9614e-17 
  5679.5815   1.00304e-16 
  5680.7295   1.03802e-16 
  5681.8774   9.85437e-17 
  5683.0254   1.02624e-16 
  5684.1733    9.6215e-17 
  5685.3213   9.30932e-17 
  5686.4697   1.06439e-16 
  5687.6177   1.00697e-16 
  5688.7656   1.02004e-16 
  5689.9136   9.79825e-17 
   5691.062   9.73215e-17 
    5692.21    9.8578e-17 
  5693.3584   9.51694e-17 
  5694.5068   9.56223e-17 
  5695.6548   1.02065e-16 
  5696.8032   1.00272e-16 
  5697.9517   1.04446e-16 
  5699.1001   1.03183e-16 
  5700.2485   1.00707e-16 
   5701.397   1.02304e-16 
  5702.5454   1.00603e-16 
  5703.6938   1.04095e-16 
  5704.8423   1.03595e-16 
  5705.9907   9.70532e-17 
  5707.1396   1.05247e-16 
  5708.2881   1.09226e-16 
  5709.4365   1.08879e-16 
  5710.5854   1.09196e-16 
  5711.7339   1.11478e-16 
  5712.8828   9.90826e-17 
  5714.0317   1.03981e-16 
  5715.1802   9.69147e-17 
  5716.3291    1.0778e-16 
   5717.478   1.00589e-16 
   5718.627   9.85793e-17 
  5719.7759   1.03338e-16 
  5720.9248   9.25132e-17 
  5722.0737   1.03603e-16 
  5723.2227    1.0303e-16 
  5724.3721   1.00983e-16 
   5725.521   9.47647e-17 
  5726.6699   1.02797e-16 
  5727.8193   1.00928e-16 
  5728.9683   9.99475e-17 
  5730.1177   1.01035e-16 
  5731.2666   9.82506e-17 
   5732.416     1.063e-16 
  5733.5654   1.07815e-16 
  5734.7148   1.00399e-16 
  5735.8638   9.94427e-17 
  5737.0132   9.98762e-17 
  5738.1626   1.01433e-16 
   5739.312   1.05762e-16 
  5740.4619    1.0372e-16 
  5741.6113   1.04372e-16 
  5742.7607   1.04206e-16 
  5743.9102   1.00476e-16 
  5745.0601   1.05122e-16 
  5746.2095    9.2562e-17 
  5747.3589   1.08511e-16 
  5748.5088   9.94088e-17 
  5749.6587   1.03934e-16 
  5750.8081   1.05002e-16 
   5751.958   1.00951e-16 
  5753.1079   1.01799e-16 
  5754.2578    9.6297e-17 
  5755.4077   1.04626e-16 
  5756.5576   1.03966e-16 
  5757.7075   9.60695e-17 
  5758.8574   1.00163e-16 
  5760.0073   9.70211e-17 
  5761.1572   1.03603e-16 
  5762.3076   1.02765e-16 
  5763.4575   9.45259e-17 
  5764.6079   9.45528e-17 
  5765.7578   9.32486e-17 
  5766.9082   1.02156e-16 
  5768.0581   9.47665e-17 
  5769.2085   9.66861e-17 
  5770.3589   9.78017e-17 
  5771.5093   9.95427e-17 
  5772.6597   1.00681e-16 
  5773.8101   9.96583e-17 
  5774.9604   9.49978e-17 
  5776.1108   9.41056e-17 
  5777.2612   9.28309e-17 
  5778.4116   9.42299e-17 
   5779.562   9.02839e-17 
  5780.7129   9.80527e-17 
  5781.8633   9.69407e-17 
  5783.0142   1.00421e-16 
  5784.1646   9.46764e-17 
  5785.3154    1.0025e-16 
  5786.4663   9.94823e-17 
  5787.6167   9.68265e-17 
  5788.7676   9.11015e-17 
  5789.9185    9.5138e-17 
  5791.0693   9.25055e-17 
  5792.2202   8.96541e-17 
  5793.3711   9.74759e-17 
   5794.522   9.33617e-17 
  5795.6729   9.21137e-17 
  5796.8242   9.85833e-17 
  5797.9751   1.02615e-16 
   5799.126    8.9049e-17 
  5800.2773   9.40206e-17 
  5801.4282   9.33767e-17 
  5802.5796   9.24687e-17 
   5803.731   9.40847e-17 
  5804.8823   1.04979e-16 
  5806.0332   9.09609e-17 
  5807.1846   9.23393e-17 
  5808.3359   9.09046e-17 
  5809.4873   9.66064e-17 
  5810.6387   8.78897e-17 
    5811.79   9.48432e-17 
  5812.9414   9.73159e-17 
  5814.0933   9.18087e-17 
  5815.2446    8.5831e-17 
   5816.396   9.26707e-17 
  5817.5479   9.72632e-17 
  5818.6992   9.39758e-17 
  5819.8511   8.96973e-17 
  5821.0029   9.89682e-17 
  5822.1543   9.25686e-17 
  5823.3062   9.16841e-17 
   5824.458   9.89799e-17 
  5825.6099    9.2456e-17 
  5826.7617   8.66915e-17 
  5827.9136    9.0818e-17 
  5829.0654   9.08544e-17 
  5830.2173   9.56169e-17 
  5831.3696   8.62061e-17 
  5832.5215   8.58302e-17 
  5833.6733   9.33429e-17 
  5834.8257   9.10225e-17 
  5835.9775   8.51856e-17 
  5837.1299   1.01151e-16 
  5838.2822   9.54596e-17 
  5839.4341   9.47088e-17 
  5840.5864   9.65303e-17 
  5841.7388   8.69092e-17 
  5842.8911   8.79116e-17 
  5844.0435   9.17137e-17 
  5845.1958   9.45005e-17 
  5846.3481   9.53915e-17 
  5847.5005   9.76796e-17 
  5848.6533   9.03766e-17 
  5849.8057   9.02237e-17 
   5850.958   9.26339e-17 
  5852.1108   8.61885e-17 
  5853.2632   9.36488e-17 
   5854.416    9.3053e-17 
  5855.5688   8.88476e-17 
  5856.7212   9.36089e-17 
   5857.874   8.95421e-17 
  5859.0269   9.29347e-17 
  5860.1797   9.04195e-17 
  5861.3325    8.5842e-17 
  5862.4854   9.39766e-17 
  5863.6382   8.61328e-17 
  5864.7915   8.76043e-17 
  5865.9443   8.37774e-17 
  5867.0972   9.16523e-17 
  5868.2505    9.6603e-17 
  5869.4033   8.74583e-17 
  5870.5566    8.4102e-17 
  5871.7095    8.9285e-17 
  5872.8628   8.96177e-17 
  5874.0161   9.03891e-17 
  5875.1694   8.53419e-17 
  5876.3228   8.46699e-17 
  5877.4761   9.31107e-17 
  5878.6294   8.60935e-17 
  5879.7827   9.24103e-17 
   5880.936   8.58133e-17 
  5882.0894   7.77322e-17 
  5883.2427     9.103e-17 
  5884.3965   8.93798e-17 
  5885.5498   7.88381e-17 
  5886.7036   8.73506e-17 
  5887.8569   8.91794e-17 
  5889.0107   8.76618e-17 
  5890.1646   8.37764e-17 
  5891.3179   8.95523e-17 
  5892.4717   8.65926e-17 
  5893.6255   8.45867e-17 
  5894.7793   8.92065e-17 
  5895.9331   8.58583e-17 
  5897.0874    7.5667e-17 
  5898.2412   8.95594e-17 
   5899.395   8.00855e-17 
  5900.5488   8.87563e-17 
  5901.7031   8.37299e-17 
  5902.8569   8.58537e-17 
  5904.0112   8.93142e-17 
  5905.1655    9.4026e-17 
  5906.3193   7.96608e-17 
  5907.4736   8.09633e-17 
  5908.6279   8.01805e-17 
  5909.7822   8.82076e-17 
  5910.9365   8.77183e-17 
  5912.0908   8.54231e-17 
  5913.2451   8.18099e-17 
  5914.3994   8.08015e-17 
  5915.5537   9.15771e-17 
   5916.708   8.37026e-17 
  5917.8628   8.35666e-17 
  5919.0171   8.35477e-17 
  5920.1719   8.13773e-17 
  5921.3262   7.69927e-17 
   5922.481   7.50942e-17 
  5923.6357   7.70789e-17 
  5924.7905    8.1585e-17 
  5925.9453    8.3812e-17 
  5927.0996   8.18503e-17 
  5928.2544   8.21714e-17 
  5929.4092   7.70767e-17 
  5930.5645   8.24565e-17 
  5931.7192   8.58581e-17 
   5932.874   8.04705e-17 
  5934.0293   8.57631e-17 
  5935.1841   8.34358e-17 
  5936.3389   8.15052e-17 
  5937.4941   8.68159e-17 
  5938.6494   8.03101e-17 
  5939.8042   8.38558e-17 
  5940.9595   7.95493e-17 
  5942.1147   8.91086e-17 
    5943.27    7.7912e-17 
  5944.4253   8.29958e-17 
  5945.5806   7.44227e-17 
  5946.7358   7.53858e-17 
  5947.8911   7.68075e-17 
  5949.0469   7.29831e-17 
  5950.2021   8.00243e-17 
  5951.3574   8.00501e-17 
  5952.5132   7.25082e-17 
  5953.6685   8.16726e-17 
  5954.8242   7.68971e-17 
    5955.98   7.62955e-17 
  5957.1353   7.83919e-17 
   5958.291   7.01509e-17 
  5959.4468   7.70398e-17 
  5960.6025   7.23784e-17 
  5961.7583   7.68346e-17 
  5962.9141   7.85752e-17 
  5964.0698   7.72318e-17 
  5965.2261   7.66663e-17 
  5966.3818   7.09791e-17 
  5967.5376   7.06106e-17 
  5968.6938   6.86306e-17 
  5969.8496   7.61105e-17 
  5971.0059   7.21574e-17 
  5972.1621   7.92379e-17 
  5973.3179    7.7837e-17 
  5974.4741   7.39851e-17 
  5975.6304   7.68421e-17 
  5976.7866   6.73283e-17 
  5977.9429   6.97659e-17 
  5979.0991    7.4724e-17 
  5980.2554   7.87461e-17 
  5981.4121   7.92492e-17 
  5982.5684    7.4319e-17 
  5983.7246   7.26006e-17 
  5984.8813   7.57191e-17 
  5986.0376   7.45815e-17 
  5987.1943   7.60157e-17 
  5988.3506   7.05552e-17 
  5989.5073   7.06211e-17 
  5990.6641   7.17297e-17 
  5991.8208   6.97261e-17 
  5992.9775   7.37326e-17 
  5994.1343   7.05684e-17 
   5995.291   7.34485e-17 
  5996.4478   7.47217e-17 
  5997.6045   7.13239e-17 
  5998.7617    7.8283e-17 
  5999.9185   7.26544e-17 
  6001.0752   7.57605e-17 
  6002.2324   7.52204e-17 
  6003.3892   7.95754e-17 
  6004.5464   7.72875e-17 
  6005.7036   8.06971e-17 
  6006.8608   7.89481e-17 
  6008.0181   7.85865e-17 
  6009.1748   8.09815e-17 
  6010.3325   7.04252e-17 
  6011.4893   7.77972e-17 
   6012.647   7.35893e-17 
  6013.8042   7.47765e-17 
  6014.9614   6.95112e-17 
  6016.1191   7.95874e-17 
  6017.2764   7.68531e-17 
  6018.4341   7.80709e-17 
  6019.5913   7.25523e-17 
   6020.749   7.24817e-17 
  6021.9067   7.14258e-17 
   6023.064    7.0363e-17 
  6024.2217   6.70029e-17 
  6025.3794   6.99003e-17 
  6026.5371   7.43746e-17 
  6027.6948   7.42651e-17 
  6028.8525    6.6209e-17 
  6030.0107   7.34514e-17 
  6031.1685   7.30793e-17 
  6032.3262   7.42115e-17 
  6033.4844   7.66592e-17 
  6034.6421   7.40255e-17 
  6035.8003   7.29716e-17 
   6036.958   7.09839e-17 
  6038.1162   7.21953e-17 
  6039.2744   7.33406e-17 
  6040.4326   6.99724e-17 
  6041.5908   6.81007e-17 
   6042.749   7.36362e-17 
  6043.9072   7.02663e-17 
  6045.0654   7.31173e-17 
  6046.2236    7.2524e-17 
  6047.3823   6.57417e-17 
  6048.5405   7.86113e-17 
  6049.6987   7.03394e-17 
  6050.8574   6.83605e-17 
  6052.0156   6.73689e-17 
  6053.1743   6.89098e-17 
   6054.333    7.1667e-17 
  6055.4917   6.82153e-17 
  6056.6499   7.16132e-17 
  6057.8086   7.08775e-17 
  6058.9673   6.99307e-17 
   6060.126   6.97384e-17 
  6061.2847   6.83015e-17 
  6062.4438   7.11372e-17 
  6063.6025   6.63079e-17 
  6064.7617   6.83671e-17 
  6065.9204   7.24923e-17 
  6067.0791    7.1908e-17 
  6068.2383    6.9567e-17 
  6069.3975   7.10239e-17 
  6070.5562   6.99895e-17 
  6071.7153   6.70239e-17 
  6072.8745   7.33352e-17 
  6074.0337   6.73583e-17 
  6075.1929   6.52299e-17 
  6076.3521   6.85175e-17 
  6077.5112   7.00753e-17 
  6078.6704   7.66455e-17 
  6079.8301   6.97234e-17 
  6080.9893   7.08929e-17 
  6082.1489   7.10733e-17 
  6083.3081   7.15016e-17 
  6084.4678   7.40282e-17 
   6085.627   7.10019e-17 
  6086.7866   7.06754e-17 
  6087.9463   7.39053e-17 
   6089.106   6.87902e-17 
  6090.2656   7.12631e-17 
  6091.4253   7.27146e-17 
   6092.585   6.79382e-17 
  6093.7446   6.92579e-17 
  6094.9043   6.16272e-17 
   6096.064   6.33697e-17 
  6097.2241   6.77953e-17 
  6098.3838   7.61243e-17 
  6099.5439   6.91768e-17 
  6100.7036   6.57155e-17 
  6101.8638   7.25382e-17 
  6103.0239   7.18372e-17 
  6104.1841   6.93666e-17 
  6105.3442   7.00174e-17 
  6106.5044   6.75799e-17 
  6107.6641   7.06552e-17 
  6108.8247   6.37109e-17 
  6109.9849   6.92416e-17 
   6111.145   7.01632e-17 
  6112.3052   7.10496e-17 
  6113.4658   7.37582e-17 
   6114.626   6.97366e-17 
  6115.7866   7.39372e-17 
  6116.9468   7.01499e-17 
  6118.1074   7.16647e-17 
  6119.2681   7.78235e-17 
  6120.4287   7.60759e-17 
  6121.5889   6.82525e-17 
  6122.7495   7.19274e-17 
  6123.9102   7.50541e-17 
  6125.0713   7.65325e-17 
  6126.2319    6.7924e-17 
  6127.3926   6.30006e-17 
  6128.5532   6.89379e-17 
  6129.7144   6.64677e-17 
   6130.875   7.98687e-17 
  6132.0361   7.56895e-17 
  6133.1968   6.53634e-17 
  6134.3579   6.96757e-17 
   6135.519   6.79638e-17 
  6136.6802   7.36687e-17 
  6137.8413   6.94237e-17 
  6139.0024   7.16078e-17 
  6140.1636   7.34679e-17 
  6141.3247   7.49058e-17 
  6142.4858   6.59536e-17 
   6143.647    7.0365e-17 
  6144.8081   7.34072e-17 
  6145.9697   6.95435e-17 
  6147.1309   6.91531e-17 
  6148.2925   7.21982e-17 
  6149.4541   6.87617e-17 
  6150.6152   6.89491e-17 
  6151.7769   6.79011e-17 
  6152.9385   7.47917e-17 
  6154.1001   6.22921e-17 
  6155.2617     6.815e-17 
  6156.4233   6.40402e-17 
   6157.585   6.90464e-17 
  6158.7466   7.06179e-17 
  6159.9082   6.74597e-17 
  6161.0703   6.51901e-17 
  6162.2319   6.75349e-17 
   6163.394    6.3692e-17 
  6164.5557   7.26625e-17 
  6165.7178   7.33683e-17 
  6166.8794   6.85473e-17 
  6168.0415   7.45982e-17 
  6169.2036   7.22005e-17 
  6170.3657   6.27298e-17 
  6171.5278    6.3608e-17 
  6172.6899   7.15162e-17 
  6173.8521   6.52464e-17 
  6175.0142   7.15735e-17 
  6176.1768   6.78053e-17 
  6177.3389     6.906e-17 
   6178.501   6.95816e-17 
  6179.6636   7.07563e-17 
  6180.8262   6.84502e-17 
  6181.9883   6.91981e-17 
  6183.1509   7.07762e-17 
  6184.3135   6.62652e-17 
  6185.4761   6.94507e-17 
  6186.6382   6.97076e-17 
  6187.8008    7.0615e-17 
  6188.9639   6.88471e-17 
  6190.1265   6.69875e-17 
  6191.2891   7.17466e-17 
  6192.4517   6.96378e-17 
  6193.6143   7.17111e-17 
  6194.7773   6.37378e-17 
  6195.9404   6.80953e-17 
   6197.103   6.89648e-17 
  6198.2661   6.59942e-17 
  6199.4292   7.09268e-17 
  6200.5918   6.40771e-17 
  6201.7549   6.59086e-17 
   6202.918   6.59892e-17 
  6204.0811   6.96868e-17 
  6205.2441   6.73283e-17 
  6206.4072   6.48906e-17 
  6207.5708     7.024e-17 
  6208.7339   6.96903e-17 
   6209.897   6.50829e-17 
  6211.0605   6.75178e-17 
  6212.2236    6.9075e-17 
  6213.3872   7.17318e-17 
  6214.5503   6.21823e-17 
  6215.7139   6.99755e-17 
  6216.8774   6.89929e-17 
   6218.041   6.79886e-17 
  6219.2046   6.56565e-17 
  6220.3682   7.15908e-17 
  6221.5317   7.03742e-17 
  6222.6953   6.92697e-17 
  6223.8589   7.04505e-17 
  6225.0229   6.85058e-17 
  6226.1865   7.10785e-17 
  6227.3501   7.14228e-17 
  6228.5142   7.36968e-17 
  6229.6782   7.02005e-17 
  6230.8418   6.97489e-17 
  6232.0059   7.22501e-17 
  6233.1699    7.1231e-17 
   6234.334   6.74074e-17 
   6235.498   6.60467e-17 
  6236.6621   7.82805e-17 
  6237.8262   5.90153e-17 
  6238.9902   7.43317e-17 
  6240.1543   6.68225e-17 
  6241.3184   7.81847e-17 
  6242.4829   7.54627e-17 
   6243.647   7.07646e-17 
  6244.8115    7.4068e-17 
  6245.9756    7.3137e-17 
  6247.1401   7.18407e-17 
  6248.3047   6.89289e-17 
  6249.4692   7.27521e-17 
  6250.6338   7.46813e-17 
  6251.7983   7.38688e-17 
  6252.9629   7.34583e-17 
  6254.1274   6.82392e-17 
   6255.292   7.41272e-17 
  6256.4565   7.49112e-17 
  6257.6211   7.18443e-17 
  6258.7861   7.33477e-17 
  6259.9507   7.30389e-17 
  6261.1157   7.49146e-17 
  6262.2803   7.06908e-17 
  6263.4453   7.39545e-17 
  6264.6104   7.31752e-17 
  6265.7754   7.13287e-17 
  6266.9404   7.42674e-17 
  6268.1055   7.72921e-17 
  6269.2705   7.18653e-17 
  6270.4355   7.31704e-17 
  6271.6006   7.33666e-17 
  6272.7656   7.61867e-17 
  6273.9307   7.19074e-17 
  6275.0962   7.30764e-17 
  6276.2612   6.89462e-17 
  6277.4268    7.2455e-17 
  6278.5923   6.61253e-17 
  6279.7573   7.06965e-17 
  6280.9229   7.43342e-17 
  6282.0884   7.73156e-17 
  6283.2539   6.99684e-17 
  6284.4194   7.74264e-17 
   6285.585   7.39605e-17 
  6286.7505   7.81251e-17 
   6287.916   7.48186e-17 
  6289.0815   7.20847e-17 
  6290.2476   7.36945e-17 
  6291.4131   7.15557e-17 
  6292.5791   7.74577e-17 
  6293.7446   7.62471e-17 
  6294.9106   7.06334e-17 
  6296.0762   7.57597e-17 
  6297.2422   7.62451e-17 
  6298.4082   7.24117e-17 
  6299.5742   7.71539e-17 
  6300.7402   8.36608e-17 
  6301.9062   7.33777e-17 
  6303.0723   7.03532e-17 
  6304.2383   7.49673e-17 
  6305.4043   6.96003e-17 
  6306.5708   7.07996e-17 
  6307.7368   7.30677e-17 
  6308.9033   7.54618e-17 
  6310.0693   7.26663e-17 
  6311.2358   7.74725e-17 
  6312.4023   7.05775e-17 
  6313.5684   7.57185e-17 
  6314.7349    7.4705e-17 
  6315.9014   7.42701e-17 
  6317.0679   7.61515e-17 
  6318.2344   7.56878e-17 
  6319.4009   7.44282e-17 
  6320.5674   7.73398e-17 
  6321.7344   7.00567e-17 
  6322.9009    7.2078e-17 
  6324.0674   7.10021e-17 
  6325.2344   7.75926e-17 
  6326.4009   7.67692e-17 
  6327.5679   7.21617e-17 
  6328.7349   7.63492e-17 
  6329.9014   7.94318e-17 
  6331.0684    7.5882e-17 
  6332.2354   7.19105e-17 
  6333.4023   7.34599e-17 
  6334.5693   7.49883e-17 
  6335.7363   7.55656e-17 
  6336.9038   7.41567e-17 
  6338.0708     7.856e-17 
  6339.2378   7.89748e-17 
  6340.4048    7.4749e-17 
  6341.5723   7.72229e-17 
  6342.7393   7.50952e-17 
  6343.9067   7.42392e-17 
  6345.0742   7.54977e-17 
  6346.2417   7.26988e-17 
  6347.4087   7.43192e-17 
  6348.5762    7.4103e-17 
  6349.7437   7.18926e-17 
  6350.9111   7.15551e-17 
  6352.0786   7.41347e-17 
  6353.2466   7.44107e-17 
  6354.4141   7.30054e-17 
  6355.5815    7.5256e-17 
  6356.7495   7.40859e-17 
   6357.917   7.04694e-17 
  6359.0845   7.04182e-17 
  6360.2524   7.22715e-17 
  6361.4204   6.94264e-17 
  6362.5884   7.64951e-17 
  6363.7559   7.23136e-17 
  6364.9238   7.42017e-17 
  6366.0918   7.35605e-17 
  6367.2598    7.5175e-17 
  6368.4277   7.48454e-17 
  6369.5957    6.9563e-17 
  6370.7642   7.07831e-17 
  6371.9321   7.45002e-17 
  6373.1001    6.9999e-17 
  6374.2686   6.86188e-17 
  6375.4365   7.01309e-17 
   6376.605   6.95949e-17 
  6377.7734   7.19153e-17 
  6378.9414   7.21794e-17 
  6380.1099   7.38503e-17 
  6381.2783    7.1027e-17 
  6382.4468   7.40224e-17 
  6383.6152   7.38584e-17 
  6384.7837   7.37093e-17 
  6385.9521    6.8124e-17 
  6387.1211   6.65083e-17 
  6388.2896   7.56189e-17 
   6389.458   6.75384e-17 
   6390.627   7.54377e-17 
  6391.7954   7.74616e-17 
  6392.9644   7.33191e-17 
  6394.1328   7.58051e-17 
  6395.3018   6.83465e-17 
  6396.4707   7.44963e-17 
  6397.6396    7.4609e-17 
  6398.8086   6.99219e-17 
  6399.9775   6.99395e-17 
  6401.1465   7.26983e-17 
  6402.3154   6.89021e-17 
  6403.4844   7.00784e-17 
  6404.6538    7.4057e-17 
  6405.8228   7.45446e-17 
  6406.9917     7.329e-17 
  6408.1611   7.29062e-17 
  6409.3301   7.96208e-17 
  6410.4995   7.16197e-17 
  6411.6689   7.63057e-17 
  6412.8379   6.96493e-17 
  6414.0073   7.55212e-17 
  6415.1768   7.75968e-17 
  6416.3462   7.48873e-17 
  6417.5156   7.36297e-17 
  6418.6851   6.83873e-17 
   6419.855   7.62615e-17 
  6421.0244   7.27808e-17 
  6422.1938   7.12285e-17 
  6423.3638   7.27167e-17 
  6424.5332   7.11472e-17 
  6425.7031   6.95272e-17 
  6426.8726   7.28469e-17 
  6428.0425   7.61055e-17 
  6429.2124   7.58536e-17 
  6430.3823   7.02759e-17 
  6431.5518   7.70871e-17 
  6432.7217   7.42771e-17 
  6433.8916   7.59584e-17 
   6435.062   7.32808e-17 
  6436.2319   7.37747e-17 
  6437.4019   7.88231e-17 
  6438.5718   7.66167e-17 
  6439.7422   6.92393e-17 
  6440.9121   7.28631e-17 
  6442.0825   7.59626e-17 
  6443.2524   7.74902e-17 
  6444.4229   7.90408e-17 
  6445.5933   7.70344e-17 
  6446.7632   7.20653e-17 
  6447.9336   7.49231e-17 
   6449.104   7.62786e-17 
  6450.2744   7.46679e-17 
  6451.4448   7.07294e-17 
  6452.6157   7.78155e-17 
  6453.7861   6.81815e-17 
  6454.9565   7.29717e-17 
  6456.1274     7.304e-17 
  6457.2979   7.64515e-17 
  6458.4683    8.0303e-17 
  6459.6392   7.20467e-17 
  6460.8096   7.20536e-17 
  6461.9805   7.15745e-17 
  6463.1514    8.1491e-17 
  6464.3223    7.1999e-17 
  6465.4932   7.34312e-17 
  6466.6641   7.90881e-17 
   6467.835   8.24186e-17 
  6469.0059   7.87327e-17 
  6470.1768   7.41215e-17 
  6471.3477   7.90346e-17 
   6472.519    7.4328e-17 
  6473.6899   7.37495e-17 
  6474.8613   8.07286e-17 
  6476.0322   7.23803e-17 
  6477.2036   7.47717e-17 
  6478.3745   7.49346e-17 
  6479.5459   7.38178e-17 
  6480.7173   7.17466e-17 
  6481.8887    7.5275e-17 
  6483.0601   7.64459e-17 
  6484.2314     7.435e-17 
  6485.4028     7.904e-17 
  6486.5742   7.76964e-17 
  6487.7456   7.70873e-17 
  6488.9175   7.48867e-17 
  6490.0889   7.14647e-17 
  6491.2607   7.46261e-17 
  6492.4321   7.48563e-17 
   6493.604   7.15614e-17 
  6494.7754   8.11446e-17 
  6495.9473   7.71152e-17 
  6497.1191   8.09473e-17 
   6498.291   7.58153e-17 
  6499.4624   7.35678e-17 
  6500.6343   8.04896e-17 
  6501.8066   8.09179e-17 
  6502.9785   7.58197e-17 
  6504.1504   7.57095e-17 
  6505.3223   8.38026e-17 
  6506.4941    8.2147e-17 
  6507.6665   7.75947e-17 
  6508.8384   7.69044e-17 
  6510.0107   7.69962e-17 
  6511.1826   8.06846e-17 
   6512.355   7.80338e-17 
  6513.5273   7.84457e-17 
  6514.6997   7.51439e-17 
  6515.8716    8.4292e-17 
  6517.0439     7.515e-17 
  6518.2163   7.63126e-17 
  6519.3887   7.51273e-17 
  6520.5615   7.02955e-17 
  6521.7339   7.69252e-17 
  6522.9062   6.95811e-17 
  6524.0786   7.52837e-17 
  6525.2515   7.56591e-17 
  6526.4238    8.0047e-17 
  6527.5967   8.11554e-17 
  6528.7695   7.70833e-17 
  6529.9419   7.53554e-17 
  6531.1147   7.45563e-17 
  6532.2876   7.82657e-17 
  6533.4604   7.63755e-17 
  6534.6333   7.89465e-17 
  6535.8062    7.5607e-17 
   6536.979   7.17536e-17 
  6538.1519   7.54654e-17 
  6539.3247   7.76333e-17 
  6540.4976   7.51343e-17 
  6541.6709   7.65552e-17 
  6542.8438   8.04367e-17 
  6544.0171   8.42568e-17 
  6545.1899    8.1119e-17 
  6546.3633   7.69894e-17 
  6547.5366   7.54958e-17 
  6548.7095   8.19414e-17 
  6549.8828   6.71889e-17 
  6551.0562   7.65232e-17 
  6552.2295   7.23194e-17 
  6553.4028   8.73563e-17 
  6554.5762    7.4403e-17 
    6555.75   7.95324e-17 
  6556.9233   7.88858e-17 
  6558.0967   7.18201e-17 
  6559.2705   7.61963e-17 
  6560.4438   7.55945e-17 
  6561.6177   7.29417e-17 
   6562.791   7.69033e-17 
  6563.9648   7.79816e-17 
  6565.1382    6.8053e-17 
   6566.312   7.11472e-17 
  6567.4858   7.85292e-17 
  6568.6597   7.72848e-17 
  6569.8335   7.30033e-17 
  6571.0073   7.69071e-17 
  6572.1812   7.22615e-17 
   6573.355   7.76385e-17 
  6574.5293   7.61661e-17 
  6575.7031   7.53237e-17 
  6576.8774   7.14558e-17 
  6578.0513   7.09816e-17 
  6579.2251   6.93228e-17 
  6580.3994   6.99403e-17 
  6581.5737   7.11929e-17 
  6582.7476   7.83078e-17 
  6583.9219   7.67829e-17 
  6585.0962   6.93718e-17 
  6586.2705   7.07002e-17 
  6587.4448   7.25009e-17 
  6588.6191   7.42367e-17 
  6589.7935   7.35014e-17 
  6590.9678   7.60693e-17 
  6592.1426   7.28773e-17 
  6593.3169   7.48211e-17 
  6594.4912   7.13166e-17 
   6595.666   7.16395e-17 
  6596.8403   7.03904e-17 
  6598.0151   7.23201e-17 
  6599.1899   7.26552e-17 
  6600.3643   7.99418e-17 
  6601.5391   6.49979e-17 
  6602.7139   7.40205e-17 
  6603.8887   7.38509e-17 
  6605.0635    7.1949e-17 
  6606.2383   7.43088e-17 
  6607.4131   7.34487e-17 
  6608.5879   6.99397e-17 
  6609.7632   7.41601e-17 
   6610.938   7.14197e-17 
  6612.1128   7.45565e-17 
  6613.2881   6.80698e-17 
  6614.4629   7.12343e-17 
  6615.6382   7.22965e-17 
  6616.8135   7.57868e-17 
  6617.9883   7.12133e-17 
  6619.1636   7.18174e-17 
  6620.3389   7.04719e-17 
  6621.5142   7.42999e-17 
  6622.6895   7.19447e-17 
  6623.8647   6.93876e-17 
    6625.04   7.31098e-17 
  6626.2153   7.02357e-17 
  6627.3911   7.39682e-17 
  6628.5664   6.88929e-17 
  6629.7417   7.07737e-17 
  6630.9175   7.31912e-17 
  6632.0928   7.23948e-17 
  6633.2686   7.22957e-17 
  6634.4438   7.34729e-17 
  6635.6196   7.12693e-17 
  6636.7954   7.12237e-17 
  6637.9712   7.02084e-17 
   6639.147   7.04636e-17 
  6640.3228   6.75712e-17 
  6641.4985   7.21559e-17 
  6642.6743   7.01734e-17 
  6643.8501   7.40576e-17 
  6645.0259   7.04831e-17 
  6646.2017   6.71447e-17 
  6647.3779   6.51585e-17 
  6648.5537   6.63984e-17 
    6649.73   7.26165e-17 
  6650.9058   6.59317e-17 
   6652.082   6.82657e-17 
  6653.2583   6.96547e-17 
  6654.4341   6.67716e-17 
  6655.6104   6.99597e-17 
  6656.7866   6.74241e-17 
  6657.9629    6.8435e-17 
  6659.1392   7.49952e-17 
  6660.3154   6.88679e-17 
  6661.4917   6.81253e-17 
  6662.6685   6.49525e-17 
  6663.8447   6.88835e-17 
   6665.021   6.96913e-17 
  6666.1978   7.01548e-17 
   6667.374   7.07869e-17 
  6668.5508   6.27468e-17 
  6669.7271   7.17636e-17 
  6670.9038   7.17603e-17 
  6672.0806   6.00215e-17 
  6673.2573   6.89133e-17 
  6674.4336   6.60036e-17 
  6675.6104   6.77311e-17 
  6676.7871   6.63054e-17 
  6677.9639   6.61373e-17 
  6679.1411   6.76051e-17 
  6680.3179   6.67033e-17 
  6681.4946   7.02948e-17 
  6682.6714   6.97747e-17 
  6683.8486   6.66673e-17 
  6685.0254   6.83957e-17 
  6686.2026   6.55955e-17 
  6687.3794   6.49735e-17 
  6688.5566   6.93316e-17 
  6689.7339   6.24687e-17 
  6690.9106   6.80975e-17 
  6692.0879   6.58717e-17 
  6693.2651   6.57534e-17 
  6694.4424   6.00373e-17 
  6695.6196    7.0325e-17 
  6696.7969    6.3884e-17 
  6697.9741   6.74764e-17 
  6699.1514   6.21559e-17 
  6700.3291   6.66375e-17 
  6701.5063   6.38663e-17 
  6702.6841   6.16409e-17 
  6703.8613   6.37711e-17 
  6705.0391   6.26846e-17 
  6706.2163   6.26929e-17 
   6707.394      6.44e-17 
  6708.5718   6.92197e-17 
   6709.749   6.40201e-17 
  6710.9268   6.26687e-17 
  6712.1045   6.48571e-17 
  6713.2822   6.46529e-17 
    6714.46   6.55566e-17 
  6715.6377   6.80303e-17 
  6716.8159   6.12903e-17 
  6717.9937   6.13189e-17 
  6719.1714   6.13859e-17 
  6720.3491   6.28777e-17 
  6721.5273   6.22134e-17 
  6722.7051   6.02679e-17 
  6723.8833   5.74334e-17 
  6725.0615   6.32993e-17 
  6726.2393   5.85441e-17 
  6727.4175   5.96621e-17 
  6728.5957   6.22463e-17 
  6729.7739   5.98865e-17 
  6730.9521   5.83156e-17 
  6732.1304    6.0585e-17 
  6733.3086   5.70241e-17 
  6734.4868   5.87995e-17 
   6735.665   5.93295e-17 
  6736.8433   5.99859e-17 
   6738.022    5.9945e-17 
  6739.2002   5.91991e-17 
  6740.3784   5.82869e-17 
  6741.5571   5.80002e-17 
  6742.7358   5.73882e-17 
  6743.9141   5.42698e-17 
  6745.0928   5.73782e-17 
  6746.2715   5.95653e-17 
  6747.4497   5.83798e-17 
  6748.6284   5.82769e-17 
  6749.8071   5.50418e-17 
  6750.9858   5.74924e-17 
  6752.1646   5.22689e-17 
  6753.3433   5.69345e-17 
  6754.5225   5.78298e-17 
  6755.7012   5.61306e-17 
  6756.8799   5.96834e-17 
  6758.0591    5.6936e-17 
  6759.2378   5.43133e-17 
   6760.417   6.07135e-17 
  6761.5957   5.77701e-17 
  6762.7749   5.82273e-17 
  6763.9541   5.45614e-17 
  6765.1328   5.46437e-17 
   6766.312   5.84964e-17 
  6767.4912   5.38877e-17 
  6768.6704    5.5658e-17 
  6769.8496   5.31399e-17 
  6771.0288   5.82417e-17 
   6772.208   5.50868e-17 
  6773.3872   5.70759e-17 
  6774.5669   5.47989e-17 
  6775.7461   5.74424e-17 
  6776.9253     6.063e-17 
   6778.105   5.45248e-17 
  6779.2842   5.69764e-17 
  6780.4639   5.29778e-17 
  6781.6431   5.65941e-17 
  6782.8228   5.65562e-17 
  6784.0024   5.78769e-17 
  6785.1821   5.56732e-17 
  6786.3618   5.56546e-17 
  6787.5415   5.89127e-17 
  6788.7212   5.35498e-17 
  6789.9009   5.18261e-17 
  6791.0806   5.59836e-17 
  6792.2603   5.39092e-17 
  6793.4399   5.62487e-17 
  6794.6201   5.88679e-17 
  6795.7998   5.79346e-17 
  6796.9795   5.73297e-17 
  6798.1597   5.77765e-17 
  6799.3398   4.93019e-17 
  6800.5195   5.67543e-17 
  6801.6997   5.73095e-17 
  6802.8794   5.73103e-17 
  6804.0596   5.68108e-17 
  6805.2397   5.55274e-17 
  6806.4199   5.64016e-17 
  6807.6001   5.55248e-17 
  6808.7803   5.51963e-17 
  6809.9604   5.24089e-17 
  6811.1406   5.59927e-17 
  6812.3213   5.41935e-17 
  6813.5015   5.54038e-17 
  6814.6816   5.41375e-17 
  6815.8623   5.80177e-17 
  6817.0425   5.57223e-17 
  6818.2231   5.89164e-17 
  6819.4033   5.80669e-17 
   6820.584   5.57196e-17 
  6821.7646    5.4079e-17 
  6822.9453   5.26856e-17 
  6824.1255   5.31749e-17 
  6825.3062   5.71755e-17 
  6826.4868   5.63389e-17 
  6827.6675   6.10676e-17 
  6828.8481   5.65691e-17 
  6830.0288   5.77698e-17 
    6831.21    6.1312e-17 
  6832.3906   5.76055e-17 
  6833.5713   6.00334e-17 
  6834.7524   5.58019e-17 
  6835.9331   4.96902e-17 
  6837.1143   5.84964e-17 
  6838.2949     5.638e-17 
  6839.4761   5.12134e-17 
  6840.6572   6.10978e-17 
  6841.8379    5.4747e-17 
   6843.019   5.61625e-17 
  6844.2002   5.57438e-17 
  6845.3813   5.47472e-17 
  6846.5625   5.75524e-17 
  6847.7437   5.47779e-17 
  6848.9248   5.49676e-17 
   6850.106   5.79706e-17 
  6851.2871   5.41652e-17 
  6852.4688    5.5638e-17 
  6853.6499   5.84648e-17 
  6854.8315   5.77271e-17 
  6856.0127   5.53461e-17 
  6857.1943   5.63319e-17 
  6858.3755   5.32695e-17 
  6859.5571   5.47722e-17 
  6860.7383   5.81454e-17 
  6861.9199   6.27464e-17 
  6863.1016   6.50385e-17 
  6864.2832   5.53965e-17 
  6865.4648   5.79936e-17 
  6866.6465   5.49737e-17 
  6867.8281   5.59508e-17 
  6869.0098   5.03316e-17 
  6870.1914   6.23046e-17 
  6871.3735   5.78811e-17 
  6872.5552   5.75601e-17 
  6873.7368   5.75719e-17 
  6874.9185   5.26666e-17 
  6876.1006   5.93138e-17 
  6877.2827   6.02354e-17 
  6878.4644   5.47974e-17 
  6879.6465   4.98067e-17 
  6880.8286   5.67352e-17 
  6882.0103   5.46501e-17 
  6883.1924   5.73353e-17 
  6884.3745    5.3133e-17 
  6885.5566   5.88966e-17 
  6886.7388   5.58232e-17 
  6887.9209   5.27089e-17 
   6889.103   5.13548e-17 
  6890.2852   5.36867e-17 
  6891.4678   5.46635e-17 
  6892.6499   5.36153e-17 
   6893.832   5.95195e-17 
  6895.0146   5.34344e-17 
  6896.1968   5.21358e-17 
  6897.3794   6.11872e-17 
  6898.5615   5.08989e-17 
  6899.7441   5.34651e-17 
  6900.9268   6.00886e-17 
  6902.1089   5.01483e-17 
  6903.2915   5.52159e-17 
  6904.4741   5.52786e-17 
  6905.6567   5.36825e-17 
  6906.8394   5.62842e-17 
   6908.022   5.29689e-17 
  6909.2046   5.21606e-17 
  6910.3877   5.01164e-17 
  6911.5703   5.49558e-17 
  6912.7529   4.87399e-17 
   6913.936   5.16304e-17 
  6915.1187   5.06266e-17 
  6916.3013   5.35882e-17 
  6917.4844   4.94998e-17 
   6918.667   5.02452e-17 
  6919.8501   5.41852e-17 
  6921.0332    5.2125e-17 
  6922.2163     5.202e-17 
  6923.3989    4.8501e-17 
   6924.582   5.37711e-17 
  6925.7651   4.88932e-17 
  6926.9482   4.98375e-17 
  6928.1313   5.26558e-17 
  6929.3149   5.50168e-17 
  6930.4976   5.15088e-17 
  6931.6812   4.99739e-17 
  6932.8643   5.29728e-17 
  6934.0474   5.10763e-17 
   6935.231    5.1598e-17 
  6936.4141   4.99802e-17 
  6937.5977   5.04033e-17 
  6938.7808      4.36e-17 
  6939.9644   4.99927e-17 
  6941.1479   5.18246e-17 
  6942.3315   5.09255e-17 
  6943.5146   5.43941e-17 
  6944.6982   4.64145e-17 
  6945.8818   4.94694e-17 
  6947.0654   5.06574e-17 
   6948.249   4.58456e-17 
  6949.4326   4.67149e-17 
  6950.6162   4.97929e-17 
  6951.7998   4.58292e-17 
  6952.9839   4.82246e-17 
  6954.1675   5.13846e-17 
  6955.3511   4.55379e-17 
  6956.5352   4.62597e-17 
  6957.7188   4.92649e-17 
  6958.9028   5.23375e-17 
  6960.0864   5.47378e-17 
  6961.2705   4.85962e-17 
  6962.4546   5.09993e-17 
  6963.6387   4.75277e-17 
  6964.8223   4.92917e-17 
  6966.0063   4.92069e-17 
  6967.1904   5.09303e-17 
  6968.3745   4.96782e-17 
  6969.5586   5.19675e-17 
  6970.7427   4.97902e-17 
  6971.9268   4.72074e-17 
  6973.1113   5.12419e-17 
  6974.2954   4.86062e-17 
  6975.4795   5.09291e-17 
  6976.6641    4.8696e-17 
  6977.8481   4.97263e-17 
  6979.0327   4.66249e-17 
  6980.2168   4.87676e-17 
  6981.4014   4.70972e-17 
  6982.5859   4.60746e-17 
    6983.77   4.31334e-17 
  6984.9546   4.41098e-17 
  6986.1392   4.53513e-17 
  6987.3237   4.73488e-17 
  6988.5083   5.02427e-17 
  6989.6929   4.38535e-17 
  6990.8774   4.90715e-17 
   6992.062   4.53211e-17 
  6993.2466   4.78835e-17 
  6994.4312   4.65226e-17 
  6995.6162   4.73605e-17 
  6996.8008   4.52703e-17 
  6997.9854   4.61897e-17 
  6999.1704   4.59525e-17 
   7000.355    4.9855e-17 
    7001.54   4.82935e-17 
  7002.7246   4.60385e-17 
  7003.9097   4.71586e-17 
  7005.0947   4.84514e-17 
  7006.2798   5.09412e-17 
  7007.4644   4.92017e-17 
  7008.6494     4.831e-17 
  7009.8345   5.28247e-17 
  7011.0195   4.97023e-17 
  7012.2046   4.45257e-17 
  7013.3896   5.00321e-17 
  7014.5752    4.9699e-17 
  7015.7603   4.55425e-17 
  7016.9453   4.91699e-17 
  7018.1304   4.82598e-17 
  7019.3159   4.88309e-17 
   7020.501   4.97681e-17 
  7021.6865   4.87049e-17 
  7022.8716    4.7679e-17 
  7024.0571   4.74482e-17 
  7025.2422   4.99223e-17 
  7026.4277   4.62945e-17 
  7027.6133   4.89626e-17 
  7028.7988   4.71194e-17 
  7029.9844   5.01448e-17 
  7031.1699     5.173e-17 
  7032.3555    4.7911e-17 
   7033.541   4.79575e-17 
  7034.7266   4.94388e-17 
  7035.9121   4.38771e-17 
  7037.0977   4.73953e-17 
  7038.2832   4.69047e-17 
  7039.4692   5.14926e-17 
  7040.6548   4.83468e-17 
  7041.8408   4.96273e-17 
  7043.0264   4.67826e-17 
  7044.2119   4.64768e-17 
  7045.3979    5.0667e-17 
   7046.584   4.92776e-17 
  7047.7695    4.9644e-17 
  7048.9556   4.80025e-17 
  7050.1416   4.92449e-17 
  7051.3276   4.80658e-17 
  7052.5137   4.96809e-17 
  7053.6997   5.03329e-17 
  7054.8857   4.99885e-17 
  7056.0718   5.13349e-17 
  7057.2578   4.82433e-17 
  7058.4438   4.45759e-17 
  7059.6299   4.60264e-17 
  7060.8164   4.90442e-17 
  7062.0024   5.03487e-17 
  7063.1885   4.71842e-17 
   7064.375   5.05579e-17 
   7065.561   4.79831e-17 
  7066.7476   4.91457e-17 
  7067.9336   4.78667e-17 
  7069.1201   4.85308e-17 
  7070.3066    4.5515e-17 
  7071.4927    4.9289e-17 
  7072.6792   5.09434e-17 
  7073.8657   4.96342e-17 
  7075.0522    4.8988e-17 
  7076.2388   4.83414e-17 
  7077.4253   4.87949e-17 
  7078.6118   4.86056e-17 
  7079.7983   5.30076e-17 
  7080.9849   5.10449e-17 
  7082.1719   4.99208e-17 
  7083.3584   5.13472e-17 
  7084.5449   5.02029e-17 
  7085.7319   4.61812e-17 
  7086.9185   4.85495e-17 
  7088.1055   4.88551e-17 
   7089.292   4.73613e-17 
   7090.479   4.93015e-17 
   7091.666   4.91751e-17 
  7092.8525   4.79754e-17 
  7094.0396   4.83004e-17 
  7095.2266   4.91369e-17 
  7096.4136   4.93692e-17 
  7097.6006   4.86905e-17 
  7098.7876   5.15877e-17 
  7099.9746   4.70318e-17 
  7101.1616   4.66399e-17 
  7102.3486   4.83075e-17 
  7103.5356    5.0661e-17 
  7104.7227   4.77331e-17 
  7105.9097   4.78498e-17 
  7107.0972   4.46066e-17 
  7108.2842   4.85491e-17 
  7109.4717   4.97931e-17 
  7110.6587   4.96219e-17 
  7111.8462    5.0021e-17 
  7113.0332   4.53794e-17 
  7114.2207    5.0682e-17 
  7115.4082   4.86505e-17 
  7116.5952   4.68084e-17 
  7117.7827   4.72007e-17 
  7118.9702   4.86651e-17 
  7120.1577   4.60298e-17 
  7121.3452   4.66318e-17 
  7122.5327   4.84174e-17 
  7123.7202   4.73251e-17 
  7124.9077   5.15232e-17 
  7126.0952   4.79619e-17 
  7127.2832   4.55804e-17 
  7128.4707   4.87509e-17 
  7129.6582   4.32925e-17 
  7130.8462   4.68793e-17 
  7132.0337   4.84808e-17 
  7133.2212   4.79083e-17 
  7134.4092   4.90436e-17 
  7135.5972   4.81845e-17 
  7136.7847   4.78169e-17 
  7137.9727   4.94257e-17 
  7139.1602   4.72069e-17 
  7140.3481   4.78454e-17 
  7141.5361   4.95011e-17 
  7142.7241   4.81362e-17 
  7143.9121   5.09414e-17 
  7145.1001   4.74607e-17 
  7146.2881   4.87678e-17 
  7147.4761   4.91436e-17 
  7148.6641   4.73948e-17 
  7149.8525   4.77613e-17 
  7151.0405   4.89584e-17 
  7152.2285   4.51061e-17 
  7153.4165    5.0056e-17 
   7154.605   4.22114e-17 
   7155.793   4.74275e-17 
  7156.9814    4.8827e-17 
  7158.1694   4.60608e-17 
  7159.3579   5.03623e-17 
  7160.5459   4.62433e-17 
  7161.7344   4.54046e-17 
  7162.9229   4.96771e-17 
  7164.1113   4.77717e-17 
  7165.2998   4.99671e-17 
  7166.4878    4.7776e-17 
  7167.6763   4.26955e-17 
  7168.8647   4.58162e-17 
  7170.0532   4.40012e-17 
  7171.2417   4.75161e-17 
  7172.4307   4.34211e-17 
  7173.6191   4.59473e-17 
  7174.8076   4.58317e-17 
  7175.9961   4.60131e-17 
  7177.1851    4.5083e-17 
  7178.3735   4.55121e-17 
   7179.562   4.08207e-17 
   7180.751   4.83225e-17 
  7181.9399   4.86003e-17 
  7183.1284   4.43743e-17 
  7184.3174   4.19689e-17 
  7185.5059   4.59004e-17 
  7186.6948   4.59952e-17 
  7187.8838   4.64247e-17 
  7189.0728   4.39658e-17 
  7190.2617   4.71594e-17 
  7191.4507   4.34959e-17 
  7192.6396   4.58471e-17 
  7193.8286   4.27538e-17 
  7195.0176   4.58548e-17 
  7196.2065   4.57406e-17 
  7197.3955   4.48932e-17 
  7198.5845   4.74813e-17 
  7199.7739   4.59298e-17 
  7200.9629   4.43412e-17 
  7202.1519   4.65872e-17 
  7203.3413   3.86817e-17 
  7204.5303   4.39112e-17 
  7205.7197    4.6994e-17 
  7206.9087   4.55234e-17 
  7208.0981    4.4867e-17 
  7209.2876   4.34894e-17 
  7210.4766   4.10299e-17 
   7211.666   4.14583e-17 
  7212.8555   4.28061e-17 
  7214.0449   4.13744e-17 
  7215.2344   4.24332e-17 
  7216.4238   4.70118e-17 
  7217.6133   4.37631e-17 
  7218.8027    4.6546e-17 
  7219.9922   4.51417e-17 
  7221.1816   4.33467e-17 
  7222.3711   4.23768e-17 
  7223.5605   4.25701e-17 
  7224.7505   4.65935e-17 
  7225.9399   4.57573e-17 
  7227.1294   4.32286e-17 
  7228.3193   4.55733e-17 
  7229.5088   4.27551e-17 
  7230.6987   4.34065e-17 
  7231.8882   4.21508e-17 
  7233.0781   4.51471e-17 
  7234.2681   3.85951e-17 
   7235.458   4.42326e-17 
  7236.6475   4.60839e-17 
  7237.8374   4.20833e-17 
  7239.0273   4.85578e-17 
  7240.2173   4.85739e-17 
  7241.4072   3.52723e-17 
  7242.5972   4.73965e-17 
  7243.7871   4.20585e-17 
  7244.9771   4.06995e-17 
   7246.167   4.43218e-17 
  7247.3569   4.61143e-17 
  7248.5474   4.63643e-17 
  7249.7373   4.34075e-17 
  7250.9272   4.00856e-17 
  7252.1177   4.47388e-17 
  7253.3076   4.00622e-17 
   7254.498   4.05297e-17 
   7255.688   4.11896e-17 
  7256.8784   4.51944e-17 
  7258.0684   3.99508e-17 
  7259.2588   4.33117e-17 
  7260.4492   4.34698e-17 
  7261.6392   3.92271e-17 
  7262.8296   4.09572e-17 
    7264.02   4.44708e-17 
  7265.2104   4.53382e-17 
  7266.4009   4.33809e-17 
  7267.5913   4.13619e-17 
  7268.7817   4.25101e-17 
  7269.9722   4.32842e-17 
  7271.1626   4.29263e-17 
  7272.3535    4.4613e-17 
  7273.5439   4.49613e-17 
  7274.7344   4.26345e-17 
  7275.9248   3.99375e-17 
  7277.1157   3.80387e-17 
  7278.3062   4.30307e-17 
  7279.4971   4.08921e-17 
  7280.6875   4.22606e-17 
  7281.8784     3.934e-17 
  7283.0688   3.90151e-17 
  7284.2598   4.03445e-17 
  7285.4507   4.44958e-17 
  7286.6416   4.48513e-17 
   7287.832   4.29699e-17 
  7289.0229   3.96075e-17 
  7290.2139   3.98708e-17 
  7291.4048   4.24655e-17 
  7292.5957     4.139e-17 
  7293.7866   4.32628e-17 
  7294.9775   4.42516e-17 
  7296.1685   4.14886e-17 
  7297.3594   4.44649e-17 
  7298.5503   4.12009e-17 
  7299.7417   4.15198e-17 
  7300.9326   4.08361e-17 
  7302.1235   4.33584e-17 
  7303.3149   4.18023e-17 
  7304.5059   3.98681e-17 
  7305.6973    4.7564e-17 
  7306.8882   3.85318e-17 
  7308.0796   4.31371e-17 
  7309.2705   4.23356e-17 
  7310.4619   4.40631e-17 
  7311.6533   4.55254e-17 
  7312.8447   4.37775e-17 
  7314.0356    4.0744e-17 
  7315.2271   4.65983e-17 
  7316.4185   4.06216e-17 
  7317.6099   4.28218e-17 
  7318.8013   3.62353e-17 
  7319.9927    4.0352e-17 
  7321.1841   4.13669e-17 
  7322.3755   3.90313e-17 
  7323.5669   4.01201e-17 
  7324.7583   4.29684e-17 
  7325.9502   4.09307e-17 
  7327.1416   3.94356e-17 
   7328.333   4.12465e-17 
  7329.5249   3.52296e-17 
  7330.7163   4.52588e-17 
  7331.9082   3.98177e-17 
  7333.0996   4.07245e-17 
  7334.2915   4.21358e-17 
  7335.4829   3.94567e-17 
  7336.6748   4.08205e-17 
  7337.8667   4.08665e-17 
  7339.0581   3.88834e-17 
    7340.25   4.12586e-17 
  7341.4419   5.00148e-17 
  7342.6338    4.1805e-17 
  7343.8257   3.82287e-17 
  7345.0176   4.30776e-17 
  7346.2095    4.5339e-17 
  7347.4014   3.97694e-17 
  7348.5933   4.60733e-17 
  7349.7852   4.39646e-17 
  7350.9771   4.26716e-17 
  7352.1689   3.83243e-17 
  7353.3613   3.67476e-17 
  7354.5532   3.91992e-17 
  7355.7451   4.31403e-17 
  7356.9375    4.1907e-17 
  7358.1294   4.02843e-17 
  7359.3218   3.94556e-17 
  7360.5137   4.43751e-17 
  7361.7061   3.99412e-17 
  7362.8979   4.42104e-17 
  7364.0903    4.6777e-17 
  7365.2827   4.41589e-17 
  7366.4746   4.41875e-17 
   7367.667   4.13973e-17 
  7368.8594   5.09668e-17 
  7370.0518   3.51915e-17 
  7371.2441   4.40146e-17 
  7372.4365    4.4022e-17 
  7373.6289   4.25909e-17 
  7374.8213   4.39369e-17 
  7376.0137   4.20881e-17 
  7377.2061   4.14573e-17 
  7378.3984   4.04984e-17 
  7379.5908    4.1148e-17 
  7380.7837   4.00631e-17 
  7381.9761    4.1651e-17 
  7383.1685   4.33673e-17 
  7384.3613   4.29224e-17 
  7385.5537   4.09672e-17 
  7386.7466   4.19071e-17 
   7387.939   4.07863e-17 
  7389.1318   3.87567e-17 
  7390.3242    4.2809e-17 
  7391.5171   4.44999e-17 
  7392.7095   4.09417e-17 
  7393.9023    4.1511e-17 
  7395.0952   4.36529e-17 
  7396.2881   4.09076e-17 
   7397.481   4.20858e-17 
  7398.6738   4.09515e-17 
  7399.8667   4.26591e-17 
  7401.0591   4.15519e-17 
  7402.2524   5.03522e-17 
  7403.4453   4.02747e-17 
  7404.6382   4.29234e-17 
  7405.8311   4.07672e-17 
  7407.0239   3.97939e-17 
  7408.2168   4.15238e-17 
  7409.4097   4.00541e-17 
   7410.603   4.27872e-17 
  7411.7959   4.19775e-17 
  7412.9893    4.7154e-17 
  7414.1821    3.9284e-17 
  7415.3755   4.30823e-17 
  7416.5684   3.80291e-17 
  7417.7617   4.08522e-17 
  7418.9546   4.17523e-17 
  7420.1479   3.89276e-17 
  7421.3413   4.48247e-17 
  7422.5342   4.03824e-17 
  7423.7275   4.17542e-17 
  7424.9209   4.52775e-17 
  7426.1143   4.35535e-17 
  7427.3076   3.97827e-17 
   7428.501   4.47361e-17 
  7429.6943   4.24464e-17 
  7430.8877    4.3535e-17 
  7432.0811   3.93352e-17 
  7433.2744   3.78283e-17 
  7434.4678   4.32392e-17 
  7435.6611   4.33554e-17 
  7436.8545   4.19237e-17 
  7438.0483   4.48322e-17 
  7439.2417   4.33005e-17 
  7440.4351   4.68428e-17 
  7441.6289   4.42439e-17 
  7442.8223    4.2998e-17 
  7444.0161   3.95248e-17 
  7445.2095    4.4547e-17 
  7446.4033   4.35258e-17 
  7447.5967   4.17935e-17 
  7448.7905   4.40441e-17 
  7449.9839   4.18064e-17 
  7451.1777   4.24755e-17 
  7452.3716   4.12063e-17 
  7453.5654   4.21401e-17 
  7454.7588   4.18466e-17 
  7455.9526   4.21904e-17 
  7457.1465   3.99712e-17 
  7458.3403   4.28895e-17 
  7459.5342   4.28965e-17 
   7460.728   4.18331e-17 
  7461.9219   4.06838e-17 
  7463.1162   4.46164e-17 
  7464.3101   4.03216e-17 
  7465.5039    4.1937e-17 
  7466.6978   3.99193e-17 
  7467.8916   4.51965e-17 
  7469.0859    4.2993e-17 
  7470.2798   4.30149e-17 
  7471.4736   4.31644e-17 
   7472.668   4.10778e-17 
  7473.8618    3.5369e-17 
  7475.0562   4.00543e-17 
    7476.25    4.4386e-17 
  7477.4443   4.24205e-17 
  7478.6387   4.06872e-17 
  7479.8325   4.05914e-17 
  7481.0269   3.57093e-17 
  7482.2212   3.98156e-17 
  7483.4155   4.18064e-17 
  7484.6094   4.36994e-17 
  7485.8037   4.05878e-17 
   7486.998   4.15221e-17 
  7488.1924   4.43387e-17 
  7489.3867   3.93581e-17 
  7490.5811    4.0283e-17 
  7491.7754   4.32109e-17 
  7492.9697   4.52134e-17 
  7494.1641    3.8709e-17 
  7495.3589   3.86936e-17 
  7496.5532   3.90253e-17 
  7497.7476   3.94825e-17 
  7498.9419   3.88999e-17 
  7500.1367   4.16213e-17 
  7501.3311   3.89207e-17 
  7502.5254   4.07668e-17 
  7503.7202   4.11511e-17 
  7504.9146   3.68269e-17 
  7506.1094   4.22299e-17 
  7507.3037   3.90026e-17 
  7508.4985   4.42327e-17 
  7509.6934   4.08522e-17 
  7510.8877   4.34994e-17 
  7512.0825   4.32575e-17 
  7513.2773     4.189e-17 
  7514.4722   3.90096e-17 
  7515.6665   3.39799e-17 
  7516.8613    4.0306e-17 
  7518.0562   3.98487e-17 
   7519.251   4.13073e-17 
  7520.4458   3.34729e-17 
  7521.6406   4.03314e-17 
  7522.8354   4.39387e-17 
  7524.0303   3.64651e-17 
  7525.2251   4.41306e-17 
  7526.4204   3.93888e-17 
  7527.6152   3.89049e-17 
  7528.8101   3.95977e-17 
  7530.0049   3.82985e-17 
  7531.2002   4.00879e-17 
   7532.395   3.71813e-17 
  7533.5903   3.63736e-17 
  7534.7852   3.46257e-17 
    7535.98   3.42112e-17 
  7537.1753    3.5365e-17 
  7538.3706   3.43245e-17 
  7539.5654   3.74215e-17 
  7540.7607    3.8913e-17 
  7541.9556   3.61691e-17 
  7543.1509    3.5114e-17 
  7544.3462   3.31952e-17 
  7545.5415   3.30775e-17 
  7546.7363   3.34091e-17 
  7547.9316   3.49482e-17 
   7549.127   3.90065e-17 
  7550.3223   3.49532e-17 
  7551.5176   3.60603e-17 
  7552.7129   3.66476e-17 
  7553.9082   3.80503e-17 
  7555.1035   3.28088e-17 
  7556.2988    3.7484e-17 
  7557.4941   3.61989e-17 
  7558.6899   3.87363e-17 
  7559.8853   3.70178e-17 
  7561.0806   3.57612e-17 
  7562.2759   3.49696e-17 
  7563.4717   3.74625e-17 
   7564.667   3.69951e-17 
  7565.8623   3.55296e-17 
  7567.0581   3.89228e-17 
  7568.2534   3.17429e-17 
  7569.4492   3.22528e-17 
  7570.6445   3.31271e-17 
  7571.8403   3.64866e-17 
  7573.0361   3.86309e-17 
  7574.2314   3.46486e-17 
  7575.4272   3.96256e-17 
  7576.6226   3.49161e-17 
  7577.8184     3.536e-17 
  7579.0142   3.75952e-17 
    7580.21   3.78452e-17 
  7581.4058   3.85999e-17 
  7582.6016   4.05224e-17 
  7583.7974   3.59256e-17 
  7584.9932   3.77883e-17 
   7586.189   3.88024e-17 
  7587.3848   3.62085e-17 
  7588.5806    3.7386e-17 
  7589.7764   3.72329e-17 
  7590.9722   3.95202e-17 
   7592.168   4.13417e-17 
  7593.3638   4.28186e-17 
  7594.5601   4.35748e-17 
  7595.7559    4.0358e-17 
  7596.9517   4.26503e-17 
  7598.1479   4.26838e-17 
  7599.3438   4.35223e-17 
    7600.54     3.939e-17 
  7601.7358   3.70746e-17 
  7602.9321   3.98123e-17 
  7604.1279   4.47272e-17 
  7605.3242   3.55375e-17 
    7606.52    4.5373e-17 
  7607.7163   3.61545e-17 
  7608.9126   3.83984e-17 
  7610.1084   3.52086e-17 
  7611.3047   3.71706e-17 
   7612.501   3.93777e-17 
  7613.6973   3.75446e-17 
  7614.8931   3.79845e-17 
  7616.0898    3.6694e-17 
  7617.2856   3.79914e-17 
  7618.4819   3.58306e-17 
  7619.6782     4.182e-17 
  7620.8745   3.76237e-17 
  7622.0708   3.54894e-17 
  7623.2671   3.95202e-17 
  7624.4639   4.09632e-17 
  7625.6602    4.0828e-17 
  7626.8564   3.65863e-17 
  7628.0527   4.07428e-17 
  7629.2495   3.75173e-17 
  7630.4458   3.96731e-17 
  7631.6421   4.33202e-17 
  7632.8384   3.89721e-17 
  7634.0352   4.03316e-17 
  7635.2314   3.22766e-17 
  7636.4282   3.26378e-17 
  7637.6245   3.94621e-17 
  7638.8213   3.71415e-17 
  7640.0176   3.61847e-17 
  7641.2144   3.63751e-17 
  7642.4111   3.75819e-17 
  7643.6074   3.95742e-17 
  7644.8042   3.87944e-17 
   7646.001   3.40397e-17 
  7647.1973   3.87611e-17 
   7648.394   3.71934e-17 
  7649.5908   3.86453e-17 
  7650.7876   3.86999e-17 
  7651.9844   3.69586e-17 
  7653.1812   3.73383e-17 
  7654.3779   3.84245e-17 
  7655.5747   3.46867e-17 
  7656.7715   4.17675e-17 
  7657.9683    3.5505e-17 
   7659.165   3.59802e-17 
  7660.3618   3.86265e-17 
  7661.5586   3.74363e-17 
  7662.7559   4.24418e-17 
  7663.9526   3.81028e-17 
  7665.1494    3.7521e-17 
  7666.3462   3.99035e-17 
  7667.5435   3.83755e-17 
  7668.7402   3.88855e-17 
  7669.9375   4.19621e-17 
  7671.1343   3.83857e-17 
  7672.3315   4.00685e-17 
  7673.5283   3.76021e-17 
  7674.7256   3.78958e-17 
  7675.9224   3.99435e-17 
  7677.1196   3.72609e-17 
  7678.3164   3.76921e-17 
  7679.5137   3.79091e-17 
  7680.7109   3.76527e-17 
  7681.9077   3.85959e-17 
   7683.105   4.04612e-17 
  7684.3022   3.79587e-17 
  7685.4995   3.94033e-17 
  7686.6968   3.57477e-17 
   7687.894   4.01366e-17 
  7689.0913   3.62687e-17 
  7690.2881   3.79781e-17 
  7691.4858    3.9872e-17 
  7692.6826   3.93325e-17 
  7693.8799   4.03989e-17 
  7695.0776   3.58331e-17 
  7696.2749   3.84018e-17 
  7697.4722   4.29713e-17 
  7698.6694   3.60095e-17 
  7699.8667   3.66436e-17 
   7701.064   4.18529e-17 
  7702.2617    3.6814e-17 
   7703.459   3.81195e-17 
  7704.6562   3.47209e-17 
   7705.854   3.59283e-17 
  7707.0513   3.83903e-17 
   7708.249    3.8076e-17 
  7709.4463   4.01347e-17 
   7710.644    4.0005e-17 
  7711.8413   4.78762e-17 
  7713.0391    3.8016e-17 
  7714.2363   3.66553e-17 
  7715.4341   2.96651e-17 
  7716.6318   3.98593e-17 
  7717.8291   3.80503e-17 
  7719.0269   3.52733e-17 
  7720.2246   3.39916e-17 
  7721.4219   3.50338e-17 
  7722.6196   4.11373e-17 
  7723.8174   3.33946e-17 
  7725.0151   3.97216e-17 
  7726.2129   4.17314e-17 
  7727.4106   3.75319e-17 
  7728.6084   3.98029e-17 
  7729.8062   4.06111e-17 
  7731.0039   3.85751e-17 
  7732.2017   3.47417e-17 
  7733.3994    3.8096e-17 
  7734.5972   3.99445e-17 
  7735.7949   3.51263e-17 
  7736.9927   3.35529e-17 
  7738.1904    3.6588e-17 
  7739.3887   3.43836e-17 
  7740.5864   3.53965e-17 
  7741.7842   3.67099e-17 
  7742.9824   4.06163e-17 
  7744.1802   3.87155e-17 
  7745.3779   4.24872e-17 
  7746.5762   3.39703e-17 
  7747.7739   3.34356e-17 
  7748.9722   3.46736e-17 
  7750.1699   3.17493e-17 
  7751.3682   2.94506e-17 
  7752.5659     3.791e-17 
  7753.7642   4.27028e-17 
  7754.9619   3.71165e-17 
  7756.1602   3.99673e-17 
  7757.3584   4.19077e-17 
  7758.5562   3.40995e-17 
  7759.7544   3.70511e-17 
  7760.9526   3.34217e-17 
  7762.1509   3.64459e-17 
  7763.3491   3.38229e-17 
  7764.5469   3.31027e-17 
  7765.7451   3.48563e-17 
  7766.9434   3.26948e-17 
  7768.1416   3.17287e-17 
  7769.3398   3.49313e-17 
  7770.5381   3.13729e-17 
  7771.7363   3.14825e-17 
  7772.9346    3.2789e-17 
  7774.1328   3.21907e-17 
  7775.3315   3.03161e-17 
  7776.5298    3.2713e-17 
   7777.728   2.83219e-17 
  7778.9263   3.63712e-17 
  7780.1245   3.51082e-17 
  7781.3232   3.20078e-17 
  7782.5215   2.95724e-17 
  7783.7197   3.41793e-17 
   7784.918   3.20535e-17 
  7786.1167   3.09923e-17 
  7787.3149   3.10877e-17 
  7788.5137   3.24955e-17 
  7789.7119   3.61031e-17 
  7790.9102    2.8986e-17 
  7792.1089   2.45415e-17 
  7793.3076    2.7841e-17 
  7794.5059   3.00791e-17 
  7795.7046   3.06869e-17 
  7796.9033   3.03517e-17 
  7798.1016    2.9936e-17 
  7799.3003   2.75872e-17 
   7800.499   2.94412e-17 
  7801.6973   3.17291e-17 
   7802.896   2.97216e-17 
  7804.0947   3.16725e-17 
  7805.2935   2.93752e-17 
  7806.4922   2.88944e-17 
  7807.6904   2.99264e-17 
  7808.8892    3.7825e-17 
  7810.0879   2.83924e-17 
  7811.2866    3.3907e-17 
  7812.4854   3.30488e-17 
  7813.6841   3.18229e-17 
  7814.8828   3.26359e-17 
  7816.0815   3.08344e-17 
  7817.2803   2.93923e-17 
  7818.4795    2.8319e-17 
  7819.6782   2.78182e-17 
   7820.877   3.76769e-17 
  7822.0757   3.01284e-17 
  7823.2744   2.81357e-17 
  7824.4736   3.20424e-17 
  7825.6724   3.19333e-17 
  7826.8711   2.96587e-17 
  7828.0703   2.66282e-17 
   7829.269   3.14293e-17 
  7830.4678   3.21272e-17 
   7831.667   2.87267e-17 
  7832.8657   3.14968e-17 
  7834.0649   2.99595e-17 
  7835.2637   3.24128e-17 
  7836.4629   2.87377e-17 
  7837.6621   3.24195e-17 
  7838.8608   3.11383e-17 
  7840.0601   2.98928e-17 
  7841.2588     3.122e-17 
   7842.458    3.1492e-17 
  7843.6572   3.08569e-17 
   7844.856   2.62869e-17 
  7846.0552   3.19703e-17 
  7847.2544   2.82945e-17 
  7848.4536   2.94662e-17 
  7849.6528   2.88823e-17 
  7850.8516   2.61476e-17 
  7852.0508   3.11558e-17 
    7853.25   3.44811e-17 
  7854.4492   2.89371e-17 
  7855.6484   3.07773e-17 
  7856.8477   2.62742e-17 
  7858.0469    2.8047e-17 
  7859.2461   3.05126e-17 
  7860.4453   2.83492e-17 
  7861.6445   3.23191e-17 
  7862.8442   2.43588e-17 
  7864.0435   3.13283e-17 
  7865.2427   3.44261e-17 
  7866.4419   2.94283e-17 
  7867.6411   2.96135e-17 
  7868.8408   2.95054e-17 
    7870.04   3.54127e-17 
  7871.2393   2.81324e-17 
  7872.4385   3.14673e-17 
  7873.6382   3.21518e-17 
  7874.8374   3.68224e-17 
  7876.0371   3.06355e-17 
  7877.2363     3.518e-17 
  7878.4355   3.26571e-17 
  7879.6353   3.31946e-17 
  7880.8345   3.19033e-17 
  7882.0342   3.51909e-17 
  7883.2334   3.03028e-17 
  7884.4331    3.0729e-17 
  7885.6328   2.87221e-17 
   7886.832   2.75268e-17 
  7888.0317   2.98914e-17 
   7889.231   2.80562e-17 
  7890.4307   3.29396e-17 
  7891.6304   3.35633e-17 
  7892.8301   3.17424e-17 
  7894.0298   2.86607e-17 
   7895.229   3.40293e-17 
  7896.4287   3.00535e-17 
  7897.6284   3.51756e-17 
  7898.8281   3.21828e-17 
  7900.0278   3.30857e-17 
  7901.2275   3.43243e-17 
  7902.4272   3.52259e-17 
   7903.627   3.41016e-17 
  7904.8267   3.65549e-17 
  7906.0264   3.45957e-17 
  7907.2261   3.30732e-17 
  7908.4258   3.52781e-17 
  7909.6255   3.59581e-17 
  7910.8252   3.94754e-17 
  7912.0249   4.13315e-17 
  7913.2246   3.81995e-17 
  7914.4243    3.8283e-17 
  7915.6245   3.49609e-17 
  7916.8242   3.68659e-17 
  7918.0239    3.3074e-17 
  7919.2241   3.89965e-17 
  7920.4238   3.85147e-17 
  7921.6235    3.6533e-17 
  7922.8237   3.85528e-17 
  7924.0234   4.10332e-17 
  7925.2231   3.75215e-17 
  7940.8232   3.63855e-17 
  7942.0229   3.41553e-17 
  7943.2231   3.88776e-17 
  7944.4233   3.56381e-17 
  7945.6235   3.56689e-17 
  7946.8237   3.81195e-17 
  7948.0234   3.68155e-17 
  7949.2236   3.99958e-17 
  7950.4238    4.1765e-17 
   7951.624   3.90107e-17 
  7952.8242   4.43472e-17 
  7954.0244   4.00272e-17 
  7955.2246   3.90146e-17 
  7956.4248   4.04422e-17 
   7957.625   4.08507e-17 
  7958.8252    4.1145e-17 
  7960.0254   4.06807e-17 
  7961.2256   3.81339e-17 
  7962.4258    4.0737e-17 
   7963.626   4.03035e-17 
  7964.8262   3.80343e-17 
  7966.0269   4.20433e-17 
  7967.2271   3.75246e-17 
  7968.4272   4.37179e-17 
  7969.6274   3.94846e-17 
  7970.8281    3.9504e-17 
  7972.0283   3.95033e-17 
  7973.2285   3.92882e-17 
  7974.4292   4.69022e-17 
  7975.6294    4.1584e-17 
  7976.8296   4.26168e-17 
  7978.0303   4.55407e-17 
  7979.2305   3.34918e-17 
  7980.4312   4.45518e-17 
  7981.6313   4.14575e-17 
   7982.832   4.13569e-17 
  7984.0322   3.71563e-17 
  7985.2329   3.62141e-17 
  7986.4331   3.88978e-17 
  7987.6338   3.76885e-17 
   7988.834    4.0753e-17 
  7990.0347   4.39731e-17 
  7991.2349   3.82262e-17 
  7992.4355   3.60383e-17 
  7993.6362   3.75252e-17 
  7994.8369   4.11713e-17 
  7996.0371   4.09719e-17 
  7997.2378   4.37075e-17 
  7998.4385    4.3454e-17 
  7999.6392    4.0794e-17 
  8000.8398   3.90938e-17 
    8002.04   4.03341e-17 
  8003.2407   4.00864e-17 
  8004.4414    3.9955e-17 
  8005.6421   4.01454e-17 
  8006.8428   4.21449e-17 
  8008.0435    4.1115e-17 
  8009.2441   4.25826e-17 
  8010.4448   4.01351e-17 
  8011.6455   4.34421e-17 
  8012.8462   4.05603e-17 
  8014.0469   3.97194e-17 
  8015.2476    4.3689e-17 
  8016.4482   4.29867e-17 
  8017.6489   4.58781e-17 
  8018.8496   3.84776e-17 
  8020.0503   3.71373e-17 
   8021.251   4.03389e-17 
  8022.4517   4.14186e-17 
  8023.6528   3.78214e-17 
  8024.8535   4.05643e-17 
  8026.0542   3.21459e-17 
  8027.2549   3.40545e-17 
  8028.4556   3.95508e-17 
  8029.6567    4.4688e-17 
  8030.8574   3.80472e-17 
  8032.0586   4.17152e-17 
  8033.2593   3.98681e-17 
    8034.46   4.13708e-17 
  8035.6611   4.04034e-17 
  8036.8618   4.25884e-17 
  8038.0625   4.01378e-17 
  8039.2637   4.48726e-17 
  8040.4644   4.26813e-17 
  8041.6655    4.0027e-17 
  8042.8662   3.93056e-17 
  8044.0674   3.71098e-17 
  8045.2681   4.05016e-17 
  8046.4692   4.26832e-17 
  8047.6704   4.20922e-17 
  8048.8711   4.06853e-17 
  8050.0723    4.1545e-17 
  8051.2734   4.41237e-17 
  8052.4741   3.58875e-17 
  8053.6753   4.23193e-17 
   8054.876   4.09094e-17 
  8056.0771   4.01545e-17 
  8057.2783   3.80772e-17 
  8058.4795   3.86497e-17 
  8059.6802   4.07259e-17 
  8060.8813   3.78458e-17 
  8062.0825   4.28078e-17 
  8063.2837   3.85772e-17 
  8064.4849   4.00814e-17 
   8065.686   4.34265e-17 
  8066.8872    4.1714e-17 
  8068.0879    3.9836e-17 
  8069.2891   3.95958e-17 
  8070.4902   4.08928e-17 
  8071.6914   3.70882e-17 
  8072.8926   4.20666e-17 
  8074.0938   4.22237e-17 
  8075.2949   4.01052e-17 
  8076.4961   3.69903e-17 
  8077.6973    4.1349e-17 
  8078.8984   3.93496e-17 
  8080.0996   3.83247e-17 
  8081.3013   3.90928e-17 
  8082.5024   3.92094e-17 
  8083.7036   3.75025e-17 
  8084.9048   3.93719e-17 
   8086.106   3.93819e-17 
  8087.3071   4.24372e-17 
  8088.5088   3.86855e-17 
    8089.71    3.6251e-17 
  8090.9111   3.90859e-17 
  8092.1123   4.00772e-17 
   8093.314   3.96012e-17 
  8094.5151   3.76394e-17 
  8095.7163   3.65918e-17 
  8096.9175   3.91886e-17 
  8098.1191   3.22618e-17 
  8099.3203   3.90125e-17 
   8100.522   3.65245e-17 
  8101.7231   3.88201e-17 
  8102.9243   3.84495e-17 
   8104.126   3.71534e-17 
  8105.3271   3.56262e-17 
  8106.5288   3.75677e-17 
    8107.73   3.39466e-17 
  8108.9316   3.84014e-17 
  8110.1328   3.45955e-17 
  8111.3345   3.44399e-17 
  8112.5356   3.61818e-17 
  8113.7373    3.6673e-17 
  8114.9385   3.45463e-17 
  8116.1401   3.58243e-17 
  8117.3418   3.47801e-17 
   8118.543   3.50736e-17 
  8119.7446   3.45617e-17 
  8120.9463   3.62947e-17 
  8122.1475   3.59141e-17 
  8123.3491   3.55366e-17 
  8124.5508   3.53267e-17 
  8125.7524   3.71409e-17 
  8126.9536   3.53529e-17 
  8128.1553   3.62243e-17 
  8129.3569   3.50379e-17 
  8130.5586   3.37824e-17 
  8131.7598   3.42536e-17 
  8132.9614   3.55204e-17 
  8134.1631   3.14194e-17 
  8135.3647   3.37066e-17 
  8136.5664   3.36798e-17 
  8137.7681   3.55567e-17 
  8138.9697   3.72642e-17 
  8140.1714   3.61945e-17 
   8141.373   3.82941e-17 
  8142.5747   3.64547e-17 
  8143.7764   3.22582e-17 
   8144.978   3.45453e-17 
  8146.1797   3.34573e-17 
  8147.3809   3.77562e-17 
   8148.583   3.29255e-17 
  8149.7847   3.08307e-17 
  8150.9863   3.49538e-17 
   8152.188   3.42461e-17 
  8153.3896   3.46942e-17 
  8154.5913   3.26522e-17 
   8155.793   3.57298e-17 
  8156.9946    3.4729e-17 
  8158.1963   3.16612e-17 
  8159.3984   3.53612e-17 
  8160.6001   3.10979e-17 
  8161.8018   3.35896e-17 
  8163.0034   3.35996e-17 
  8164.2051   3.41089e-17 
  8165.4072   3.34666e-17 
  8166.6089   3.38118e-17 
  8167.8105   3.63851e-17 
  8169.0127   3.03713e-17 
  8170.2144   3.17124e-17 
   8171.416   3.32065e-17 
  8172.6177   3.37137e-17 
  8173.8198   3.41449e-17 
  8175.0215   3.55837e-17 
  8176.2236   3.76364e-17 
  8177.4253   3.58995e-17 
  8178.6274   3.46567e-17 
  8179.8291   3.72956e-17 
  8181.0308   3.38449e-17 
  8182.2329   3.82141e-17 
  8183.4346   3.66303e-17 
  8184.6367   3.23653e-17 
  8185.8384   3.59566e-17 
  8187.0405    3.4564e-17 
  8188.2422   3.55573e-17 
  8189.4443   3.49992e-17 
   8190.646   3.62626e-17 
  8191.8481   4.06715e-17 
  8193.0498   3.58477e-17 
   8194.252   3.52215e-17 
  8195.4541   3.54935e-17 
  8196.6562   3.37929e-17 
  8197.8574   3.65445e-17 
  8199.0596   3.49511e-17 
  8200.2617   3.65599e-17 
  8201.4639   3.51925e-17 
   8202.666   3.71219e-17 
  8203.8682   3.58556e-17 
  8205.0693    3.2908e-17 
  8206.2715   3.88542e-17 
  8207.4736   3.56812e-17 
  8208.6758   3.55469e-17 
  8209.8779   3.62468e-17 
  8211.0801   3.60626e-17 
  8212.2822   3.50867e-17 
  8213.4844   3.71694e-17 
  8214.6865   3.70905e-17 
  8215.8887   3.67405e-17 
  8217.0898   3.64388e-17 
   8218.292   3.14506e-17 
  8219.4941   3.58972e-17 
  8220.6963    3.3405e-17 
  8221.8984   3.07784e-17 
  8223.1006   3.57131e-17 
  8224.3027   3.31286e-17 
  8225.5049   3.26501e-17 
   8226.707   3.39364e-17 
  8227.9092   2.98999e-17 
  8229.1113   2.90402e-17 
  8230.3135   3.12196e-17 
  8231.5156   2.89975e-17 
  8232.7178   3.41678e-17 
  8233.9199   3.82164e-17 
  8235.1221   3.25461e-17 
  8236.3242   3.42876e-17 
  8237.5264   3.59774e-17 
  8238.7285   3.24561e-17 
  8239.9307   3.26067e-17 
  8241.1328   3.68978e-17 
   8242.335   3.37258e-17 
  8243.5371   3.56006e-17 
  8244.7393   3.46411e-17 
  8245.9424   3.69444e-17 
  8247.1445   3.57104e-17 
  8248.3467   3.68709e-17 
  8249.5488   3.65128e-17 
   8250.751   3.71209e-17 
  8251.9531   3.91192e-17 
  8253.1553   3.57823e-17 
  8254.3574   3.54027e-17 
  8255.5596   3.23626e-17 
  8256.7617   3.64659e-17 
  8257.9648   3.25007e-17 
   8259.167   3.30463e-17 
  8260.3691   3.76583e-17 
  8261.5713   3.34867e-17 
  8262.7734   3.43214e-17 
  8263.9756   3.61668e-17 
  8265.1777   3.57856e-17 
  8266.3809   3.59422e-17 
   8267.583   3.63132e-17 
  8268.7852   3.59547e-17 
  8269.9873   3.55042e-17 
  8271.1895   3.21818e-17 
  8272.3926   3.50632e-17 
  8273.5947   3.38756e-17 
  8274.7969   3.07571e-17 
   8275.999   3.75946e-17 
  8277.2012   3.47273e-17 
  8278.4043   3.12021e-17 
  8279.6064   2.63319e-17 
  8280.8086   3.28057e-17 
  8282.0107   3.67903e-17 
  8283.2139   3.58468e-17 
   8284.416   3.79635e-17 
  8285.6182   3.58408e-17 
  8286.8203   3.37031e-17 
  8288.0234   3.91454e-17 
  8289.2256   3.40483e-17 
  8290.4277   3.51956e-17 
  8291.6299   2.70587e-17 
   8292.833    4.0258e-17 
  8294.0352   3.17637e-17 
  8295.2373   3.42766e-17 
  8296.4404    3.6173e-17 
  8297.6426   3.97819e-17 
  8298.8447   3.08946e-17 
  8300.0479   3.13598e-17 
    8301.25   3.44732e-17 
  8302.4521   3.48996e-17 
  8303.6553   3.42314e-17 
  8304.8574   3.20191e-17 
  8306.0596   3.51638e-17 
  8307.2627   3.65488e-17 
  8308.4648   3.55114e-17 
   8309.667   3.60997e-17 
  8310.8701   3.62743e-17 
  8312.0723   3.64641e-17 
  8313.2744   3.57362e-17 
  8314.4775   3.41437e-17 
  8315.6797   3.77381e-17 
  8316.8828   3.66442e-17 
   8318.085   3.41945e-17 
  8319.2871   3.61222e-17 
  8320.4902   3.39878e-17 
  8321.6924   3.28059e-17 
  8322.8955   4.13107e-17 
  8324.0977   3.36954e-17 
  8325.2998   3.41478e-17 
  8326.5029     3.564e-17 
  8327.7051   3.40066e-17 
  8328.9082    3.5621e-17 
  8330.1104   3.02955e-17 
  8331.3135   3.37854e-17 
  8332.5156   3.48715e-17 
  8333.7178   3.75139e-17 
  8334.9209   3.11927e-17 
   8336.123   3.70819e-17 
  8337.3262   3.62664e-17 
  8338.5283   3.52644e-17 
  8339.7314   3.46836e-17 
  8340.9336   3.09413e-17 
  8342.1367    3.6103e-17 
  8343.3389   3.16554e-17 
   8344.542   3.84809e-17 
  8345.7441    3.6138e-17 
  8346.9473   3.09357e-17 
  8348.1494   3.53129e-17 
  8349.3525   3.31786e-17 
  8350.5547   3.57683e-17 
  8351.7578     3.367e-17 
    8352.96   3.05538e-17 
  8354.1631   3.59358e-17 
  8355.3652    3.4002e-17 
  8356.5684   3.66682e-17 
  8357.7705   3.18185e-17 
  8358.9736    3.3557e-17 
  8360.1758   3.49594e-17 
  8361.3789   2.75783e-17 
  8362.5811   3.65365e-17 
  8363.7842   3.47082e-17 
  8364.9863   3.22261e-17 
  8366.1895   3.27776e-17 
  8367.3926   3.11958e-17 
  8368.5947     3.344e-17 
  8369.7979   3.62062e-17 
     8371.0   3.31063e-17 
  8372.2031   3.07632e-17 
  8373.4053     3.072e-17 
  8374.6084   3.49178e-17 
  8375.8115   3.42039e-17 
  8377.0137   3.30559e-17 
  8378.2168   3.27773e-17 
  8379.4189   3.66728e-17 
  8380.6221   3.59754e-17 
  8381.8252   3.42112e-17 
  8383.0273   3.06232e-17 
  8384.2305   3.57922e-17 
  8385.4326   3.54467e-17 
  8386.6357   3.69192e-17 
  8387.8389   3.64107e-17 
   8389.041   3.53883e-17 
  8390.2441   3.26296e-17 
  8391.4473   3.62514e-17 
  8392.6494   3.52306e-17 
  8393.8525   3.20339e-17 
  8395.0547   3.49565e-17 
  8396.2578    3.1319e-17 
  8397.4609   3.83678e-17 
  8398.6631   3.03792e-17 
  8399.8662   3.55604e-17 
  8401.0693   3.41664e-17 
  8402.2715   3.10613e-17 
  8403.4746   3.22653e-17 
  8404.6777   3.56025e-17 
  8405.8799   3.28836e-17 
   8407.083   3.43884e-17 
  8408.2861    3.2589e-17 
  8409.4883   3.34762e-17 
  8410.6914   3.33494e-17 
  8411.8945   3.06828e-17 
  8413.0967   3.39695e-17 
  8414.2998   3.11963e-17 
  8415.5029   3.44595e-17 
  8416.7051   3.18131e-17 
  8417.9082   3.14525e-17 
  8419.1113   3.17872e-17 
  8420.3145   3.21418e-17 
  8421.5166   3.28905e-17 
  8422.7197   3.15518e-17 
  8423.9229   3.59322e-17 
   8425.125   3.44041e-17 
  8426.3281   4.42401e-17 
  8427.5312   3.42764e-17 
  8428.7344   4.02203e-17 
  8429.9365   3.15641e-17 
  8431.1396   3.68609e-17 
  8432.3428   3.07326e-17 
  8433.5449   3.14579e-17 
   8434.748   2.79545e-17 
  8435.9512   2.89844e-17 
  8437.1543    3.1014e-17 
  8438.3564   2.93616e-17 
  8439.5596   2.94331e-17 
  8440.7627   3.01243e-17 
  8441.9658   3.36866e-17 
   8443.168   3.15264e-17 
  8444.3711   3.55964e-17 
  8445.5742   3.27619e-17 
  8446.7773   3.33469e-17 
  8447.9795   3.25642e-17 
  8449.1826   3.51034e-17 
  8450.3857   3.86468e-17 
  8451.5889   3.48576e-17 
   8452.791   3.52054e-17 
  8453.9941   3.63386e-17 
  8455.1973   3.02138e-17 
  8456.4004   3.58758e-17 
  8457.6025   2.99105e-17 
  8458.8057   3.25871e-17 
  8460.0088   3.31861e-17 
  8461.2119   3.42409e-17 
   8462.415   3.11527e-17 
  8463.6172   3.45417e-17 
  8464.8203   3.32165e-17 
  8466.0234   2.98412e-17 
  8467.2266   2.83263e-17 
  8468.4297   3.29425e-17 
  8469.6318   3.53889e-17 
   8470.835   3.14519e-17 
  8472.0381   3.20491e-17 
  8473.2412   3.11525e-17 
  8474.4434   2.85053e-17 
  8475.6465   3.28523e-17 
  8476.8496   3.12294e-17 
  8478.0527   3.15764e-17 
  8479.2559   3.06265e-17 
   8480.459   3.16566e-17 
  8481.6611   3.18378e-17 
  8482.8643   3.04899e-17 
  8484.0674   3.02653e-17 
  8485.2705   2.92716e-17 
  8486.4736   2.93191e-17 
  8487.6758   2.88621e-17 
  8488.8789   3.15797e-17 
   8490.082   3.05192e-17 
  8491.2852   3.27049e-17 
  8492.4883    2.8849e-17 
  8493.6904   2.88105e-17 
  8494.8936   2.83193e-17 
  8496.0967   3.15229e-17 
  8497.2998   2.85188e-17 
  8498.5029   2.91617e-17 
  8499.7061   3.08669e-17 
  8500.9082   3.05265e-17 
  8502.1113   3.23482e-17 
  8503.3145   3.17756e-17 
  8504.5176   2.64505e-17 
  8505.7207   3.01938e-17 
  8506.9238   2.93604e-17 
   8508.126   2.77103e-17 
  8509.3291   3.13646e-17 
  8510.5322   2.83172e-17 
  8511.7354   2.86632e-17 
  8512.9385   3.04557e-17 
  8514.1416    3.0148e-17 
  8515.3438   3.13435e-17 
  8516.5469   2.97254e-17 
    8517.75   2.98758e-17 
  8518.9531   2.91881e-17 
  8520.1562   2.98903e-17 
  8521.3594   2.78037e-17 
  8522.5615   2.91985e-17 
  8523.7646   3.00912e-17 
  8524.9678   3.11115e-17 
  8526.1709   2.87348e-17 
   8527.374   3.23782e-17 
  8528.5771   2.54787e-17 
  8529.7803   3.12031e-17 
  8530.9824   3.11208e-17 
  8532.1855   3.05492e-17 
  8533.3887   2.95562e-17 
  8534.5918   2.88559e-17 
  8535.7949   2.92229e-17 
   8536.998   3.11721e-17 
  8538.2012   2.86607e-17 
  8539.4033   3.13133e-17 
  8540.6064    3.2182e-17 
  8541.8096   2.84369e-17 
  8543.0127   2.68809e-17 
  8544.2158   2.92569e-17 
  8545.4189   2.75568e-17 
  8546.6221    2.5836e-17 
  8547.8242   3.11523e-17 
  8549.0273   3.07971e-17 
  8550.2305   2.75395e-17 
  8551.4336   2.78799e-17 
  8552.6367   2.65255e-17 
  8553.8398   2.90052e-17 
   8555.043    2.8083e-17 
  8556.2451   2.79549e-17 
  8557.4482   2.92773e-17 
  8558.6514   2.92835e-17 
  8559.8545   2.73983e-17 
  8561.0576    2.7773e-17 
  8562.2607   2.97097e-17 
  8563.4639   2.92677e-17 
   8564.667   2.73737e-17 
  8565.8691   2.80262e-17 
  8567.0723   2.94745e-17 
  8568.2754   2.83199e-17 
  8569.4785   2.89196e-17 
  8570.6816   2.95618e-17 
  8571.8848     2.689e-17 
  8573.0879   2.65775e-17 
    8574.29   2.64774e-17 
  8575.4932   2.87077e-17 
  8576.6963   3.08586e-17 
  8577.8994   2.87707e-17 
  8579.1025    2.9225e-17 
  8580.3057   2.81095e-17 
  8581.5088   2.67981e-17 
  8582.7109   2.84478e-17 
  8583.9141    2.7071e-17 
  8585.1172   2.81747e-17 
  8586.3203   2.90488e-17 
  8587.5234   2.88744e-17 
  8588.7266   2.70467e-17 
  8589.9297   2.73273e-17 
  8591.1318   2.92544e-17 
   8592.335   2.64988e-17 
  8593.5381   3.04678e-17 
  8594.7412   2.92227e-17 
  8595.9443   3.05346e-17 
  8597.1475   2.83815e-17 
  8598.3506   2.95991e-17 
  8599.5527   2.97768e-17 
  8600.7559   2.94302e-17 
   8601.959   2.64271e-17 
  8603.1621   2.77778e-17 
  8604.3652   2.78924e-17 
  8605.5684   2.87165e-17 
  8606.7715   2.86103e-17 
  8607.9736   2.78518e-17 
  8609.1768   2.99689e-17 
  8610.3799   2.92977e-17 
   8611.583    2.4895e-17 
  8612.7861   2.85053e-17 
  8613.9893   2.95875e-17 
  8615.1924   2.54262e-17 
  8616.3945    2.7305e-17 
  8617.5977   2.30198e-17 
  8618.8008   2.47423e-17 
  8620.0039   3.12192e-17 
   8621.207   2.64642e-17 
  8622.4102   2.93693e-17 
  8623.6123   2.42453e-17 
  8624.8154    2.5481e-17 
  8626.0186   2.34472e-17 
  8627.2217   2.55376e-17 
  8628.4248   2.42763e-17 
  8629.6279   2.27338e-17 
  8630.8301   2.86798e-17 
  8632.0332   2.44025e-17 
  8633.2363    2.5713e-17 
  8634.4395   2.60661e-17 
  8635.6426   2.85299e-17 
  8636.8447   2.45375e-17 
  8638.0479   2.65963e-17 
   8639.251   3.07911e-17 
  8640.4541    2.8278e-17 
  8641.6572   2.50629e-17 
  8642.8604    3.0168e-17 
  8644.0625   2.28815e-17 
  8645.2656   2.35883e-17 
  8646.4688   2.48948e-17 
  8647.6719   2.49908e-17 
   8648.875   2.60457e-17 
  8650.0771   2.40378e-17 
  8651.2803   2.89594e-17 
  8652.4834   2.56262e-17 
  8653.6865   2.80816e-17 
  8654.8896   2.69788e-17 
  8656.0928   2.42657e-17 
  8657.2949   2.44248e-17 
   8658.498   2.64836e-17 
  8659.7012   2.86748e-17 
  8660.9043   2.56728e-17 
  8662.1064   2.48208e-17 
  8663.3096   2.65259e-17 
  8664.5127   2.33724e-17 
  8665.7158   2.57966e-17 
  8666.9189   2.63446e-17 
  8668.1211   2.23415e-17 
  8669.3242   2.65517e-17 
  8670.5273   2.95439e-17 
  8671.7305   2.54504e-17 
  8672.9326   2.73675e-17 
  8674.1357   2.53318e-17 
  8675.3389   2.56206e-17 
   8676.542   2.82728e-17 
  8677.7451   2.70021e-17 
  8678.9473   2.76872e-17 
  8680.1504   2.78053e-17 
  8681.3535   2.77762e-17 
  8682.5566   2.83528e-17 
  8683.7588    2.9937e-17 
  8684.9619   2.69531e-17 
   8686.165   2.51506e-17 
  8687.3682    2.6713e-17 
  8688.5703   2.49862e-17 
  8689.7734   2.55502e-17 
  8690.9766   2.33216e-17 
  8692.1797   2.71858e-17 
  8693.3818   2.53662e-17 
   8694.585   2.43801e-17 
  8695.7881   2.51762e-17 
  8696.9902   2.44701e-17 
  8698.1934   2.46686e-17 
  8699.3965   2.39874e-17 
  8700.5996    2.6703e-17 
  8701.8018   2.68792e-17 
  8703.0049   2.62174e-17 
   8704.208   2.93023e-17 
  8705.4111    2.8605e-17 
  8706.6133   2.85507e-17 
  8715.0332   2.64924e-17 
  8716.2363   2.80751e-17 
  8717.4385   2.46132e-17 
  8718.6416   2.53183e-17 
  8719.8447   2.45661e-17 
  8721.0479   2.63467e-17 
    8722.25   2.56328e-17 
  8723.4531   2.57551e-17 
  8724.6562   2.54312e-17 
  8725.8584   2.66161e-17 
  8727.0615   2.58033e-17 
  8728.2646   2.44388e-17 
  8729.4668   2.87517e-17 
  8730.6699   2.85153e-17 
  8731.8721    2.6193e-17 
  8733.0752   2.85119e-17 
  8734.2783   2.42838e-17 
  8735.4805   2.48433e-17 
  8736.6836   2.74364e-17 
  8737.8867   2.40447e-17 
  8739.0889   2.66221e-17 
   8740.292   2.45184e-17 
  8741.4941   2.88356e-17 
  8742.6973   2.36943e-17 
  8743.9004   3.10056e-17 
  8745.1025    2.6549e-17 
  8746.3057    2.9622e-17 
  8747.5088   2.90188e-17 
  8748.7109   2.45705e-17 
  8749.9141   2.83567e-17 
  8751.1162   2.62611e-17 
  8752.3193   2.65265e-17 
  8753.5225   2.68571e-17 
  8754.7246   2.79797e-17 
  8755.9277   2.59034e-17 
  8757.1299   2.83526e-17 
   8758.333   1.98355e-17 
  8759.5352   3.48232e-17 
  8760.7383   3.17706e-17 
  8761.9414   2.62707e-17 
  8763.1436   2.74083e-17 
  8764.3467   2.85248e-17 
  8765.5488   1.88062e-17 
   8766.752   3.75515e-17 
  8767.9541   2.88346e-17 
  8769.1572   3.04582e-17 
  8770.3594   2.93102e-17 
  8771.5625   1.71561e-17 
  8772.7646   2.00645e-17 
  8773.9678   2.77693e-17 
  8775.1699   2.56141e-17 
   8776.373   2.51637e-17 
  8777.5762   1.72635e-17 
  8778.7783   1.83242e-17 
  8779.9814   3.45138e-17 
  8781.1836   2.46494e-17 
  8782.3867   2.74716e-17 
  8783.5889   2.43121e-17 
   8784.791   3.01147e-17 
  8785.9941   2.66007e-17 
  8787.1973   2.73871e-17 
  8788.3994    2.6238e-17 
  8789.6016   2.75077e-17 
  8790.8047   2.91631e-17 
  8792.0068   2.49929e-17 
    8793.21   2.94123e-17 
  8794.4121   2.61647e-17 
  8795.6152   2.52548e-17 
  8796.8174    2.8337e-17 
  8798.0205   2.50221e-17 
  8799.2227   2.39811e-17 
  8800.4258   2.63597e-17 
  8801.6279   2.68652e-17 
  8802.8301   2.86511e-17 
  8804.0332   2.74985e-17 
  8805.2354    2.5186e-17 
  8806.4385   2.59351e-17 
  8807.6406   2.63015e-17 
  8808.8428    2.7025e-17 
  8810.0459   2.71766e-17 
   8811.248   2.38214e-17 
  8812.4512   2.65042e-17 
  8813.6533   2.51498e-17 
  8814.8555   2.76093e-17 
  8816.0586   2.71367e-17 
  8817.2607   2.96474e-17 
  8818.4639   3.05986e-17 
   8819.666   2.58478e-17 
  8820.8682   2.41438e-17 
  8822.0713   2.71152e-17 
  8823.2734   1.89216e-17 
  8824.4756   3.08377e-17 
  8825.6787    2.6139e-17 
  8826.8809   2.90127e-17 
   8828.083   2.37905e-17 
  8829.2861   2.58845e-17 
  8830.4883   1.87189e-17 
  8831.6904   2.05598e-17 
  8832.8936   2.35554e-17 
  8834.0957   2.67675e-17 
  8835.2979    2.6514e-17 
     8836.5   2.24178e-17 
  8837.7031   3.33483e-17 
  8838.9053   2.37005e-17 
  8840.1074   2.70213e-17 
  8841.3105   2.62072e-17 
  8842.5127   2.40749e-17 
  8843.7148   2.69394e-17 
   8844.917   2.65601e-17 
  8846.1201   2.65863e-17 
  8847.3223   2.76285e-17 
  8848.5244   2.67731e-17 
  8849.7266   2.25461e-17 
  8850.9297   2.38922e-17 
  8852.1318   2.36812e-17 
   8853.334   2.43542e-17 
  8854.5361   2.66867e-17 
  8855.7383   2.53843e-17 
  8856.9414   2.78187e-17 
  8858.1436   2.56312e-17 
  8859.3457   2.69154e-17 
  8860.5479   2.67421e-17 
    8861.75   2.79014e-17 
  8862.9531   2.89458e-17 
  8864.1553   2.59655e-17 
  8865.3574   2.64144e-17 
  8866.5596   2.54995e-17 
  8867.7617   2.27052e-17 
  8868.9639   2.76747e-17 
   8870.166   2.31144e-17 
  8871.3691   2.30948e-17 
  8872.5713    2.2248e-17 
  8873.7734   2.54527e-17 
  8874.9756   2.74327e-17 
  8876.1777   2.59562e-17 
  8877.3799   2.31646e-17 
   8878.582   2.55252e-17 
  8879.7842   2.86886e-17 
  8880.9873   2.17772e-17 
  8882.1895   2.68302e-17 
  8883.3916   2.80257e-17 
  8884.5938   2.45936e-17 
  8885.7959   3.47782e-17 
   8886.998   2.46079e-17 
  8888.2002   2.69485e-17 
  8889.4023   1.95541e-17 
  8890.6045   1.50619e-17 
  8891.8066   2.75641e-17 
  8893.0088   2.67421e-17 
  8894.2109   2.45315e-17 
  8895.4131   2.51841e-17 
  8896.6152   2.53573e-17 
  8897.8174   2.43605e-17 
  8899.0195   2.15005e-17 
  8900.2217   2.77699e-17 
  8901.4238   2.35256e-17 
   8902.626   2.91104e-17 
  8903.8281   3.06973e-17 
  8905.0303   2.80107e-17 
  8906.2324   3.05982e-17 
  8907.4346   2.54745e-17 
  8908.6367   2.51723e-17 
  8909.8389    2.6555e-17 
   8911.041   2.50546e-17 
  8912.2432   2.48913e-17 
  8913.4453   2.69465e-17 
  8914.6475   2.06927e-17 
  8915.8496   1.77288e-17 
  8917.0518   2.33189e-17 
  8918.2529   2.51794e-17 
  8919.4551   2.40747e-17 
  8920.6572   2.61463e-17 
  8921.8594   3.37664e-17 
  8923.0615   2.07294e-17 
  8924.2637   1.69042e-17 
  8925.4658    2.2268e-17 
   8926.668    2.7823e-17 
  8927.8691   2.77585e-17 
  8929.0713   2.77705e-17 
  8930.2734   2.53312e-17 
  8931.4756   2.55874e-17 
  8932.6777   2.41422e-17 
  8933.8799   2.74956e-17 
  8935.0811   2.64457e-17 
  8936.2832   2.45788e-17 
  8937.4854   2.80816e-17 
  8938.6875   2.45584e-17 
  8939.8887   2.33549e-17 
  8941.0908   2.73406e-17 
   8942.293   2.56368e-17 
  8943.4951   2.39772e-17 
  8944.6973   3.01409e-17 
  8945.8984   2.59361e-17 
  8947.1006   2.85223e-17 
  8948.3027   2.35916e-17 
  8949.5039   2.20717e-17 
  8950.7061   2.22024e-17 
  8951.9082   2.45021e-17 
  8953.1104   2.08892e-17 
  8954.3115   2.43184e-17 
  8955.5137   2.64596e-17 
  8956.7158   3.12287e-17 
   8957.917   2.00278e-17 
  8959.1191    2.3671e-17 
  8960.3213   2.75702e-17 
  8961.5225    2.6298e-17 
  8962.7246   2.14595e-17 
  8963.9268    2.3948e-17 
  8965.1279   2.43517e-17 
  8966.3301   2.34193e-17 
  8967.5312    2.4844e-17 
  8968.7334   2.48521e-17 
  8969.9355   2.63611e-17 
  8971.1367   2.44848e-17 
  8972.3389   2.88182e-17 
    8973.54   2.78555e-17 
  8974.7422    2.3943e-17 
  8975.9443   2.54347e-17 
  8977.1455   2.59793e-17 
  8978.3477   2.63532e-17 
  8979.5488   2.82974e-17 
   8980.751   2.45255e-17 
  8981.9521   2.42794e-17 
  8983.1543   2.49312e-17 
  8984.3555    2.4945e-17 
  8985.5576   2.81268e-17 
  8986.7588   2.92708e-17 
  8987.9609   2.65765e-17 
  8989.1621   2.39332e-17 
  8990.3643   2.54652e-17 
  8991.5654   1.87985e-17 
  8992.7676   2.47838e-17 
  8993.9688   2.78989e-17 
  8995.1699   2.66913e-17 
  8996.3721   2.70204e-17 
  8997.5732    2.5681e-17 
  8998.7754   2.75439e-17 
  8999.9766   2.77972e-17 
  9001.1787   2.45929e-17 
  9002.3799   2.68017e-17 
  9003.5811   2.76845e-17 
  9004.7832   2.61032e-17 
  9005.9844   2.13493e-17 
  9007.1855   2.52016e-17 
  9008.3877   2.40851e-17 
  9009.5889   2.45167e-17 
    9010.79   2.51687e-17 
  9011.9922   2.67434e-17 
  9013.1934   2.63067e-17 
  9014.3945     2.522e-17 
  9015.5967   2.71275e-17 
  9016.7979   2.62193e-17 
   9017.999   2.38949e-17 
  9019.2012   2.71727e-17 
  9020.4023   2.82138e-17 
  9021.6035   2.70292e-17 
  9022.8047   3.04957e-17 
  9024.0068   2.53985e-17 
   9025.208   2.31046e-17 
  9026.4092   2.52464e-17 
  9027.6104   2.84136e-17 
  9028.8115   2.29262e-17 
  9030.0137   2.69975e-17 
  9031.2148   2.67196e-17 
   9032.416   2.66921e-17 
  9033.6172   2.49917e-17 
  9034.8184   2.64146e-17 
  9036.0205   2.98614e-17 
  9037.2217   2.60841e-17 
  9038.4229   2.36995e-17 
   9039.624   2.78601e-17 
  9040.8252   2.61191e-17 
  9042.0264   2.82628e-17 
  9043.2275    2.7893e-17 
  9044.4287   2.64751e-17 
  9045.6309    2.6102e-17 
   9046.832   2.47879e-17 
  9048.0332   2.72194e-17 
  9049.2344    2.7778e-17 
  9050.4355   2.34743e-17 
  9051.6367   2.27692e-17 
  9052.8379   2.89159e-17 
  9054.0391   2.41476e-17 
  9055.2402   2.79318e-17 
  9056.4414   2.46434e-17 
  9057.6426   2.84097e-17 
  9058.8438   2.58887e-17 
  9060.0449   2.80005e-17 
  9061.2461   2.86155e-17 
  9062.4473   2.65296e-17 
  9063.6484   2.91752e-17 
  9064.8496   3.03759e-17 
  9066.0508   2.80524e-17 
   9067.252   2.70806e-17 
  9068.4531   2.61491e-17 
  9069.6533   2.57635e-17 
  9070.8545   2.83149e-17 
  9072.0557   2.88275e-17 
  9073.2568   2.99637e-17 
   9074.458   2.71304e-17 
  9075.6592   2.80028e-17 
  9076.8604   2.69648e-17 
  9078.0615   2.79085e-17 
  9079.2617   3.01761e-17 
  9080.4629   2.86757e-17 
  9081.6641   2.87463e-17 
  9082.8652   2.70704e-17 
  9084.0664   2.98758e-17 
  9085.2666   2.63036e-17 
  9086.4678   2.94704e-17 
  9087.6689   3.06076e-17 
  9088.8701   2.97703e-17 
  9090.0703   2.71867e-17 
  9091.2715   3.34492e-17 
  9092.4727   2.68523e-17 
  9093.6738   3.42126e-17 
   9094.874   2.87627e-17 
  9096.0752   2.71365e-17 
  9097.2764   3.05022e-17 
  9098.4766   2.62157e-17 
  9099.6777   3.03047e-17 
  9100.8789   2.62624e-17 
  9102.0791   3.31725e-17 
  9103.2803   2.68683e-17 
  9104.4814   3.15371e-17 
  9105.6816   3.13179e-17 
  9106.8828   2.92942e-17 
   9108.084   2.80845e-17 
  9109.2842   2.68861e-17 
  9110.4854   2.88748e-17 
  9111.6855    2.6889e-17 
  9112.8867   3.12242e-17 
  9114.0869    3.0238e-17 
  9115.2881   2.97318e-17 
  9116.4893   2.64532e-17 
  9117.6895   3.00776e-17 
  9118.8906   2.96841e-17 
  9120.0908   3.10544e-17 
   9121.291   3.02164e-17 
  9122.4922   3.07384e-17 
  9123.6934   2.89521e-17 
  9124.8936   2.86667e-17 
  9126.0938   2.98812e-17 
  9127.2949   2.76093e-17 
  9128.4951   2.75324e-17 
  9129.6963   2.69102e-17 
  9130.8965   2.83065e-17 
  9132.0977   3.21047e-17 
  9133.2979   2.99907e-17 
   9134.498   2.69811e-17 
  9135.6992   3.06465e-17 
  9136.8994   2.77766e-17 
  9138.0996   2.75895e-17 
  9139.3008   2.76522e-17 
   9140.501   3.03576e-17 
  9141.7012   3.11135e-17 
  9142.9023   3.11892e-17 
  9144.1025   2.89742e-17 
  9145.3027   2.90215e-17 
  9146.5039   2.62288e-17 
  9147.7041   3.04076e-17 
  9148.9043   3.00212e-17 
  9150.1045   2.77076e-17 
  9151.3057    3.0725e-17 
  9152.5059   3.12969e-17 
  9153.7061   3.07753e-17 
  9154.9062   2.95337e-17 
  9156.1064   2.84634e-17 
  9157.3076   3.34458e-17 
  9158.5078   2.82584e-17 
   9159.708   2.84084e-17 
  9160.9082   2.91287e-17 
  9162.1084   2.92046e-17 
  9163.3086   3.39737e-17 
  9164.5088   2.98649e-17 
    9165.71   2.91098e-17 
  9166.9102   2.79033e-17 
  9168.1104    2.7856e-17 
  9169.3105   2.65269e-17 
  9170.5107   2.95929e-17 
  9171.7109   2.99522e-17 
  9172.9111    2.8317e-17 
  9174.1113   2.89421e-17 
  9175.3115   3.11465e-17 
  9176.5117   2.89775e-17 
  9177.7119   2.81818e-17 
  9178.9121   2.66927e-17 
  9180.1123   3.00634e-17 
  9181.3125   3.04867e-17 
  9182.5127   2.85184e-17 
  9183.7129    2.8635e-17 
  9184.9131   3.26807e-17 
  9186.1133   2.98858e-17 
  9187.3135   2.98778e-17 
  9188.5137   3.05203e-17 
  9189.7129   3.01728e-17 
  9190.9131   2.88973e-17 
  9192.1133   2.81055e-17 
  9193.3135   2.72637e-17 
  9194.5137   2.49556e-17 
  9195.7139   2.95472e-17 
  9196.9141   2.99812e-17 
  9198.1133   2.94806e-17 
  9199.3135   3.26396e-17 
  9200.5137   3.00764e-17 
  9201.7139   3.00432e-17 
  9202.9131   3.10688e-17 
  9204.1133    2.9341e-17 
  9205.3135   3.06521e-17 
  9206.5137   3.02268e-17 
  9207.7129   2.76903e-17 
  9208.9131   3.22564e-17 
  9210.1133   3.30596e-17 
  9211.3135   2.73685e-17 
  9212.5127   3.12579e-17 
  9213.7129   3.13015e-17 
  9214.9121   3.07142e-17 
  9216.1123    2.9898e-17 
  9217.3125   2.58139e-17 
  9218.5117   2.79472e-17 
  9219.7119    2.5432e-17 
  9220.9111   3.07778e-17 
  9222.1113   3.30719e-17 
  9223.3115   2.96556e-17 
  9224.5107   2.76224e-17 
  9225.7109   2.88667e-17 
  9226.9102   2.89283e-17 
  9228.1104   2.80836e-17 
  9229.3096   3.23313e-17 
  9230.5098   3.08688e-17 
   9231.709    3.0823e-17 
  9232.9092   2.75395e-17 
  9234.1084   2.95277e-17 
  9235.3086   2.82567e-17 
  9236.5078   2.87402e-17 
   9237.708   2.68665e-17 
  9238.9072   2.73577e-17 
  9240.1064   2.46371e-17 
  9241.3066   2.82453e-17 
  9242.5059   2.84036e-17 
  9243.7051   2.79247e-17 
  9244.9053   2.84467e-17 
  9246.1045    2.5385e-17 
  9247.3047   2.85155e-17 
  9248.5039   2.55152e-17 
  9249.7031    2.6905e-17 
  9250.9023   2.63319e-17 
  9252.1025   2.89417e-17 
  9253.3018   2.86207e-17 
   9254.501   2.50792e-17 
  9255.7002   2.95381e-17 
  9256.9004   2.84817e-17 
  9258.0996   2.78099e-17 
  9259.2988   2.94483e-17 
   9260.498   2.65811e-17 
  9261.6973   2.74495e-17 
  9262.8975   2.78547e-17 
  9264.0967   2.89933e-17 
  9265.2959   2.81922e-17 
  9266.4951   2.74397e-17 
  9267.6943   3.05376e-17 
  9268.8936   2.52879e-17 
  9270.0928   2.70269e-17 
   9271.293   2.89671e-17 
  9272.4922   2.94162e-17 
  9273.6914   2.95724e-17 
  9274.8906    2.9437e-17 
  9276.0898   2.79751e-17 
  9277.2891    2.9407e-17 
  9278.4883   2.60943e-17 
  9279.6875   2.88906e-17 
  9280.8867   2.59803e-17 
  9282.0859   2.58782e-17 
  9283.2852   2.99487e-17 
  9284.4844   2.95243e-17 
  9285.6826    2.6364e-17 
  9286.8818   2.69631e-17 
  9288.0811   2.94443e-17 
  9289.2803   2.67542e-17 
  9290.4795   2.78001e-17 
  9291.6787   2.61874e-17 
  9292.8779   2.66223e-17 
  9294.0771   2.85636e-17 
  9295.2754   3.06215e-17 
  9296.4746   2.74485e-17 
  9297.6738   2.77849e-17 
   9298.873   2.62136e-17 
  9300.0723   2.36183e-17 
  9301.2705   2.35722e-17 
  9302.4697   2.61197e-17 
  9303.6689   2.59757e-17 
  9304.8682   3.39585e-17 
  9306.0664   3.24178e-17 
  9307.2656   2.31294e-17 
  9308.4648   1.62612e-17 
  9309.6631   2.02582e-17 
  9310.8623   2.07521e-17 
  9312.0615   2.38022e-17 
  9313.2598   2.56616e-17 
   9314.459   2.36156e-17 
  9315.6582    2.7216e-17 
  9316.8564   2.21594e-17 
  9318.0557   2.72916e-17 
  9319.2539   2.25873e-17 
  9320.4531    2.3722e-17 
  9321.6514   3.04226e-17 
  9322.8506    3.6989e-17 
  9324.0488   2.44501e-17 
   9325.248   3.27971e-17 
  9326.4463   1.50354e-17 
  9327.6455   1.93197e-17 
  9328.8438   2.14826e-17 
   9330.043   2.52027e-17 
  9331.2412   2.67481e-17 
  9332.4404   2.82063e-17 
  9333.6387   3.00091e-17 
  9334.8369    3.3201e-17 
  9336.0361   3.31067e-17 
  9337.2344   2.78072e-17 
  9338.4336   2.37299e-17 
  9339.6318   3.17891e-17 
  9340.8301   2.64549e-17 
  9342.0293   2.02901e-17 
  9343.2275   2.97874e-17 
  9344.4258   2.45103e-17 
   9345.624   2.51435e-17 
  9346.8232   2.70719e-17 
  9348.0215   2.74998e-17 
  9349.2197   2.52552e-17 
   9350.418    2.9445e-17 
  9351.6172   2.97402e-17 
  9352.8154   2.85782e-17 
  9354.0137   3.23807e-17 
  9355.2119   2.57601e-17 
  9356.4102   2.43092e-17 
  9357.6084   2.74362e-17 
  9358.8076   2.53614e-17 
  9360.0059   2.76389e-17 
  9361.2041   2.88598e-17 
  9362.4023   2.60753e-17 
  9363.6006   2.51077e-17 
  9364.7988   2.77668e-17 
  9365.9971   2.62388e-17 
  9367.1953   2.77953e-17 
  9368.3936   2.57306e-17 
  9369.5918     2.128e-17 
    9370.79   2.53329e-17 
  9371.9883   4.61518e-18 
  9373.1865   2.95699e-17 
  9374.3848   2.32552e-17 
   9375.583   1.22971e-17 
  9376.7812   2.93752e-17 
  9377.9795    2.7591e-17 
  9379.1768    2.1232e-17 
   9380.375   3.60141e-18 
  9381.5732   2.54839e-17 
  9382.7715   2.44419e-17 
  9383.9697   2.68165e-17 
   9385.168   2.25167e-17 
  9386.3652     2.451e-17 
  9387.5635   2.58974e-17 
  9388.7617   2.61172e-17 
    9389.96   2.39026e-17 
  9391.1582   2.33895e-17 
  9392.3555   2.43234e-17 
  9393.5537   2.65892e-17 
   9394.752   2.82607e-17 
  9395.9492   2.40982e-17 
  9397.1475   2.37799e-17 
  9398.3457   2.74802e-17 
   9399.543   2.73777e-17 
  9400.7412    2.1206e-17 
  9401.9395    1.8081e-17 
  9403.1367   2.68106e-17 
   9404.335   2.79485e-17 
  9405.5322   2.72156e-17 
  9406.7305   2.14314e-17 
  9407.9277   2.18241e-17 
   9409.126   2.39062e-17 
  9410.3242   2.21255e-17 
  9411.5215   2.23186e-17 
  9412.7197   2.48067e-17 
   9413.917   2.63719e-17 
  9415.1143   2.55077e-17 
  9416.3125   2.34237e-17 
  9417.5098   3.24182e-17 
   9418.708   2.35328e-17 
  9419.9053   2.73452e-17 
  9421.1025   3.01336e-17 
  9422.3008   2.76637e-17 
   9423.498   1.93831e-17 
  9424.6963   1.61944e-17 
  9425.8936   2.33822e-17 
  9427.0908   2.80651e-17 
  9428.2891   2.34579e-17 
  9429.4863   2.37478e-17 
  9430.6836    2.5346e-17 
  9431.8809   2.41495e-17 
  9433.0791   2.25102e-17 
  9434.2764   2.50152e-17 
  9435.4736   2.59014e-17 
  9436.6709   7.19842e-17 
  9437.8682   1.08737e-16 
  9439.0654   8.18635e-17 
  9440.2637   1.06715e-16 
  9441.4609   7.09144e-17 
  9442.6582   9.14535e-17 
  9443.8555   7.68031e-17 
  9445.0527   7.39953e-17 
    9446.25   7.13768e-17 
  9447.4473   6.63644e-17 
  9448.6445   3.31369e-17 
  9449.8418   2.69627e-17 
  9451.0391   2.31383e-17 
  9452.2363   2.42784e-17 
  9453.4336   2.23201e-17 
  9454.6309   1.92236e-17 
  9455.8281    2.7356e-17 
  9457.0254   3.09377e-17 
  9458.2227   1.63119e-17 
  9459.4199   1.78319e-17 
  9460.6172   1.59387e-17 
  9461.8145   2.46521e-17 
  9463.0117      1.27e-17 
   9464.209   1.45502e-17 
  9465.4053   2.23226e-17 
  9466.6025   1.89781e-17 
  9467.7998   2.09019e-17 
  9468.9971   2.19805e-17 
  9470.1934   1.69645e-17 
  9471.3906   2.25459e-17 
  9472.5879   1.66126e-17 
  9473.7852   1.49686e-17 
  9474.9814   3.30477e-17 
  9476.1787   2.71044e-17 
   9477.376   2.72833e-17 
  9478.5723   2.01955e-17 
  9479.7695  -3.04509e-20 
  9480.9668  -4.22185e-18 
  9482.1631   1.60921e-17 
  9483.3604   1.86768e-17 
  9484.5576   1.98334e-17 
  9485.7539   1.77607e-17 
  9486.9512   1.93779e-17 
  9488.1475   1.92485e-17 
  9489.3447   1.61956e-17 
   9490.541   2.29379e-17 
  9491.7383   2.06808e-17 
  9492.9346   1.93685e-17 
  9494.1318    2.2112e-17 
  9495.3281   2.01617e-17 
  9496.5254    1.8644e-17 
  9497.7217   1.95516e-17 
   9498.918   2.15806e-17 
  9500.1152   2.76162e-17 
  9501.3115    1.9602e-17 
  9502.5078   2.52725e-17 
  9503.7051   2.38476e-17 
  9504.9014   1.52767e-17 
  9506.0986   2.02269e-17 
  9507.2949   1.63257e-17 
  9508.4912   1.40312e-17 
  9509.6875    1.5789e-17 
  9510.8848   1.63088e-17 
  9512.0811   2.00903e-17 
  9513.2773   1.81663e-17 
  9514.4736   1.80515e-17 
  9515.6699   1.20073e-17 
  9516.8672   2.43644e-17 
  9518.0635   2.23134e-17 
  9519.2598   1.18934e-17 
  9520.4561   1.85924e-17 
  9521.6523   1.23235e-18 
  9522.8486   1.28485e-17 
  9524.0449   1.11759e-17 
  9525.2412   1.37323e-17 
  9526.4375   1.54499e-17 
  9527.6338   1.45914e-17 
  9528.8301    1.0151e-17 
  9530.0264   1.61622e-17 
  9531.2227   1.16958e-17 
  9532.4189   1.51586e-17 
  9533.6152   1.29123e-17 
  9534.8115   1.37173e-17 
  9536.0078   1.22592e-17 
  9537.2041   1.76663e-17 
  9538.4004   1.80096e-17 
  9539.5967   1.30842e-17 
   9540.793   1.41036e-17 
  9541.9883   1.75376e-17 
  9543.1846   1.61257e-17 
  9544.3809   1.40163e-17 
  9545.5771   1.41151e-17 
  9546.7734   1.54363e-17 
  9547.9688   1.17087e-17 
   9549.165   1.50173e-17 
  9550.3613   1.91492e-17 
  9551.5566   1.47738e-17 
  9552.7529   1.56835e-17 
  9553.9492   2.29063e-17 
  9555.1445   1.64276e-17 
  9556.3408   1.46302e-17 
  9557.5371   1.61965e-17 
  9558.7324   1.43891e-17 
  9559.9287   1.55628e-17 
   9561.125    1.3473e-17 
  9562.3203   1.11848e-17 
  9563.5166   8.29175e-18 
  9564.7119   1.88946e-17 
  9565.9082   1.75188e-17 
  9567.1035   2.56201e-17 
  9568.2998   1.04859e-17 
  9569.4951   9.81054e-18 
  9570.6914   1.21922e-17 
  9571.8867   1.05464e-17 
   9573.082   1.38376e-17 
  9574.2783   1.43206e-17 
  9575.4736   1.26006e-17 
  9576.6699   1.49691e-17 
  9577.8652   1.67986e-17 
  9579.0605   1.53885e-17 
  9580.2568    1.3771e-17 
  9581.4521   1.71514e-17 
  9582.6475   1.38681e-17 
  9583.8428   1.44495e-17 
  9585.0391   1.38023e-17 
  9586.2344   1.38895e-17 
  9587.4297   1.28836e-17 
   9588.625   1.56747e-17 
  9589.8203   1.24368e-17 
  9591.0166   1.61259e-17 
  9592.2119   1.74679e-17 
  9593.4072   1.44682e-17 
  9594.6025   1.60406e-17 
  9595.7979   1.55135e-17 
  9596.9932   1.27524e-17 
  9598.1885   1.86594e-17 
  9599.3838   1.70035e-17 
  9600.5791   1.55035e-17 
  9601.7744   1.54446e-17 
  9602.9697   1.61591e-17 
   9604.165   1.68707e-17 
  9605.3604   1.40105e-17 
  9606.5557   1.85137e-17 
   9607.751   1.61857e-17 
  9608.9463   1.44824e-17 
  9610.1416   1.69482e-17 
  9611.3369   1.75751e-17 
  9612.5322   1.40899e-17 
  9613.7275   1.65405e-17 
  9614.9219   1.53928e-17 
  9616.1172   1.81971e-17 
  9617.3125   2.03477e-17 
  9618.5078   1.30471e-17 
  9619.7031   1.68011e-17 
  9620.8975   1.66508e-17 
  9622.0928   1.42334e-17 
  9623.2881   1.64247e-17 
  9624.4824   1.79369e-17 
  9625.6777   1.73553e-17 
   9626.873   1.70459e-17 
  9628.0674   1.79891e-17 
  9629.2627   2.02626e-17 
   9630.458    1.6745e-17 
  9631.6523   1.84449e-17 
  9632.8477   1.78128e-17 
   9634.042   1.89075e-17 
  9635.2373   1.66991e-17 
  9636.4326   1.55105e-17 
   9637.627   1.65922e-17 
  9638.8223   1.55442e-17 
  9640.0166   1.60885e-17 
  9641.2109   1.88901e-17 
  9642.4062   1.79513e-17 
  9643.6006   1.91826e-17 
  9644.7959   1.91759e-17 
  9645.9902   1.68565e-17 
  9647.1855   1.70822e-17 
  9648.3799   1.92305e-17 
  9649.5742   1.84015e-17 
  9650.7695   1.56783e-17 
  9651.9639   2.05021e-17 
  9653.1582   2.03992e-17 
  9654.3525   1.66024e-17 
  9655.5479   1.93978e-17 
  9656.7422   1.88417e-17 
  9657.9365   1.77705e-17 
  9659.1309   1.95685e-17 
  9660.3262   1.82246e-17 
  9661.5205   2.12774e-17 
  9662.7148   1.59726e-17 
  9663.9092   1.81588e-17 
  9665.1035   1.65613e-17 
  9666.2979   2.05642e-17 
  9667.4922    2.0278e-17 
  9668.6865   1.54223e-17 
  9669.8809   1.65245e-17 
  9671.0752   2.28619e-17 
  9672.2695    1.4675e-17 
  9673.4639   2.31566e-17 
  9674.6592   2.15416e-17 
  9675.8525   1.90423e-17 
  9677.0469   2.09966e-17 
  9678.2412   2.33579e-17 
  9679.4355   2.08983e-17 
  9680.6299   2.76458e-17 
  9681.8242   1.51587e-17 
  9683.0186   2.63061e-17 
  9684.2129   1.96737e-17 
  9685.4072   2.01496e-17 
  9686.6006   2.01928e-17 
  9687.7949   1.78488e-17 
  9688.9893    2.1948e-17 
  9690.1836   2.31946e-17 
   9691.377   2.27781e-17 
  9692.5713   1.81299e-17 
  9693.7656   1.99003e-17 
    9694.96   2.00474e-17 
  9696.1533    2.0495e-17 
  9697.3477   2.22953e-17 
   9698.541   2.42311e-17 
  9699.7354   2.34349e-17 
  9700.9297   1.81889e-17 
   9702.123   1.45099e-17 
  9703.3174   1.89631e-17 
  9704.5107   1.86792e-17 
  9705.7051   2.35228e-17 
  9706.8984    2.4243e-17 
  9708.0928   2.42403e-17 
  9709.2861   2.57764e-17 
  9710.4805   2.00819e-17 
  9711.6738   2.35779e-17 
  9712.8682   2.26213e-17 
  9714.0615   1.84592e-17 
  9715.2559   2.48025e-17 
  9716.4492   1.56771e-17 
  9717.6426   3.12937e-17 
  9718.8369   2.09898e-17 
  9720.0303   2.65707e-17 
  9721.2236   2.47554e-17 
   9722.418   1.23346e-17 
  9723.6113   2.10171e-17 
  9724.8047   2.07438e-17 
   9725.998   2.28498e-17 
  9727.1924   2.35514e-17 
  9728.3857   2.30383e-17 
  9729.5791   2.53398e-17 
  9730.7725   2.33441e-17 
  9731.9658   2.41236e-17 
  9733.1592   2.26744e-17 
  9734.3525   2.32241e-17 
  9735.5469   2.08792e-17 
  9736.7402   2.49825e-17 
  9737.9336   1.84837e-17 
   9739.127   1.82771e-17 
  9740.3203   2.25052e-17 
  9741.5137   2.14668e-17 
   9742.707   2.86919e-17 
  9743.9004   2.40403e-17 
  9745.0938   2.57932e-17 
  9746.2871   2.35945e-17 
  9747.4805   2.25588e-17 
  9748.6729   2.16035e-17 
  9749.8662   2.17587e-17 
  9751.0596   2.54947e-17 
  9752.2529   2.50992e-17 
  9753.4463   2.42871e-17 
  9754.6396   2.16345e-17 
   9755.832   2.11456e-17 
  9757.0254    2.2468e-17 
  9758.2188   1.97734e-17 
  9759.4121   2.26656e-17 
  9760.6045   2.49583e-17 
  9761.7979   2.38699e-17 
  9762.9912   2.51187e-17 
  9764.1846   2.59295e-17 
   9765.377   2.41518e-17 
  9766.5703   2.57945e-17 
  9767.7627    2.5761e-17 
  9768.9561   2.16805e-17 
  9770.1494   2.46029e-17 
  9771.3418   2.55643e-17 
  9772.5352   2.66442e-17 
  9773.7275   2.68709e-17 
  9774.9209   2.50025e-17 
  9776.1133   2.62655e-17 
  9777.3066   2.74327e-17 
   9778.499    2.2826e-17 
  9779.6924   2.19778e-17 
  9780.8848   2.63474e-17 
  9782.0771   2.22271e-17 
  9783.2705   2.62063e-17 
  9784.4629   2.02655e-17 
  9785.6562   2.29879e-17 
  9786.8486   2.61776e-17 
   9788.041   3.26653e-17 
  9789.2334   2.17824e-17 
  9790.4268   2.42457e-17 
  9791.6191   1.86777e-17 
  9792.8115   1.80489e-17 
  9794.0049   2.42288e-17 
  9795.1973    1.7416e-17 
  9796.3896   2.22698e-17 
   9797.582   2.05996e-17 
  9798.7744   3.29463e-17 
  9799.9668   2.77004e-17 
  9801.1592   2.14828e-17 
  9802.3525   2.20253e-17 
  9803.5449   2.32525e-17 
  9804.7373   2.68569e-17 
  9805.9297   2.50841e-17 
  9807.1221   2.22753e-17 
  9808.3145   2.89777e-17 
  9809.5068   2.67809e-17 
  9810.6992   2.46779e-17 
  9811.8916   2.33985e-17 
   9813.084   3.05092e-17 
  9814.2764   3.03303e-17 
  9815.4678   2.56862e-17 
  9816.6602   2.40361e-17 
  9817.8525   2.32106e-17 
  9819.0449   2.65284e-17 
  9820.2373   2.35668e-17 
  9821.4297   2.82543e-17 
  9822.6221   2.63805e-17 
  9823.8135   2.52725e-17 
  9825.0059   2.76814e-17 
  9826.1982   2.50037e-17 
  9827.3896   2.81534e-17 
   9828.582   2.38647e-17 
  9829.7744   2.19813e-17 
  9830.9668   2.99809e-17 
  9832.1582   2.37787e-17 
  9833.3506   2.54324e-17 
   9834.543   2.18857e-17 
  9835.7344   2.66427e-17 
  9836.9268   2.56693e-17 
  9838.1182   2.55181e-17 
  9839.3105   2.65746e-17 
   9840.502   2.78595e-17 
  9841.6943   2.52995e-17 
  9842.8857   2.65136e-17 
  9844.0781    2.4254e-17 
  9845.2695   2.26511e-17 
  9846.4619   2.73862e-17 
  9847.6533   2.81874e-17 
  9848.8447   2.94187e-17 
  9850.0371   2.38316e-17 
  9851.2285   2.07773e-17 
  9852.4209   2.73575e-17 
  9853.6123   2.60638e-17 
  9854.8037    2.5993e-17 
  9855.9951    2.4414e-17 
  9857.1875   2.61857e-17 
  9858.3789   2.63865e-17 
  9859.5703   2.45123e-17 
  9860.7617   2.42607e-17 
  9861.9541    2.8072e-17 
  9863.1455   2.76606e-17 
  9864.3369    2.7661e-17 
  9865.5283   2.81991e-17 
  9866.7197   2.25515e-17 
  9867.9111   2.88615e-17 
  9869.1035   3.96525e-17 
  9870.2949   4.75538e-17 
  9871.4863   2.56293e-17 
  9872.6777   2.15168e-17 
  9873.8691   3.70075e-17 
  9875.0605    2.9642e-17 
   9876.252   1.80245e-17 
  9877.4434   2.65521e-17 
  9878.6348   2.28567e-17 
  9879.8262   2.53145e-17 
  9881.0176   3.00532e-17 
   9882.208   2.14687e-17 
  9883.3994   2.64894e-17 
  9884.5908   2.71479e-17 
  9885.7822   2.90861e-17 
  9886.9736   2.37222e-17 
   9888.165   2.20551e-17 
  9889.3555   2.32179e-17 
  9890.5469   2.38068e-17 
  9891.7383   2.58147e-17 
  9892.9297   3.68151e-17 
  9894.1201   3.08365e-17 
  9895.3115   1.51549e-17 
  9896.5029   3.00078e-17 
  9897.6934   2.56689e-17 
  9898.8848   2.38682e-17 
  9900.0762   2.16797e-17 
  9901.2666   2.47177e-17 
   9902.458   2.44813e-17 
  9903.6494   2.73039e-17 
  9904.8398   2.60105e-17 
  9906.0312   2.65557e-17 
  9907.2217   2.41205e-17 
  9908.4131   2.37299e-17 
  9909.6035   2.14197e-17 
  9910.7949   2.99864e-17 
  9911.9854   4.06188e-17 
  9913.1768   1.38626e-17 
  9914.3672   2.66548e-17 
  9915.5576   3.30723e-17 
   9916.749   2.64778e-17 
  9917.9395   2.12774e-17 
  9919.1299   1.70114e-17 
  9920.3213   2.67009e-17 
  9921.5117    1.9833e-17 
  9922.7021    2.7943e-17 
  9923.8936   2.73473e-17 
   9925.084    2.8212e-17 
  9926.2744   2.45836e-17 
  9927.4648   2.50304e-17 
  9928.6562   2.41317e-17 
  9929.8467    2.4423e-17 
  9931.0371   2.06248e-17 
  9932.2275   2.76929e-17 
   9933.418   1.94549e-17 
  9934.6084   2.68059e-17 
  9935.7988   2.91223e-17 
  9936.9893   2.58507e-17 
  9938.1797   1.70557e-17 
  9939.3701   2.30987e-17 
  9940.5615   3.23838e-17 
   9941.752    2.1491e-17 
  9942.9424   3.19545e-17 
  9944.1318   2.41509e-17 
  9945.3223   2.07735e-17 
  9946.5127   4.04422e-17 
  9947.7031   1.99599e-17 
  9948.8936   3.33194e-17 
   9950.084    2.2781e-17 
  9951.2744   1.84062e-17 
  9952.4648   2.23392e-17 
  9953.6553   3.33414e-17 
  9954.8447   3.25984e-17 
  9956.0352   1.86121e-17 
  9957.2256   3.46882e-17 
   9958.416   3.02672e-17 
  9959.6055   2.57053e-17 
  9960.7959   2.21778e-17 
  9961.9863   1.90567e-17 
  9963.1768   1.31658e-17 
  9964.3662   2.69794e-17 
  9965.5566   1.59392e-17 
  9966.7461   1.79311e-17 
  9967.9365   2.30319e-17 
   9969.127   3.28932e-17 
  9970.3164    2.1832e-17 
  9971.5068   2.63805e-17 
  9972.6963   3.13658e-17 
  9973.8867    1.9098e-17 
  9975.0762   1.76906e-17 
  9976.2666   2.89838e-17 
  9977.4561   1.87722e-17 
  9978.6465   2.19824e-17 
  9979.8359   2.13339e-17 
  9981.0264   1.74787e-17 
  9982.2158   2.86173e-17 
  9983.4053     2.464e-17 
  9984.5957   2.41847e-17 
  9985.7852   2.51616e-17 
  9986.9746   2.54066e-17 
   9988.165   2.47342e-17 
  9989.3545   2.64249e-17 
  9990.5439   2.59037e-17 
  9991.7344   2.26329e-17 
  9992.9238   2.95629e-17 
  9994.1133   2.18061e-17 
  9995.3027   2.16299e-17 
  9996.4922   2.69981e-17 
  9997.6826   2.32673e-17 
  9998.8721   2.63045e-17 
  10000.061   2.39384e-17 
  10001.251   1.46391e-17 
  10002.441   1.77028e-17 
   10003.63   2.00236e-17 
   10004.82   2.40513e-17 
  10006.009   2.52158e-17 
  10007.199   2.41938e-17 
  10008.388   3.16333e-17 
  10009.577   3.93506e-17 
  10010.767   4.03128e-17 
  10011.956   2.73916e-17 
  10013.146   2.07596e-17 
  10014.335   2.81501e-17 
  10015.524   1.69034e-17 
  10016.714   1.43828e-17 
  10017.903   1.10613e-17 
  10019.092   2.28035e-17 
  10020.282   1.38235e-17 
  10021.471   2.86986e-17 
   10022.66   3.19174e-17 
  10023.849   2.97312e-17 
  10025.039   1.41105e-17 
  10026.228   1.82211e-17 
  10027.417   1.61258e-17 
  10028.606   1.65846e-17 
  10029.795   9.82508e-18 
  10030.985   2.37722e-17 
  10032.174   1.96018e-17 
  10033.363   2.73958e-17 
  10034.552   2.26634e-17 
  10035.741   2.06846e-17 
   10036.93   2.49148e-17 
  10038.119    2.0089e-17 
  10039.308    2.2705e-17 
  10040.497   2.81309e-17 
  10041.686    2.7016e-17 
  10042.875   3.32158e-17 
  10044.064    1.9302e-17 
  10045.253   2.37216e-17 
  10046.442   3.01786e-17 
  10047.631   1.68927e-17 
   10048.82   2.16576e-17 
  10050.009   2.32966e-17 
  10051.197   2.25486e-17 
  10052.386   1.85674e-17 
  10053.575   2.43459e-17 
  10054.764   2.23655e-17 
  10055.953   2.10718e-17 
  10057.141    1.5362e-17 
   10058.33   2.00601e-17 
  10059.519   2.31008e-17 
  10060.708   2.23436e-17 
  10061.896   2.80039e-17 
  10063.085   1.81304e-17 
  10064.274   2.70437e-17 
  10065.462    1.7226e-17 
  10066.651   1.72347e-17 
   10067.84   1.88518e-17 
  10069.028   1.54647e-17 
  10070.217   2.02148e-17 
  10071.405   2.07444e-17 
  10072.594   2.09162e-17 
  10073.782   2.58001e-17 
  10074.971   2.29252e-17 
  10076.159   2.29802e-17 
  10077.348   1.70086e-17 
  10078.536   1.73751e-17 
  10079.725   3.19337e-17 
  10080.913   3.82164e-17 
  10082.102   1.78751e-17 
   10083.29   1.50565e-17 
  10084.478   2.38811e-17 
  10085.667   3.66568e-17 
  10086.855   1.30612e-17 
  10088.044   2.57168e-17 
  10089.232   2.19716e-17 
   10090.42   1.88896e-17 
  10091.608   1.72619e-17 
  10092.797   2.80747e-17 
  10093.985    2.1341e-17 
  10095.173   1.89957e-17 
  10096.361   2.10493e-17 
   10097.55   2.04171e-17 
  10098.738   2.70492e-17 
  10099.926   2.22197e-17 
  10101.114   2.29935e-17 
  10102.302   2.44078e-17 
   10103.49   1.19552e-17 
  10104.679   1.99255e-17 
  10105.867    3.0068e-17 
  10107.055   3.22062e-17 
  10108.243   2.15285e-17 
  10109.431   2.01274e-17 
  10110.619   1.92652e-17 
  10111.807   2.18195e-17 
  10112.995   2.40674e-17 
  10114.183   1.70388e-17 
  10115.371   2.04884e-17 
  10116.559   1.29942e-17 
  10117.747   2.01569e-17 
  10118.935   1.70193e-17 
  10120.122   1.92747e-17 
   10121.31   1.94881e-17 
  10122.498   1.90372e-17 
  10123.686   1.76935e-17 
  10124.874   2.08092e-17 
  10126.062   1.37012e-17 
  10127.249   1.50463e-17 
  10128.437   2.08602e-17 
  10129.625   1.56412e-17 
  10130.813   1.91569e-17 
  10132.001   2.23057e-17 
  10133.188   1.59303e-17 
  10134.376   1.64201e-17 
  10135.564   1.81611e-17 
  10136.751   2.16837e-17 
  10137.939   1.72158e-17 
  10139.127   1.75226e-17 
  10140.314   2.16641e-17 
  10141.502    2.3781e-17 
  10142.689   2.15539e-17 
  10143.877   1.91634e-17 
  10145.065   2.30327e-17 
  10146.252    3.1877e-17 
   10147.44   1.88359e-17 
  10148.627   1.24039e-17 
  10149.815   1.93503e-17 
  10151.002   3.83014e-17 
   10152.19   2.16697e-17 
  10153.377   2.56149e-17 
  10154.565   1.81259e-17 
  10155.752   3.39764e-17 
  10156.939   1.07112e-17 
  10158.127   1.36352e-17 
  10159.314   1.69926e-17 
  10160.501   1.41277e-17 
  10161.689   1.87429e-17 
  10162.876   2.49717e-17 
  10164.063   2.50702e-17 
  10165.251   1.49228e-17 
  10166.438   2.76354e-17 
  10167.625   2.04003e-17 
  10168.813    3.5885e-17 
    10170.0   1.39527e-17 
  10171.187    2.1566e-17 
  10172.374   2.97854e-17 
  10173.561   3.33848e-17 
  10174.749   2.52483e-17 
  10175.936   6.91074e-18 
  10177.123   2.31271e-17 
   10178.31   1.66946e-17 
  10179.497   1.73705e-17 
  10180.684   2.18826e-17 
  10181.871   2.16503e-17 
  10183.058   2.94829e-17 
  10184.245    2.2655e-17 
  10185.432    1.7988e-17 
  10186.619   1.74546e-17 
  10187.806  -4.17762e-18 
  10188.993   2.64536e-17 
   10190.18   1.31281e-17 
  10191.367   1.40032e-17 
  10192.554   1.65355e-17 
  10193.741   1.42043e-17 
  10194.928    1.5349e-17 
  10196.115   9.47997e-18 
  10197.302    1.4862e-17 
  10198.489   9.39658e-18 
  10199.676    1.6154e-17 
  10200.863   2.32679e-17 
  10202.049   2.29214e-17 
  10203.236   2.82549e-17 
  10204.423   7.26161e-18 
   10205.61   2.54316e-17 
  10206.797   2.81745e-17 
  10207.983   2.56995e-17 
   10209.17   7.99185e-18 
  10210.357    4.6632e-17 
  10211.543   2.20728e-17 
   10212.73   7.04692e-18 
  10213.917   2.23998e-17 
  10215.104   1.62266e-17 
   10216.29   1.40444e-18 
  10217.477   2.24952e-17 
  10218.663    1.8449e-17 
   10219.85   2.62513e-17 
  10221.037   1.91233e-17 
  10222.223   1.26478e-17 
   10223.41   5.30403e-18 
  10224.596     7.715e-18 
  10225.783   2.70413e-17 
  10226.969   1.36037e-17 
  10228.156   2.55476e-17 
  10229.342   1.76454e-17 
  10230.529   2.37791e-18 
  10231.715   3.11102e-17 
  10232.902   2.40038e-17 
  10234.088   1.57021e-17 
  10235.275   1.94666e-17 
  10236.461   1.34413e-17 
  10237.647   1.16173e-17 
  10238.834   1.79509e-17 
   10240.02   2.82711e-17 
  10241.207   2.35029e-17 
  10242.393    2.6713e-17 
  10243.579   2.10735e-17 
  10244.765   1.31103e-17 
  10245.952   2.48336e-17 
  10247.138    7.1301e-18 
  10248.324   2.96068e-17 
  10249.511   2.42049e-17 
  10250.697   1.40481e-17 
  10251.883   2.17595e-17 
  10253.069    1.3415e-17 
  10254.255   1.78043e-17 
  10255.442   1.13831e-17 
  10256.628   1.61996e-17 
  10257.814   2.22976e-17 
    10259.0   3.14289e-17 
  10260.186    1.7552e-17 
  10261.372   1.66978e-17 
  10262.558   2.88098e-17 
  10263.744   2.70363e-17 
  10264.931   2.56476e-17 
  10266.117   1.05844e-17 
  10267.303   1.86435e-17 
  10268.489   2.37684e-17 
  10269.675   1.31156e-17 
  10270.861   1.80071e-17 
  10272.047   1.40949e-17 
  10273.233   2.23417e-17 
  10274.419   1.87414e-17 
  10275.605   1.83334e-17 
  10276.791   2.95091e-17 
  10277.976   1.48632e-17 
  10279.162   2.28467e-17 
  10280.348   1.92897e-17 
  10281.534   2.82345e-17 
   10282.72   6.30995e-17 
  10283.906   2.67488e-17 
  10285.092   4.79067e-17 
  10286.278  -7.47327e-18 
  10287.463   3.27123e-17 
  10288.649   7.79464e-18 
  10289.835   4.25447e-17 
  10291.021  -1.86271e-17 
  10292.207  -1.49293e-17 
  10293.392   2.50485e-17 
  10294.578   1.48941e-17 
  10295.764   1.35605e-17 
  10296.949    3.5345e-17 
  10298.135   -1.0603e-17 
  10299.321   5.72057e-18 
  10300.507   2.18834e-17 
  10301.692   1.73934e-17 
  10302.878   2.45053e-17 
  10304.063   3.54787e-17 
  10305.249   1.72431e-17 
  10306.435   2.26125e-17 
