# STATUS =
# OBJECT = iPTF13bjz
# TELESCOPE = Keck1
# INSTRUMENT = LRIS
# DATE-OBS = 2013-06-09 00:00:00.00
# MJD = 56452.0
# EXPTIME = --
# AIRMASS = --
# SLIT = --
# DISPERSER = --
# SOURCE = --
# FILTER =
# RESOLUTION =
# FLUX_STANDARD =
# EXTINCTION_CORRECTED = --
# PHOTOMETRY_CALIBRATED =
# TELLURIC_CORRECTED =
# FLUX_UNITS = erg cm(-2) sec(-1) Ang(-1)
# WAVE_UNITS = Angstrom
# QUALITY = Low
# MIN_WAVE = 3002.512
# MAX_WAVE = 10270.688
# COMMENT = Final reduction by R. Quimby
 Wavelength         Flux       Error 
   3004.445   9.4489e-16   7.565e-16 
   3006.379   1.2179e-16  6.2801e-16 
   3008.313   8.5762e-17  5.2733e-16 
   3010.248    3.402e-16  4.3325e-16 
   3012.183   7.4294e-17   3.625e-16 
   3014.119   7.2572e-17  3.0466e-16 
   3016.055  -1.1201e-16  2.5139e-16 
   3017.992  -9.2042e-17  2.2009e-16 
    3019.93   4.4173e-17  1.8767e-16 
   3021.868  -1.5313e-16  1.6554e-16 
   3023.807   2.0303e-17  1.5362e-16 
   3025.746  -2.7362e-16   1.417e-16 
   3027.686  -1.5827e-17  1.3202e-16 
   3029.626   2.7643e-17  1.2709e-16 
   3031.567   8.3464e-17  1.2101e-16 
   3033.509  -1.6249e-17  1.1436e-16 
   3035.451   1.2653e-16    1.08e-16 
   3037.393  -6.5549e-17   1.023e-16 
   3039.336  -3.3819e-17  9.5416e-17 
    3041.28     1.07e-16  8.9846e-17 
   3043.224   7.4533e-17  8.5309e-17 
   3045.166  -5.6941e-18  8.0956e-17 
   3047.111   2.4031e-18  7.5936e-17 
   3049.057  -3.3738e-17  7.0641e-17 
   3051.003   -7.621e-18  6.7458e-17 
    3052.95   4.1592e-17  6.3115e-17 
   3054.897   3.6121e-17  5.9935e-17 
   3056.846    5.077e-18  5.6133e-17 
   3058.795   8.2994e-17  5.2962e-17 
   3060.743   7.8763e-17  5.0965e-17 
   3062.693   6.7898e-17  4.7463e-17 
   3064.643   2.1969e-17   4.628e-17 
   3066.594   3.3913e-17  4.3708e-17 
   3068.542   3.1873e-17  4.1765e-17 
   3070.494   6.2494e-17  4.0326e-17 
   3072.447   9.5979e-17  3.8421e-17 
   3074.399    6.322e-17   3.634e-17 
   3076.353        4e-17  3.5186e-17 
   3078.308   4.9683e-17  3.4435e-17 
   3080.262   8.0441e-18  3.3049e-17 
   3082.217   8.7743e-17  3.2172e-17 
   3084.172   1.0717e-17  3.0899e-17 
   3086.128   8.2297e-17  2.9651e-17 
   3088.085   3.0841e-17  2.8219e-17 
   3090.042   4.0122e-17  2.6829e-17 
     3092.0   7.0372e-17  2.5919e-17 
   3093.958   4.1272e-17  2.4668e-17 
   3095.917   8.1163e-17  2.3878e-17 
   3097.876   4.1546e-17  2.3086e-17 
   3099.836    6.489e-17  2.2111e-17 
   3101.796   4.5946e-17  2.1211e-17 
   3103.758   3.7123e-17  2.0605e-17 
   3105.719   5.6224e-17  1.9847e-17 
   3107.681   4.3415e-17  1.9162e-17 
   3109.644   8.2108e-17  1.8609e-17 
   3111.607   6.0707e-17  1.7828e-17 
    3113.57   7.4459e-17  1.7368e-17 
   3115.535   6.3481e-17  1.6993e-17 
     3117.5   6.9412e-17  1.6491e-17 
   3119.464   5.8877e-17  1.5604e-17 
    3121.43   5.6267e-17  1.5063e-17 
   3123.396   5.6751e-17  1.4837e-17 
   3125.363   8.3012e-17  1.4681e-17 
   3127.331   7.4047e-17  1.4236e-17 
   3129.298   7.9808e-17  1.3861e-17 
   3131.266   5.9025e-17  1.3471e-17 
   3133.236   7.9913e-17   1.347e-17 
   3135.205   4.2925e-17  1.3024e-17 
   3137.175   4.7155e-17  1.2835e-17 
   3139.145   6.6797e-17  1.3162e-17 
   3141.116   9.6024e-17  1.3942e-17 
   3143.088   8.5767e-17   1.422e-17 
    3145.06   5.8013e-17  1.4211e-17 
   3147.032   6.6744e-17  1.3561e-17 
   3149.005   6.9952e-17  1.3116e-17 
   3150.979   6.7058e-17  1.2412e-17 
   3152.953   7.7088e-17  1.1982e-17 
   3154.928   6.0725e-17  1.1519e-17 
   3156.903   7.7807e-17   1.113e-17 
   3158.879   7.1472e-17  1.0571e-17 
   3160.855   7.0468e-17  1.0534e-17 
   3162.832    4.419e-17  1.0112e-17 
   3164.809   6.5618e-17  1.0174e-17 
   3166.787   7.4979e-17  9.8389e-18 
   3168.764   6.7873e-17  9.6015e-18 
   3170.743   5.9877e-17  9.2744e-18 
   3172.722   6.9763e-17  8.9914e-18 
   3174.703   5.6494e-17  8.7897e-18 
   3176.683   6.6706e-17  8.4209e-18 
   3178.664   5.6475e-17  8.1562e-18 
   3180.645   6.3808e-17  8.0228e-18 
   3182.627    7.566e-17   7.956e-18 
   3184.609   7.5108e-17  7.8427e-18 
   3186.592   7.2207e-17  7.8298e-18 
   3188.575   7.1833e-17  7.7745e-18 
   3190.559   7.0244e-17  7.5037e-18 
   3192.544   6.4522e-17  7.3375e-18 
   3194.529   6.4988e-17  7.3391e-18 
   3196.514   6.6806e-17  7.1672e-18 
     3198.5    6.601e-17   7.033e-18 
   3200.487   5.5646e-17  6.8564e-18 
   3202.473   6.4021e-17  6.8936e-18 
    3204.46   5.9022e-17  6.8893e-18 
   3206.449   7.6894e-17  7.0646e-18 
   3208.437   7.4773e-17  7.6054e-18 
   3210.426   8.2064e-17  8.1832e-18 
   3212.416   7.1554e-17  8.3263e-18 
   3214.406   8.3327e-17  8.0597e-18 
   3216.396   6.4413e-17  7.5367e-18 
   3218.387   7.5333e-17  7.2744e-18 
   3220.378   8.0883e-17  6.9825e-18 
    3222.37   6.4226e-17  6.7046e-18 
   3224.363   5.5921e-17  6.5026e-18 
   3226.355   7.0109e-17  6.4037e-18 
   3228.349   6.4083e-17  6.4433e-18 
   3230.343   6.7756e-17  6.2225e-18 
   3232.337   6.8408e-17  6.1516e-18 
   3234.332   6.7704e-17  6.0376e-18 
   3236.327    7.331e-17  5.9545e-18 
   3238.324   7.3192e-17  5.8695e-18 
    3240.32   6.9525e-17  5.6995e-18 
   3242.317   7.4907e-17  5.5868e-18 
   3244.314   6.6705e-17  5.4047e-18 
   3246.312   6.9599e-17  5.2744e-18 
    3248.31   7.8047e-17  5.1354e-18 
   3250.309   6.8264e-17   5.015e-18 
   3252.309   8.2883e-17   5.081e-18 
   3254.309   6.9284e-17  5.1391e-18 
   3256.309   7.5239e-17  5.3788e-18 
    3258.31   7.1197e-17   5.516e-18 
   3260.311   7.8654e-17  5.6192e-18 
   3262.313   7.6475e-17  5.6734e-18 
   3264.316   7.9333e-17  5.5366e-18 
   3266.318   8.0442e-17  5.4303e-18 
   3268.322   7.8411e-17  5.4127e-18 
   3270.325   7.7014e-17  5.2611e-18 
    3272.33   7.1829e-17  5.5858e-18 
   3288.381   6.1426e-17     4.9e-18 
   3290.389   6.6484e-17  4.7577e-18 
   3292.399   8.6453e-17  5.0574e-18 
   3294.409    8.859e-17  5.2687e-18 
   3296.419   7.2199e-17  5.2996e-18 
   3298.429   7.1811e-17  5.1633e-18 
    3300.44   8.0718e-17  4.9455e-18 
   3302.452   7.6756e-17  4.7624e-18 
   3304.464   6.1266e-17  4.5333e-18 
   3306.476   6.6906e-17  4.4452e-18 
   3308.489   7.7258e-17  4.3712e-18 
   3310.502   7.9699e-17  4.3547e-18 
   3312.516   8.4492e-17  4.4344e-18 
   3314.531   7.1797e-17  4.4805e-18 
   3316.545   8.3632e-17  4.5772e-18 
   3318.561   8.6265e-17  4.6554e-18 
   3320.577   8.2396e-17  4.5771e-18 
   3322.593   7.9101e-17  4.4183e-18 
    3324.61   8.6345e-17  4.2569e-18 
   3326.626   7.9124e-17  4.1113e-18 
   3328.645   9.5255e-17   4.019e-18 
   3330.663   7.6052e-17  3.8514e-18 
    3332.68   8.7552e-17  3.7842e-18 
     3334.7   8.3528e-17   3.642e-18 
   3336.719   7.7205e-17  3.5534e-18 
   3338.739   7.4768e-17  3.4928e-18 
    3340.76     7.68e-17   3.495e-18 
   3342.781   8.2884e-17  3.4663e-18 
   3344.802    8.384e-17  3.3993e-18 
   3346.824   7.5931e-17  3.3196e-18 
   3348.846   7.5012e-17  3.2821e-18 
   3350.873   7.8499e-17  3.2358e-18 
   3352.896   7.8201e-17  3.2156e-18 
    3354.92   7.7445e-17  3.2177e-18 
   3356.944   7.4087e-17  3.1395e-18 
   3358.969   7.7492e-17  3.1299e-18 
   3360.994   7.6464e-17  3.1019e-18 
    3363.02   7.6229e-17  3.1335e-18 
   3365.046   7.5408e-17  3.1631e-18 
   3367.072   6.9119e-17  3.4804e-18 
   3369.099   7.4899e-17  3.8673e-18 
   3371.126   7.9147e-17  4.1605e-18 
   3373.154   7.4542e-17  4.1052e-18 
   3375.183   7.2955e-17  3.9292e-18 
   3377.211   8.1373e-17  3.7742e-18 
   3379.241   7.4962e-17  3.6021e-18 
   3381.271   7.8422e-17   3.524e-18 
   3383.301   6.8247e-17   3.394e-18 
   3385.331   6.9023e-17  3.3205e-18 
   3387.362   7.1465e-17  3.2109e-18 
   3389.394   7.1057e-17  3.1407e-18 
   3391.426   6.7489e-17  3.0586e-18 
   3393.458   6.8001e-17  3.0809e-18 
   3395.491   7.3913e-17  3.0181e-18 
   3397.524   7.5521e-17  3.0027e-18 
   3399.559   7.1355e-17   2.916e-18 
   3401.592   7.5255e-17  2.8244e-18 
   3403.627   6.8904e-17  2.7989e-18 
   3405.662   7.7724e-17  2.7917e-18 
   3407.697   7.4299e-17   2.719e-18 
   3409.733   7.3324e-17  2.6717e-18 
    3411.77   6.9821e-17  2.6462e-18 
   3413.807   7.3211e-17  2.7014e-18 
   3415.844   7.8271e-17  2.7694e-18 
   3417.882   7.5386e-17  2.8275e-18 
    3419.92   6.6637e-17  2.8371e-18 
   3421.959    7.472e-17  2.8261e-18 
   3423.998   7.3783e-17  2.7931e-18 
   3426.037    7.722e-17  2.7977e-18 
   3428.078   6.8806e-17  2.7687e-18 
   3430.118   6.6733e-17  2.7242e-18 
   3432.159   7.2273e-17  2.6908e-18 
     3434.2   6.6998e-17  2.7407e-18 
   3436.242   6.9721e-17  2.7663e-18 
   3438.284   6.9455e-17  2.7685e-18 
   3440.327   6.5434e-17  2.6924e-18 
    3442.37   6.1108e-17  2.5762e-18 
   3444.414   6.7554e-17  2.5678e-18 
   3446.458   6.1583e-17  2.5123e-18 
   3448.502   7.2658e-17  2.6025e-18 
   3450.547   6.6333e-17  2.7007e-18 
   3452.592   6.6775e-17  2.8186e-18 
   3454.638   7.1034e-17  2.8859e-18 
   3456.684   6.5266e-17  2.7879e-18 
    3458.73   6.3212e-17  2.6783e-18 
   3460.777   6.6182e-17  2.5421e-18 
   3462.825   7.4867e-17  2.4719e-18 
   3464.873   6.5306e-17  2.4415e-18 
   3466.921   6.5919e-17  2.4195e-18 
   3468.969   7.1202e-17  2.3612e-18 
   3471.019   7.2573e-17  2.3211e-18 
   3473.068   7.1156e-17  2.3539e-18 
   3475.118   6.4636e-17  2.3427e-18 
   3477.169   6.8941e-17  2.4472e-18 
    3479.22   7.3748e-17   2.705e-18 
   3481.271   7.1231e-17  2.9168e-18 
   3483.323   6.9679e-17  2.9756e-18 
   3485.375   6.9076e-17  2.8994e-18 
   3487.428   7.8188e-17  2.8331e-18 
    3489.48   7.4759e-17  2.6983e-18 
   3491.534   7.4143e-17  2.6309e-18 
   3493.588   7.0763e-17  2.5475e-18 
   3495.643   6.7579e-17  2.4733e-18 
   3497.697   6.9226e-17  2.4192e-18 
   3499.752   6.4799e-17  2.3812e-18 
   3501.808   7.2108e-17   2.332e-18 
   3503.863    6.838e-17  2.3042e-18 
    3505.92   6.6198e-17  2.2372e-18 
   3507.977   7.1326e-17  2.2978e-18 
   3510.034   6.5767e-17  2.2838e-18 
   3512.092   6.2301e-17  2.3074e-18 
    3514.15   6.5989e-17  2.2642e-18 
   3516.208   6.3612e-17  2.2212e-18 
   3518.268   6.7848e-17  2.2201e-18 
   3520.327   6.8944e-17  2.2015e-18 
   3522.387   6.8375e-17  2.1601e-18 
   3524.446   6.2466e-17  2.1112e-18 
   3526.507   7.1766e-17  2.1117e-18 
   3528.568   6.6873e-17  2.0845e-18 
   3530.629   6.9826e-17  2.0978e-18 
   3532.691   7.3879e-17  2.1213e-18 
   3534.754   6.5929e-17  2.0846e-18 
   3536.816   7.5308e-17  2.1171e-18 
   3538.879   7.1672e-17  2.2249e-18 
   3540.943    7.384e-17  2.4371e-18 
   3543.006   7.1572e-17  2.6697e-18 
   3545.071   6.6537e-17  2.7719e-18 
   3547.136   7.2748e-17  2.7207e-18 
   3549.201   7.8259e-17  2.5722e-18 
   3551.266   6.2445e-17  2.5198e-18 
   3553.332   6.2575e-17  2.5329e-18 
   3557.465    5.895e-17  2.4904e-18 
   3559.532   7.2117e-17  2.4537e-18 
     3561.6   7.1839e-17  2.3921e-18 
   3563.668   5.9744e-17  2.3574e-18 
   3565.736   6.3067e-17  2.3126e-18 
   3567.805   7.1014e-17  2.2643e-18 
   3569.873     7.41e-17  2.1897e-18 
   3571.943   7.9966e-17  2.1895e-18 
   3574.014   7.0437e-17  2.0816e-18 
   3576.084   7.5248e-17  2.1099e-18 
   3578.154   7.4022e-17  2.0377e-18 
   3580.225   7.1857e-17  2.0103e-18 
   3582.297   7.2653e-17   1.966e-18 
   3584.369   7.9175e-17   1.923e-18 
   3586.441    7.425e-17  1.9079e-18 
   3588.514   7.1301e-17  1.8841e-18 
   3590.587   7.2697e-17  1.9001e-18 
   3592.661   7.4213e-17  1.9235e-18 
   3594.735   7.2243e-17  1.9347e-18 
   3596.809   7.2487e-17  1.9176e-18 
   3598.883   7.1687e-17  1.9134e-18 
   3600.959   7.1787e-17  1.9115e-18 
   3603.034   7.0958e-17  1.8725e-18 
    3605.11   7.3941e-17  1.8458e-18 
   3607.187   7.7439e-17  1.8523e-18 
   3609.264   7.3413e-17  1.8046e-18 
   3611.341   7.6081e-17  1.8244e-18 
   3613.418   7.6185e-17  1.8715e-18 
   3615.496   7.4633e-17  1.9833e-18 
   3617.574   7.6403e-17   2.079e-18 
   3619.652   7.4083e-17  2.1211e-18 
   3621.732    7.724e-17  2.1063e-18 
   3623.811   7.3322e-17  2.0817e-18 
   3625.891   7.2492e-17  2.0503e-18 
   3627.971    6.647e-17  2.0355e-18 
   3630.052   7.2426e-17  2.1107e-18 
   3632.133   7.2291e-17  2.1733e-18 
   3634.214   7.4398e-17  2.2126e-18 
   3636.295   7.4796e-17  2.2098e-18 
   3638.377   6.7796e-17  2.1673e-18 
    3640.46   7.3656e-17  2.1547e-18 
   3642.543   7.4921e-17  2.0835e-18 
   3644.627   7.2476e-17  2.0514e-18 
    3646.71   7.2329e-17  1.9939e-18 
   3648.794   7.4124e-17   1.963e-18 
   3650.879   6.8611e-17  1.9202e-18 
   3652.964    6.907e-17  1.9283e-18 
   3655.048   6.7186e-17  1.8941e-18 
   3657.134   7.3701e-17   1.945e-18 
   3659.219    7.295e-17  1.9392e-18 
   3661.306   6.7318e-17  1.9619e-18 
   3663.393   6.9762e-17  1.9536e-18 
   3665.479   6.9856e-17  1.9106e-18 
   3667.567   7.0702e-17  1.8814e-18 
   3669.655   6.5999e-17  1.8346e-18 
   3671.743   7.0433e-17   1.833e-18 
   3673.832    6.594e-17  1.8006e-18 
    3675.92   6.7407e-17   1.777e-18 
    3678.01   7.2174e-17   1.753e-18 
   3680.099   6.6788e-17  1.7098e-18 
   3682.189    7.025e-17  1.7179e-18 
    3684.28   7.0331e-17  1.6926e-18 
   3686.371   7.1948e-17  1.7127e-18 
   3688.462   7.5791e-17  1.7284e-18 
   3690.553   7.0927e-17  1.7073e-18 
   3692.645   6.6913e-17  1.7072e-18 
   3694.737   6.8677e-17  1.7319e-18 
    3696.83   7.0342e-17  1.7848e-18 
   3698.923    7.488e-17  1.8701e-18 
   3701.016   6.7769e-17  1.9254e-18 
    3703.11   7.2019e-17  1.9371e-18 
   3705.204   6.8997e-17  1.9058e-18 
   3707.299   6.9509e-17  1.8601e-18 
   3709.393   6.8035e-17  1.8109e-18 
   3711.488   7.0845e-17  1.8228e-18 
   3713.584   6.9344e-17  1.8247e-18 
    3715.68   6.9182e-17  1.7906e-18 
   3717.776   7.2439e-17  1.7413e-18 
   3719.872   6.8289e-17  1.6802e-18 
   3721.969   7.6296e-17  1.7072e-18 
   3724.066   7.6685e-17  1.6905e-18 
   3726.164   7.2302e-17  1.7066e-18 
   3728.262   7.1273e-17  1.7311e-18 
    3730.36   6.7836e-17  1.7718e-18 
   3732.459   7.2022e-17  1.8459e-18 
   3734.559   7.1766e-17  1.8835e-18 
   3736.658   7.1027e-17  1.9053e-18 
   3738.758   6.7625e-17  1.9345e-18 
   3740.858   7.5298e-17  1.9611e-18 
   3742.958   7.3717e-17  1.9107e-18 
   3745.059   6.4844e-17  1.8155e-18 
   3747.161   6.9184e-17  1.7663e-18 
   3749.262   6.8059e-17  1.7417e-18 
   3751.364    6.845e-17  1.7095e-18 
   3753.467   7.5934e-17  1.7592e-18 
   3755.569    7.596e-17  1.7251e-18 
   3757.672   7.1348e-17  1.6993e-18 
   3759.775   6.8664e-17   1.639e-18 
   3761.878   7.6069e-17  1.6226e-18 
   3763.983   7.0215e-17  1.6066e-18 
   3766.087   7.4784e-17  1.5913e-18 
   3768.192   7.5106e-17  1.5823e-18 
   3770.297   7.3445e-17  1.5902e-18 
   3772.402   7.7226e-17  1.6459e-18 
   3774.508   6.9237e-17  1.6491e-18 
   3776.614   7.0531e-17  1.6549e-18 
   3778.725   7.2448e-17  1.6391e-18 
   3780.831   7.5404e-17   1.614e-18 
   3782.938   7.4276e-17  1.6172e-18 
   3785.045   7.6404e-17  1.5931e-18 
   3787.153   7.2726e-17  1.5675e-18 
   3789.262   6.9494e-17  1.5719e-18 
    3791.37   7.5134e-17   1.609e-18 
   3793.479   7.2174e-17  1.6037e-18 
   3795.588    7.708e-17   1.595e-18 
   3797.698    7.675e-17  1.5571e-18 
   3799.807   7.7556e-17  1.5547e-18 
   3801.921   7.4385e-17  1.5222e-18 
   3804.032   7.7304e-17  1.5579e-18 
   3806.143   7.1369e-17  1.5156e-18 
   3808.254   7.5872e-17  1.5299e-18 
   3810.365   7.6223e-17  1.5537e-18 
   3812.478   7.3915e-17  1.5892e-18 
   3814.589   7.7154e-17  1.6181e-18 
   3816.702   7.2997e-17  1.6255e-18 
   3818.815   6.9897e-17  1.5858e-18 
   3820.928    7.382e-17  1.5894e-18 
   3823.041   7.3784e-17  1.5496e-18 
   3825.155   7.3528e-17  1.5468e-18 
    3827.27   7.4807e-17  1.6314e-18 
   3829.384   6.8998e-17  1.6982e-18 
   3831.498   7.3709e-17  1.7665e-18 
   3833.614   7.3656e-17  1.7256e-18 
   3835.729   7.4177e-17  1.6765e-18 
   3837.845   6.9916e-17  1.6147e-18 
   3839.961   6.8959e-17  1.5955e-18 
   3842.078   7.4192e-17  1.5964e-18 
   3844.194   6.9012e-17  1.5874e-18 
   3846.312    7.145e-17  1.5754e-18 
   3848.429   7.2588e-17  1.5752e-18 
   3850.547   7.2047e-17  1.5253e-18 
   3852.665   7.2077e-17  1.5157e-18 
   3854.783   7.4735e-17  1.4931e-18 
   3856.902   7.3427e-17  1.4579e-18 
   3859.021   6.8505e-17  1.4374e-18 
    3861.14    7.231e-17  1.4466e-18 
    3863.26   6.9952e-17  1.4407e-18 
    3865.38   7.5563e-17  1.4575e-18 
     3867.5   7.0897e-17  1.4145e-18 
   3869.621   7.2363e-17  1.3927e-18 
   3871.741   6.8053e-17  1.3576e-18 
   3873.863   7.0414e-17  1.3654e-18 
   3875.985   6.8121e-17  1.3611e-18 
   3878.106   6.8554e-17  1.3309e-18 
   3880.229   6.9282e-17  1.3211e-18 
   3882.351   6.9301e-17  1.3134e-18 
   3884.474   6.9782e-17   1.327e-18 
   3886.597    6.488e-17  1.3067e-18 
    3888.72   6.7605e-17  1.3105e-18 
   3890.844   7.5782e-17    1.35e-18 
   3892.969    6.575e-17  1.3387e-18 
   3895.093   6.5625e-17  1.3519e-18 
   3897.218   6.9293e-17  1.3613e-18 
   3899.343   6.8877e-17  1.3734e-18 
   3901.468   6.6075e-17  1.3774e-18 
   3903.593   6.4966e-17  1.4312e-18 
    3905.72   6.5022e-17  1.4676e-18 
   3907.845   6.6449e-17  1.5033e-18 
   3909.972   6.2598e-17  1.4911e-18 
   3912.099   6.2201e-17  1.4668e-18 
   3914.226   6.6005e-17  1.4451e-18 
   3916.353   6.7193e-17  1.4229e-18 
   3918.482   6.1433e-17  1.3782e-18 
   3920.609   6.1327e-17  1.3292e-18 
   3922.738   6.1148e-17   1.309e-18 
   3924.866   6.6196e-17  1.3043e-18 
   3926.996   6.5339e-17  1.2789e-18 
   3929.125   6.3695e-17  1.2514e-18 
   3931.255   6.4659e-17  1.2303e-18 
   3933.384   6.3697e-17  1.2121e-18 
   3935.514   6.1072e-17  1.2157e-18 
   3937.645   6.1604e-17  1.2684e-18 
   3939.776   6.4743e-17  1.3452e-18 
   3941.907   7.0177e-17  1.4085e-18 
   3944.038   6.3759e-17  1.4146e-18 
    3946.17   6.4204e-17  1.4068e-18 
   3948.302   6.4171e-17  1.4183e-18 
   3950.434   6.6475e-17  1.3865e-18 
   3952.566   6.5402e-17  1.3548e-18 
   3954.699   6.2835e-17  1.3368e-18 
   3956.833   6.8349e-17  1.3274e-18 
   3958.966   6.5021e-17  1.3159e-18 
   3961.099   6.4829e-17  1.2783e-18 
   3963.234   6.3936e-17  1.2477e-18 
   3965.368   6.1739e-17  1.2005e-18 
   3967.503   6.5326e-17  1.1835e-18 
   3969.637   6.7155e-17  1.1943e-18 
   3971.772   6.4593e-17  1.2302e-18 
   3973.908   6.5668e-17  1.3001e-18 
   3976.043    6.605e-17  1.3442e-18 
    3978.18   6.5039e-17  1.3566e-18 
   3980.316   6.6916e-17  1.3615e-18 
   3982.453   6.4735e-17  1.3652e-18 
    3984.59   6.6098e-17  1.3503e-18 
   3986.727   6.3624e-17  1.3451e-18 
   3988.864   6.1002e-17  1.3209e-18 
   3991.002    6.116e-17  1.3341e-18 
    3993.14   6.1556e-17  1.3118e-18 
   3995.278    6.227e-17  1.3104e-18 
   3997.417   6.0812e-17  1.3162e-18 
   3999.555   6.2814e-17   1.334e-18 
   4001.694   6.2531e-17   1.338e-18 
   4003.834   6.0704e-17  1.3313e-18 
   4005.974   6.3424e-17  1.3679e-18 
   4008.114    6.136e-17  1.3918e-18 
   4010.254   6.7054e-17  1.4274e-18 
   4012.395   6.7128e-17  1.4169e-18 
   4014.535   6.2524e-17  1.3875e-18 
   4016.676   6.0971e-17  1.3711e-18 
   4018.818   6.5994e-17  1.3682e-18 
   4020.959   6.2859e-17  1.3556e-18 
   4023.101   6.3932e-17  1.3558e-18 
   4025.243   6.4587e-17  1.3432e-18 
   4027.385   6.5336e-17  1.3452e-18 
   4029.528    6.089e-17  1.3166e-18 
   4031.671   6.4458e-17  1.3104e-18 
   4033.815   6.4691e-17  1.3054e-18 
   4035.958   6.6923e-17  1.3305e-18 
   4038.102   6.5674e-17  1.3497e-18 
   4040.246   6.3946e-17  1.3855e-18 
    4042.39   6.3734e-17  1.3931e-18 
   4044.535   6.6219e-17  1.4066e-18 
    4046.68   6.4068e-17  1.3989e-18 
   4048.825   6.5543e-17  1.3984e-18 
    4050.97   6.7228e-17  1.3671e-18 
   4053.115   6.4891e-17  1.3512e-18 
   4055.262   6.4853e-17  1.3099e-18 
   4057.408    6.619e-17  1.3254e-18 
   4059.554   6.2227e-17  1.3417e-18 
   4061.701   6.2715e-17  1.3831e-18 
   4063.848   6.2834e-17  1.4009e-18 
   4065.995   5.8933e-17  1.4035e-18 
   4068.143   6.0667e-17  1.4021e-18 
    4070.29   5.9204e-17  1.3683e-18 
   4072.438   6.5592e-17  1.3797e-18 
   4074.587    6.289e-17  1.3659e-18 
   4076.736   6.1429e-17   1.369e-18 
   4078.885   6.4007e-17  1.3733e-18 
   4081.033   6.6304e-17  1.3517e-18 
   4083.183   6.6234e-17  1.3704e-18 
   4085.332   6.3894e-17   1.352e-18 
   4087.481   6.2734e-17  1.3462e-18 
   4089.632   6.3368e-17  1.3305e-18 
   4091.782   6.3765e-17  1.3257e-18 
   4093.933   6.2624e-17   1.311e-18 
   4096.083    6.641e-17  1.3175e-18 
   4098.234     6.55e-17  1.2983e-18 
   4100.387   6.7196e-17  1.2761e-18 
   4102.537   6.5916e-17  1.2648e-18 
   4104.689   6.3419e-17  1.2622e-18 
   4106.842   6.4377e-17  1.2851e-18 
   4108.994   6.4208e-17  1.2853e-18 
   4111.146   6.5381e-17  1.2852e-18 
   4113.299   6.3612e-17   1.291e-18 
   4115.452   6.8379e-17  1.2857e-18 
   4117.605   6.4041e-17  1.2839e-18 
   4119.759   6.2476e-17  1.2879e-18 
   4121.914   6.0241e-17  1.2955e-18 
   4124.067   6.3934e-17  1.3182e-18 
   4126.221   6.1427e-17  1.3044e-18 
   4128.375   6.5292e-17  1.3024e-18 
    4130.53   6.6312e-17  1.3013e-18 
   4132.686   6.0674e-17  1.2866e-18 
    4134.84    6.647e-17  1.3061e-18 
   4136.996   6.2352e-17   1.297e-18 
   4139.153   6.2123e-17  1.2772e-18 
   4141.308   6.2047e-17  1.2572e-18 
   4143.464   6.9752e-17  1.2693e-18 
   4145.621   6.5816e-17  1.2475e-18 
   4147.777   6.3281e-17  1.2441e-18 
   4149.934   6.5965e-17  1.2345e-18 
   4152.091   6.3227e-17  1.2542e-18 
   4154.249    6.564e-17  1.2886e-18 
   4156.407   6.2922e-17  1.3009e-18 
   4158.565   6.5697e-17  1.3174e-18 
   4160.723   6.3274e-17  1.3204e-18 
   4162.881   6.6244e-17  1.3502e-18 
    4165.04   5.9799e-17  1.3463e-18 
   4167.198   6.3474e-17  1.3731e-18 
   4169.357   6.4208e-17  1.3653e-18 
   4171.517   6.5786e-17  1.3411e-18 
   4173.676   6.4188e-17   1.312e-18 
   4175.835   6.2922e-17  1.3012e-18 
   4177.996   6.5876e-17  1.2897e-18 
   4180.156   6.2316e-17  1.2697e-18 
   4182.317    6.372e-17  1.2537e-18 
   4184.477   6.2363e-17  1.2358e-18 
   4186.638   6.0938e-17  1.2128e-18 
   4188.799   6.2082e-17  1.2146e-18 
    4190.96   6.0412e-17  1.2164e-18 
   4193.122   6.5844e-17  1.2245e-18 
   4195.283   6.2387e-17  1.1965e-18 
   4197.446    6.009e-17  1.1821e-18 
   4199.607   6.1246e-17  1.1716e-18 
    4201.77   6.3273e-17  1.1783e-18 
   4203.933   6.2396e-17  1.1911e-18 
   4206.096   6.0306e-17  1.2076e-18 
   4208.258   5.7297e-17  1.1913e-18 
   4210.422   6.2341e-17  1.1963e-18 
   4212.586    6.273e-17  1.1888e-18 
   4214.749   6.3527e-17  1.1825e-18 
   4216.917   6.5727e-17  1.1901e-18 
   4219.081   6.2316e-17  1.1794e-18 
   4221.244   6.4527e-17  1.1829e-18 
    4223.41   6.1175e-17  1.1546e-18 
   4225.575   6.2173e-17   1.135e-18 
    4227.74   6.4181e-17  1.1431e-18 
   4229.905   6.2408e-17  1.1395e-18 
   4232.071   6.0077e-17  1.1485e-18 
   4234.236   6.1869e-17  1.1439e-18 
   4236.402   6.2502e-17   1.142e-18 
   4238.568   6.1983e-17  1.1463e-18 
   4240.734   6.6155e-17  1.1614e-18 
   4242.901   5.9703e-17  1.1604e-18 
   4245.067   6.3743e-17  1.1903e-18 
   4247.235   5.9465e-17  1.1807e-18 
   4249.402    6.232e-17  1.1855e-18 
   4251.569   6.2492e-17  1.1829e-18 
   4253.737   6.4727e-17  1.1943e-18 
   4255.905   6.2655e-17  1.1738e-18 
   4258.072   6.1612e-17  1.1597e-18 
    4260.24   6.1624e-17  1.1561e-18 
   4262.409   6.3652e-17  1.1682e-18 
   4264.577   6.4054e-17  1.1876e-18 
   4266.746   6.5401e-17  1.1878e-18 
   4268.916   6.2096e-17  1.1712e-18 
   4271.084   6.1826e-17  1.1614e-18 
   4273.254   6.1775e-17   1.158e-18 
   4275.424   6.3469e-17  1.1654e-18 
   4277.593   6.1748e-17  1.1613e-18 
   4279.763   5.9898e-17  1.1603e-18 
   4281.934   6.2324e-17  1.1565e-18 
   4284.104   6.1229e-17   1.146e-18 
   4286.274   5.9125e-17  1.1279e-18 
   4288.445   6.0224e-17  1.1673e-18 
   4290.616    5.768e-17  1.1859e-18 
   4292.788   6.1344e-17  1.1839e-18 
   4294.959   6.1173e-17  1.1353e-18 
   4297.131   5.7757e-17  1.1107e-18 
   4299.302   5.8012e-17  1.0905e-18 
   4301.474   5.8001e-17  1.0802e-18 
   4303.646   5.7843e-17  1.0824e-18 
   4305.818    5.853e-17  1.1016e-18 
   4307.991   6.2552e-17  1.1136e-18 
   4310.164   6.2316e-17  1.1364e-18 
   4312.336   6.1449e-17  1.1523e-18 
   4314.509   6.2058e-17  1.1774e-18 
   4316.683   5.9242e-17  1.1832e-18 
   4318.856    5.931e-17  1.1801e-18 
    4321.03   5.9616e-17   1.154e-18 
   4323.204    6.149e-17   1.142e-18 
   4325.378   6.1098e-17  1.1322e-18 
   4327.551   6.1466e-17  1.1414e-18 
   4329.727   6.1013e-17  1.1449e-18 
   4331.901   6.1931e-17  1.1596e-18 
   4334.075   5.8822e-17  1.1397e-18 
   4336.251     6.07e-17  1.1276e-18 
   4338.426   5.9098e-17  1.1103e-18 
   4340.602   6.2923e-17  1.1144e-18 
   4342.777   6.0941e-17   1.126e-18 
   4344.953    5.705e-17  1.1372e-18 
   4347.128   5.7906e-17  1.1545e-18 
   4349.304   6.0516e-17  1.1449e-18 
   4351.481   5.8982e-17  1.1382e-18 
   4353.657   6.0426e-17  1.1449e-18 
   4355.833   6.2162e-17  1.1839e-18 
   4358.011   6.0275e-17  1.1979e-18 
   4360.188   5.9343e-17  1.1966e-18 
   4362.364   5.8022e-17  1.1543e-18 
   4364.542    6.106e-17  1.1636e-18 
   4366.719    6.022e-17  1.1682e-18 
   4368.897   6.2882e-17  1.1653e-18 
   4371.074   5.8002e-17  1.1453e-18 
   4373.253   6.0877e-17  1.1398e-18 
   4375.431   6.1189e-17  1.1613e-18 
   4377.608   6.1382e-17  1.1684e-18 
   4379.787   5.9044e-17  1.1521e-18 
   4381.966   5.8672e-17  1.1223e-18 
   4384.145   5.6328e-17   1.113e-18 
   4386.324   5.9276e-17  1.1212e-18 
   4388.503   5.9945e-17  1.1267e-18 
   4390.682   5.7168e-17  1.1324e-18 
   4392.861   5.8893e-17  1.1335e-18 
   4395.041   5.8688e-17  1.1424e-18 
   4397.221   5.9703e-17  1.1497e-18 
     4399.4   5.8698e-17  1.1608e-18 
   4401.581   5.9491e-17  1.1718e-18 
   4403.761   6.2859e-17  1.2049e-18 
   4405.942   5.7645e-17  1.2129e-18 
   4408.123   6.1363e-17  1.2324e-18 
   4410.304   5.4999e-17  1.2216e-18 
   4412.484   5.9754e-17   1.225e-18 
   4414.666   6.2193e-17  1.2275e-18 
   4416.847   5.9705e-17  1.2229e-18 
   4419.027   5.9969e-17  1.2203e-18 
   4421.209   5.8725e-17  1.2185e-18 
   4423.392   5.9522e-17   1.221e-18 
   4425.573   6.0739e-17  1.2124e-18 
   4427.755   5.8232e-17  1.2055e-18 
   4429.938   6.1302e-17  1.1987e-18 
    4432.12   6.2014e-17  1.1914e-18 
   4434.302   6.0658e-17  1.1886e-18 
   4436.485   6.0212e-17  1.1873e-18 
   4438.667   5.7209e-17   1.189e-18 
   4440.851    5.741e-17  1.1727e-18 
   4443.034   6.1392e-17  1.1886e-18 
   4445.217   6.2301e-17  1.1884e-18 
     4447.4    6.132e-17  1.1905e-18 
   4449.584    6.263e-17  1.1824e-18 
   4451.768   6.0579e-17  1.1639e-18 
   4453.951   5.9699e-17  1.1621e-18 
   4456.135   5.8517e-17  1.1521e-18 
   4458.319   5.9129e-17  1.1462e-18 
   4460.504   6.0151e-17  1.1357e-18 
   4462.688   5.9622e-17   1.134e-18 
   4464.873   5.6818e-17  1.1298e-18 
   4467.059   5.6869e-17  1.1266e-18 
   4469.243   5.9163e-17  1.1224e-18 
   4471.428    5.807e-17   1.129e-18 
   4473.613   5.9499e-17    1.14e-18 
   4475.798   6.0905e-17  1.1437e-18 
   4477.983   5.9899e-17  1.1333e-18 
   4480.172   5.7412e-17  1.1241e-18 
   4482.358   5.8431e-17  1.1413e-18 
   4484.544   5.7439e-17    1.14e-18 
   4486.729   5.6895e-17  1.1407e-18 
   4488.917    5.804e-17  1.1448e-18 
   4491.103   5.7306e-17  1.1317e-18 
    4493.29   5.7669e-17  1.1478e-18 
   4495.476   5.8166e-17  1.1397e-18 
   4497.662   6.0019e-17  1.1458e-18 
   4499.849   6.0254e-17  1.1404e-18 
   4502.036   5.6547e-17  1.1383e-18 
   4504.223   6.1109e-17  1.1366e-18 
    4506.41   5.8823e-17  1.1391e-18 
   4508.597   5.7886e-17  1.1426e-18 
   4510.785   5.7065e-17  1.1257e-18 
   4512.972   5.7611e-17  1.1337e-18 
   4515.161   5.9801e-17  1.1299e-18 
   4517.348   5.3759e-17  1.1258e-18 
   4519.536   5.7923e-17  1.1501e-18 
   4521.724   5.8573e-17  1.1533e-18 
   4523.912   5.5277e-17  1.1459e-18 
   4526.101   5.4658e-17  1.1468e-18 
   4528.289   5.8001e-17  1.1608e-18 
   4530.477   5.5501e-17  1.1655e-18 
   4532.667   5.6494e-17  1.1828e-18 
   4534.856   5.8366e-17  1.1856e-18 
   4537.045   6.1414e-17  1.1919e-18 
   4539.233   5.8476e-17  1.1872e-18 
   4541.422   6.1844e-17  1.1965e-18 
   4543.613   6.0136e-17  1.1933e-18 
   4545.802   5.9635e-17   1.186e-18 
   4547.991   5.7885e-17  1.1624e-18 
   4550.181   5.9308e-17  1.1634e-18 
   4552.371   5.7965e-17    1.15e-18 
   4554.561   6.0318e-17  1.1469e-18 
   4556.751   5.4292e-17   1.136e-18 
   4558.941   5.6742e-17  1.1327e-18 
   4561.131   5.8107e-17  1.1363e-18 
   4563.321   5.7363e-17   1.119e-18 
   4565.513   5.7121e-17  1.1198e-18 
   4567.703    5.681e-17   1.114e-18 
   4569.894   5.4379e-17  1.1054e-18 
   4572.084   5.5948e-17  1.1165e-18 
   4574.276   5.6713e-17  1.1267e-18 
   4576.467   5.9491e-17  1.1463e-18 
   4578.658   5.4895e-17  1.1487e-18 
   4580.849    5.617e-17  1.1506e-18 
   4583.041   5.7711e-17  1.1443e-18 
   4585.232   5.6107e-17  1.1435e-18 
   4587.424   5.8089e-17    1.14e-18 
   4589.615   5.5345e-17  1.1331e-18 
   4591.807   5.5989e-17  1.1267e-18 
   4593.999   5.7933e-17  1.1241e-18 
   4596.191   5.8762e-17  1.1252e-18 
   4598.383   5.8708e-17  1.1242e-18 
   4600.576   5.8944e-17  1.1194e-18 
   4602.768    5.842e-17  1.1164e-18 
   4604.961   6.0178e-17  1.1255e-18 
   4607.153   5.9517e-17  1.1327e-18 
   4609.346   6.0163e-17  1.1325e-18 
   4611.539   5.9006e-17  1.1358e-18 
   4613.732   5.8302e-17  1.1351e-18 
   4615.924   5.7083e-17  1.1165e-18 
   4618.121   5.8601e-17  1.1318e-18 
   4620.314   5.9155e-17  1.1277e-18 
   4622.508   5.7543e-17   1.127e-18 
   4624.701   5.9884e-17  1.1376e-18 
   4626.895   5.8022e-17  1.1245e-18 
   4629.088    5.534e-17  1.1175e-18 
   4631.282   5.4748e-17  1.1093e-18 
   4633.475   5.8327e-17  1.1148e-18 
   4635.669   5.5745e-17  1.1085e-18 
   4637.863   5.7877e-17  1.1081e-18 
   4640.057    5.857e-17  1.1131e-18 
   4642.251   5.7853e-17  1.1135e-18 
   4644.445   5.9255e-17   1.106e-18 
    4646.64   5.7191e-17   1.096e-18 
   4648.835   5.6776e-17     1.1e-18 
   4651.029   5.6856e-17  1.1072e-18 
   4653.224   5.6941e-17  1.1224e-18 
   4655.417   5.9938e-17  1.1446e-18 
   4657.613   5.6303e-17  1.1408e-18 
   4659.808   5.8785e-17  1.1575e-18 
   4662.002    5.697e-17   1.144e-18 
   4664.198    5.867e-17  1.1332e-18 
   4666.392   5.4884e-17  1.1147e-18 
   4668.588   5.8094e-17  1.1189e-18 
   4670.783   5.7044e-17  1.1269e-18 
   4672.978   5.6343e-17   1.137e-18 
   4675.174   5.8059e-17  1.1403e-18 
   4677.369   5.6921e-17  1.1274e-18 
   4679.565   5.4751e-17   1.125e-18 
   4681.761   5.5849e-17  1.1297e-18 
   4683.955   5.7926e-17  1.1317e-18 
   4686.152   5.7329e-17  1.1246e-18 
   4688.348   5.8905e-17  1.1312e-18 
   4690.543    5.617e-17  1.1241e-18 
    4692.74   5.7746e-17  1.1229e-18 
   4694.936   5.7023e-17  1.1246e-18 
   4697.132   5.5129e-17  1.1086e-18 
   4699.328   5.6354e-17  1.1028e-18 
   4701.525   5.2956e-17  1.0943e-18 
   4703.721   5.9149e-17  1.1175e-18 
   4705.917   5.6373e-17  1.1133e-18 
   4708.114   5.5368e-17  1.1206e-18 
   4710.312   5.8983e-17  1.1305e-18 
   4712.508   5.7141e-17  1.1324e-18 
   4714.705   5.5465e-17  1.1197e-18 
   4716.902   5.6903e-17  1.1332e-18 
   4719.098   5.6973e-17  1.1368e-18 
   4721.295   5.4738e-17  1.1345e-18 
   4723.492   5.7034e-17  1.1316e-18 
    4725.69   5.6163e-17  1.1204e-18 
   4727.887   5.5858e-17  1.1237e-18 
   4730.084   5.6695e-17  1.1128e-18 
   4732.281   5.6284e-17  1.1124e-18 
   4734.479   5.9381e-17  1.1201e-18 
   4736.676   6.1948e-17  1.1323e-18 
   4738.873   5.8036e-17  1.1325e-18 
   4741.071    5.769e-17  1.1293e-18 
   4743.269   5.7828e-17  1.1175e-18 
   4745.467   5.8695e-17   1.131e-18 
   4747.664   5.7336e-17  1.1244e-18 
   4749.861   5.5311e-17  1.1142e-18 
    4752.06   5.7207e-17  1.1199e-18 
   4754.258   5.7809e-17  1.1194e-18 
   4756.456   5.6039e-17   1.111e-18 
   4758.653   5.7249e-17  1.1111e-18 
   4760.852   5.5356e-17  1.1098e-18 
    4763.05   5.6224e-17  1.1049e-18 
   4765.249   5.4456e-17  1.0991e-18 
   4767.447    5.612e-17  1.1087e-18 
   4769.645   5.5075e-17  1.1126e-18 
   4771.843   5.4723e-17  1.1209e-18 
   4774.042   5.4689e-17  1.1165e-18 
    4776.24   5.6648e-17  1.1246e-18 
   4778.439   5.8728e-17  1.1219e-18 
   4780.637   5.2962e-17  1.1021e-18 
   4782.836   5.5453e-17  1.1105e-18 
   4785.034   5.4694e-17  1.1081e-18 
   4787.233   5.7026e-17  1.1093e-18 
   4789.432   5.5134e-17  1.1137e-18 
   4791.631   5.5612e-17  1.1189e-18 
   4793.829    5.373e-17  1.1233e-18 
   4796.028   5.6324e-17  1.1268e-18 
   4798.228   5.2226e-17  1.1164e-18 
   4800.427   5.4573e-17  1.1244e-18 
   4802.625   5.3729e-17  1.1217e-18 
   4804.824   5.7179e-17  1.1325e-18 
   4807.023   5.1707e-17  1.1171e-18 
   4809.222   5.5026e-17  1.1283e-18 
   4811.421   5.4786e-17  1.1196e-18 
   4813.621   5.6011e-17  1.1351e-18 
   4815.819   5.6667e-17  1.1486e-18 
   4818.019    5.545e-17  1.1664e-18 
    4820.22   5.6585e-17  1.1736e-18 
   4822.418   5.3924e-17  1.1641e-18 
   4824.618   5.3768e-17  1.1517e-18 
   4826.817    5.503e-17  1.1588e-18 
   4829.017   5.4852e-17  1.1622e-18 
   4831.216   5.7119e-17  1.1703e-18 
   4833.416   5.3747e-17  1.1601e-18 
   4835.615   5.3104e-17  1.1662e-18 
   4837.815   5.6099e-17   1.162e-18 
   4840.014   5.5619e-17    1.16e-18 
   4842.214   5.5246e-17  1.1526e-18 
   4844.414   5.5942e-17  1.1508e-18 
   4846.614   5.5083e-17  1.1358e-18 
   4848.814   5.6103e-17  1.1348e-18 
   4851.013   5.4139e-17  1.1179e-18 
   4853.213    5.508e-17  1.1133e-18 
   4855.413   5.3456e-17  1.0919e-18 
   4857.612   5.3545e-17   1.091e-18 
   4859.812   5.2941e-17  1.0952e-18 
   4862.013   5.4603e-17  1.0928e-18 
   4864.212   5.3289e-17  1.0974e-18 
   4866.412   5.4633e-17  1.0908e-18 
   4868.612   5.1264e-17  1.0893e-18 
   4870.812   5.2624e-17  1.0881e-18 
   4873.012   5.0933e-17  1.0767e-18 
   4875.212   5.3057e-17  1.0908e-18 
   4877.412    5.394e-17  1.1147e-18 
   4879.612    5.316e-17  1.1227e-18 
   4881.812   5.6749e-17  1.1453e-18 
   4884.013   5.3035e-17  1.1325e-18 
   4886.213   5.3648e-17  1.1334e-18 
   4888.413   5.6775e-17  1.1321e-18 
   4890.613   5.5167e-17  1.1305e-18 
   4892.814    5.816e-17  1.1317e-18 
   4895.014   5.3798e-17  1.1263e-18 
   4897.214   5.3954e-17  1.1273e-18 
   4899.414    5.664e-17  1.1331e-18 
   4901.614    5.474e-17  1.1204e-18 
   4903.814   5.4765e-17  1.1276e-18 
   4906.014   5.3843e-17  1.1177e-18 
   4908.215   5.3699e-17   1.111e-18 
   4910.416   5.4052e-17  1.1077e-18 
   4912.616   5.3906e-17  1.1012e-18 
   4914.816   5.3196e-17  1.1086e-18 
   4917.017   5.6277e-17  1.1041e-18 
   4919.217   5.3885e-17  1.0862e-18 
   4921.417   5.7355e-17  1.0965e-18 
   4923.617   5.1099e-17  1.0924e-18 
   4925.818   5.3897e-17  1.1037e-18 
   4928.018   5.4897e-17   1.108e-18 
    4930.22   5.0232e-17  1.0977e-18 
   4932.419   5.1428e-17  1.0989e-18 
   4934.619   5.2475e-17  1.1021e-18 
   4936.819   5.1443e-17  1.0946e-18 
   4939.021   5.3539e-17  1.1005e-18 
    4941.22   5.2747e-17  1.0952e-18 
    4943.42   5.1584e-17  1.0876e-18 
   4945.621   5.1763e-17  1.0958e-18 
   4947.821   5.1004e-17   1.074e-18 
   4950.022   5.0664e-17   1.082e-18 
   4952.222   5.2786e-17  1.0696e-18 
   4954.422   5.1893e-17  1.0752e-18 
   4956.623   5.4202e-17  1.0786e-18 
   4958.824   5.3653e-17  1.0878e-18 
   4961.024   5.2046e-17  1.0935e-18 
   4963.224   5.4528e-17  1.1118e-18 
   4965.425   5.6116e-17  1.1362e-18 
   4967.625   5.4166e-17  1.1297e-18 
   4969.824   4.9626e-17  1.1159e-18 
   4972.025   5.0836e-17  1.1002e-18 
   4974.226   5.2214e-17  1.1016e-18 
   4976.426   5.3083e-17  1.0959e-18 
   4978.626   4.8699e-17   1.087e-18 
   4980.826     5.26e-17  1.0794e-18 
   4983.027   5.0789e-17  1.0617e-18 
   4985.227   5.0871e-17  1.0813e-18 
   4987.426   5.2129e-17  1.0839e-18 
   4989.627   5.0842e-17  1.0957e-18 
   4991.827   5.1346e-17  1.1024e-18 
   4994.028   4.8789e-17  1.1027e-18 
   4996.228   5.0834e-17  1.0934e-18 
   4998.428   4.9196e-17  1.0846e-18 
   5000.629   4.8891e-17  1.0918e-18 
   5002.832   4.8735e-17  1.0813e-18 
   5005.032   5.2993e-17  1.0971e-18 
   5007.231   4.8504e-17  1.0886e-18 
   5009.432    4.888e-17  1.0836e-18 
   5011.632   5.1509e-17  1.0907e-18 
   5013.832   5.0041e-17  1.0796e-18 
   5016.032   5.2696e-17  1.0879e-18 
   5018.231   5.0273e-17  1.0834e-18 
   5020.432    5.295e-17   1.093e-18 
   5022.631   5.4527e-17  1.0987e-18 
   5024.831   5.0575e-17  1.0815e-18 
   5027.031   5.2448e-17  1.0919e-18 
   5029.231   4.9926e-17  1.0764e-18 
    5031.43   5.3558e-17  1.1007e-18 
    5033.63   4.8583e-17  1.0754e-18 
    5035.83   5.1524e-17  1.0785e-18 
    5038.03   4.9603e-17  1.0657e-18 
   5040.229   5.0509e-17  1.0681e-18 
   5042.429    4.909e-17  1.0714e-18 
   5044.629   4.5125e-17  1.0589e-18 
   5046.829   5.1169e-17  1.0832e-18 
   5049.028   5.1453e-17  1.0764e-18 
   5051.228   5.0014e-17  1.0689e-18 
   5053.427    4.991e-17   1.073e-18 
   5055.626   5.1008e-17  1.0862e-18 
   5057.825   5.1085e-17  1.0825e-18 
   5060.025   4.8754e-17  1.0814e-18 
   5062.224   4.7636e-17  1.0788e-18 
   5064.423   5.1396e-17  1.0787e-18 
   5066.624   5.1015e-17  1.0752e-18 
   5068.822    5.051e-17  1.0799e-18 
   5071.021   4.8353e-17  1.0732e-18 
    5073.22   5.0365e-17  1.0739e-18 
   5075.421   4.8667e-17  1.0648e-18 
   5077.618   4.9787e-17  1.0681e-18 
   5079.817   4.9592e-17   1.065e-18 
   5082.016   4.9432e-17  1.0677e-18 
   5084.215   4.8109e-17  1.0689e-18 
   5086.414   4.9209e-17  1.0734e-18 
   5088.613   4.8708e-17  1.0869e-18 
   5090.812   4.7645e-17  1.0809e-18 
   5093.011   5.0733e-17  1.0872e-18 
   5095.209    4.588e-17  1.0627e-18 
   5097.409   4.8734e-17  1.0638e-18 
   5099.606   4.9953e-17  1.0659e-18 
   5101.805   4.8499e-17  1.0708e-18 
   5104.003   4.4701e-17  1.0614e-18 
   5106.201   4.7553e-17  1.0655e-18 
   5108.401   4.6226e-17   1.058e-18 
   5110.599   4.6176e-17  1.0651e-18 
   5112.801   4.7707e-17   1.072e-18 
   5114.999   5.1038e-17  1.0848e-18 
   5117.198   4.8055e-17  1.0817e-18 
   5119.395   4.7099e-17  1.0778e-18 
   5121.593   4.7793e-17  1.0701e-18 
   5123.791   4.7054e-17  1.0747e-18 
   5125.989   4.7413e-17  1.0521e-18 
   5128.188   4.5338e-17  1.0595e-18 
   5130.385   5.1546e-17  1.0866e-18 
   5132.583   4.6238e-17  1.0893e-18 
    5134.78   4.9737e-17  1.0992e-18 
   5136.978   4.9704e-17  1.1048e-18 
   5139.176   4.9594e-17  1.1079e-18 
   5141.373    4.907e-17  1.1031e-18 
    5143.57   4.9896e-17  1.1148e-18 
   5145.768   4.8153e-17  1.1011e-18 
   5147.965    4.652e-17  1.1044e-18 
   5150.162   4.6935e-17  1.0908e-18 
    5152.36   5.0474e-17  1.1167e-18 
   5154.558   4.9645e-17  1.1058e-18 
   5156.754   4.9024e-17  1.1113e-18 
   5158.951   4.8814e-17  1.1073e-18 
   5161.148   4.9266e-17  1.1037e-18 
   5163.345   4.8838e-17   1.096e-18 
   5165.542    4.524e-17  1.0638e-18 
   5167.738   4.8301e-17  1.0608e-18 
   5169.934   4.8182e-17  1.0537e-18 
   5172.131   4.6472e-17  1.0574e-18 
   5174.328   4.7231e-17  1.0711e-18 
   5176.524   5.0098e-17  1.0977e-18 
   5178.721   4.6869e-17  1.0777e-18 
   5180.917   4.7852e-17  1.0619e-18 
   5183.113   4.8625e-17  1.0591e-18 
    5185.31   4.9007e-17  1.0787e-18 
   5187.505   4.7772e-17  1.1005e-18 
   5189.701   4.7315e-17  1.0979e-18 
   5191.897   4.7448e-17  1.0931e-18 
   5194.093   4.5561e-17  1.1692e-18 
   5196.289   5.0221e-17  1.2787e-18 
   5198.484   4.7103e-17    1.31e-18 
    5200.68    4.732e-17  1.2635e-18 
   5202.875   4.7402e-17  1.1566e-18 
    5205.07   4.6457e-17  1.1034e-18 
   5207.266   4.7773e-17  1.0952e-18 
   5209.461   4.6785e-17  1.0945e-18 
   5211.656   4.5094e-17   1.092e-18 
   5213.852   4.6495e-17  1.0924e-18 
   5216.047   4.8254e-17  1.1047e-18 
   5218.241   4.9185e-17  1.1167e-18 
   5220.436   4.9503e-17  1.1273e-18 
    5222.63   4.5883e-17  1.1202e-18 
   5224.825   4.5902e-17  1.1067e-18 
    5227.02   4.7319e-17  1.0946e-18 
   5229.215   4.3124e-17  1.0623e-18 
   5231.408   4.4818e-17  1.0905e-18 
   5233.603   4.5383e-17  1.0958e-18 
   5235.797   4.5429e-17  1.1012e-18 
    5237.99   4.5187e-17  1.1166e-18 
   5240.185    4.555e-17  1.1084e-18 
   5242.379   4.5528e-17  1.0919e-18 
   5244.573   4.6558e-17  1.0795e-18 
   5246.766   4.8046e-17  1.0976e-18 
    5248.96   4.5592e-17  1.0866e-18 
   5251.153   4.2941e-17  1.0847e-18 
   5253.347   4.8162e-17  1.1217e-18 
    5255.54    4.496e-17  1.1055e-18 
   5257.733    4.813e-17  1.1212e-18 
   5259.926   4.7489e-17  1.0906e-18 
   5262.119   4.6128e-17  1.0709e-18 
   5264.312   4.7873e-17  1.0713e-18 
   5266.505   4.7192e-17  1.0625e-18 
   5268.698   4.5518e-17  1.0711e-18 
   5270.891   4.4969e-17  1.0846e-18 
   5273.083   4.5019e-17  1.1012e-18 
   5275.275   4.3931e-17  1.0762e-18 
   5277.467   4.5494e-17  1.0697e-18 
   5284.044   4.5988e-17  1.0653e-18 
   5286.236   4.6101e-17  1.0652e-18 
   5288.427   4.8004e-17  1.1031e-18 
   5290.619   4.3847e-17  1.1009e-18 
   5292.811   4.3329e-17  1.1009e-18 
   5295.001   4.6587e-17  1.1168e-18 
   5297.193   4.2972e-17   1.102e-18 
   5299.383   4.4895e-17  1.1154e-18 
   5301.575   4.7358e-17  1.1267e-18 
   5303.766   4.7348e-17  1.1348e-18 
   5305.957   4.5699e-17  1.1336e-18 
   5308.146   4.3138e-17  1.1281e-18 
   5310.338   4.3527e-17  1.1345e-18 
   5312.529   4.6888e-17  1.1365e-18 
   5314.719   4.3242e-17  1.1318e-18 
    5316.91    4.438e-17   1.131e-18 
     5319.1   4.5574e-17  1.1358e-18 
    5321.29   4.4193e-17  1.1248e-18 
   5323.479   4.2102e-17  1.1153e-18 
   5325.669   4.0721e-17  1.1338e-18 
    5327.86   4.5089e-17   1.174e-18 
   5330.049   4.4677e-17   1.185e-18 
   5332.238   4.4926e-17   1.166e-18 
   5334.426   4.6577e-17  1.1504e-18 
   5336.616   4.6189e-17  1.1383e-18 
   5338.805   4.3263e-17  1.1332e-18 
   5340.994   4.5743e-17  1.1299e-18 
   5343.183   4.3575e-17  1.1329e-18 
   5345.372   4.2944e-17  1.1268e-18 
    5347.56   4.1939e-17  1.1204e-18 
   5349.748   4.1956e-17  1.1166e-18 
   5351.936   4.3628e-17  1.1266e-18 
   5354.125   4.4568e-17  1.1362e-18 
   5356.312   3.9085e-17  1.1195e-18 
   5358.501   4.2612e-17  1.1165e-18 
   5360.688   4.4219e-17  1.1269e-18 
   5362.876   4.6096e-17  1.1287e-18 
   5365.063   4.3772e-17  1.1201e-18 
    5367.25   4.4188e-17  1.1249e-18 
   5369.438   4.4615e-17  1.1199e-18 
   5371.629   4.4725e-17  1.1321e-18 
   5373.816   4.2684e-17  1.1247e-18 
   5376.002   4.3252e-17  1.1324e-18 
   5378.188   4.2183e-17  1.1185e-18 
   5380.375   4.3413e-17  1.1255e-18 
   5382.562   4.3599e-17  1.1201e-18 
   5384.749   4.1704e-17   1.112e-18 
   5386.934   4.3163e-17  1.1221e-18 
   5389.121   4.5258e-17  1.1225e-18 
   5391.305   4.3547e-17  1.1092e-18 
   5393.491   4.2636e-17  1.1036e-18 
   5395.676   4.2897e-17  1.0966e-18 
   5397.862   4.3023e-17  1.1064e-18 
   5400.048   3.9848e-17  1.0898e-18 
   5402.233   4.1878e-17  1.0959e-18 
   5404.417   4.3533e-17  1.0928e-18 
   5406.602   4.3978e-17  1.1046e-18 
   5408.786   4.5451e-17  1.1077e-18 
   5410.971   4.3519e-17  1.1066e-18 
   5413.155   4.2336e-17  1.1101e-18 
    5415.34   4.0857e-17  1.1102e-18 
   5417.524   4.2721e-17  1.1171e-18 
   5419.708   4.3915e-17  1.1174e-18 
   5421.891    4.302e-17   1.117e-18 
   5424.074   4.2673e-17  1.1095e-18 
   5426.258   4.0352e-17  1.1061e-18 
   5428.442   4.0867e-17  1.1099e-18 
   5430.625   4.0393e-17  1.1159e-18 
   5432.807   3.9883e-17  1.1285e-18 
    5434.99   4.0293e-17  1.1351e-18 
   5437.172   4.2265e-17  1.1389e-18 
   5439.354   4.2934e-17  1.1419e-18 
   5441.537   4.2454e-17  1.1412e-18 
    5443.72   4.2228e-17  1.1285e-18 
   5445.902   4.1538e-17  1.1301e-18 
   5448.083   4.3896e-17  1.1453e-18 
   5450.265   3.9099e-17  1.1337e-18 
   5452.447   4.0452e-17  1.1324e-18 
   5454.627   4.2307e-17   1.157e-18 
   5456.809   4.2737e-17   1.183e-18 
   5458.991   4.0536e-17  1.1728e-18 
   5461.171   4.2431e-17  1.1727e-18 
   5463.352   4.2516e-17  1.1417e-18 
   5465.532   4.4405e-17  1.1592e-18 
   5467.712   4.2624e-17  1.1454e-18 
   5469.892   4.2631e-17  1.1507e-18 
   5472.072   4.0533e-17  1.1355e-18 
   5474.252   4.3666e-17  1.1427e-18 
   5476.432   4.0642e-17  1.1321e-18 
   5478.611   3.9239e-17  1.1455e-18 
   5480.791   4.2577e-17  1.1571e-18 
   5482.969   4.3994e-17  1.1745e-18 
   5485.149   4.2991e-17  1.1615e-18 
   5487.327   4.2122e-17  1.1646e-18 
   5489.506    4.511e-17  1.1652e-18 
   5491.685   4.2811e-17  1.1688e-18 
   5493.862   4.1556e-17  1.1774e-18 
   5496.042   4.2052e-17  1.1751e-18 
   5498.219   4.1367e-17  1.1683e-18 
     5500.4   4.1484e-17  1.1761e-18 
   5502.573   4.3871e-17  1.1888e-18 
   5504.737   4.1148e-17   1.178e-18 
   5506.892   4.0571e-17  1.1811e-18 
   5509.039   4.1929e-17  1.1957e-18 
   5511.177   4.2197e-17   1.189e-18 
   5513.307   4.5311e-17  1.2031e-18 
   5515.428   4.1498e-17  1.1915e-18 
    5517.54   3.9587e-17  1.1918e-18 
   5519.644   4.0962e-17   1.187e-18 
   5521.739   4.3864e-17  1.1835e-18 
   5523.825   4.3113e-17  1.1719e-18 
   5525.903   4.3076e-17  1.1738e-18 
   5527.972   4.1871e-17  1.1766e-18 
   5530.032   3.9817e-17  1.1786e-18 
   5532.084   4.1621e-17  1.1949e-18 
   5534.128   4.2209e-17  1.2138e-18 
   5536.162   4.0507e-17  1.2367e-18 
   5538.188   4.1149e-17  1.2819e-18 
   5540.206    4.282e-17  1.3161e-18 
   5542.214   4.3001e-17  1.3467e-18 
   5544.214    4.197e-17  1.3694e-18 
   5546.206   3.9994e-17  1.3848e-18 
   5548.189   3.9713e-17   1.404e-18 
   5550.163   4.0856e-17  1.3894e-18 
   5552.129   4.0636e-17  1.3735e-18 
   5554.086   4.3544e-17  1.3765e-18 
   5556.034   4.4833e-17  1.3945e-18 
   5557.974   4.1792e-17  1.4251e-18 
   5559.905   4.0144e-17  1.4513e-18 
   5561.827   4.3174e-17  1.4897e-18 
   5563.741   4.2918e-17  1.5001e-18 
   5565.646   3.9646e-17  1.5053e-18 
   5567.543   4.1239e-17   1.563e-18 
   5569.431   3.4382e-17  2.3517e-18 
    5571.31   4.2632e-17  3.4916e-18 
   5573.181   4.7811e-17   4.745e-18 
   5575.043   5.4308e-17   5.854e-18 
   5576.897   5.3128e-17   4.933e-18 
   5578.742   3.7749e-17  2.9691e-18 
   5580.578   4.5468e-17  1.9708e-18 
   5582.405   4.3823e-17  1.7598e-18 
   5584.224   3.9287e-17  1.6491e-18 
   5586.035   4.1196e-17  1.6003e-18 
   5587.836   4.3993e-17  1.5962e-18 
   5589.629   4.2206e-17  1.6285e-18 
   5591.414   4.2273e-17  1.5751e-18 
    5593.19   3.9488e-17  1.5377e-18 
   5594.957   3.9113e-17  1.5243e-18 
   5596.715   4.1749e-17  1.5409e-18 
   5598.465   4.2419e-17  1.6126e-18 
   5600.207    4.297e-17  1.6417e-18 
   5601.939   4.3747e-17   1.602e-18 
   5603.663   4.4436e-17  1.5845e-18 
   5605.379   4.4573e-17  1.5916e-18 
   5607.086   4.3829e-17  1.6273e-18 
   5608.784   4.1885e-17  1.6133e-18 
   5610.473   4.2603e-17  1.5718e-18 
   5612.154   4.2371e-17  1.5647e-18 
   5613.827   4.3033e-17  1.6088e-18 
    5615.49   4.2555e-17  1.6551e-18 
   5617.145    4.397e-17  1.6252e-18 
   5618.792   4.1291e-17  1.6046e-18 
    5620.43   4.1749e-17  1.6383e-18 
   5622.059   4.1253e-17  1.6837e-18 
   5623.679   3.9362e-17  1.6365e-18 
   5625.291   4.1164e-17  1.6211e-18 
   5626.895   4.2498e-17  1.6644e-18 
   5628.489   4.0933e-17  1.7104e-18 
   5630.075   4.3539e-17  1.6708e-18 
   5631.653   4.4717e-17  1.6586e-18 
   5633.221   4.3861e-17  1.7212e-18 
   5634.782   4.4886e-17   1.726e-18 
   5636.333   4.3805e-17  1.6812e-18 
   5637.876   4.4248e-17  1.7064e-18 
    5639.41   4.4842e-17    1.76e-18 
   5640.936   4.3538e-17  1.7365e-18 
   5642.453   4.4216e-17  1.7303e-18 
   5643.961   4.5872e-17  1.7927e-18 
   5645.461    3.807e-17   1.768e-18 
   5646.952   4.2791e-17  1.7503e-18 
   5648.435   4.4522e-17  1.7808e-18 
   5649.909   4.2684e-17  1.7739e-18 
   5651.374   4.3401e-17  1.7527e-18 
    5652.83   4.4993e-17  1.7895e-18 
   5654.278    4.472e-17  1.7798e-18 
   5655.718    4.087e-17  1.7462e-18 
   5657.149   4.2403e-17  1.7987e-18 
   5658.571   4.3358e-17  1.8245e-18 
   5659.984   4.2395e-17  1.7756e-18 
   5661.389   4.2272e-17  1.8491e-18 
   5662.785   4.2752e-17  1.8856e-18 
   5664.173   4.5089e-17  1.8892e-18 
   5665.552   4.0521e-17  2.4001e-18 
   5666.922   3.9869e-17  2.3856e-18 
   5668.284   4.2965e-17  2.3904e-18 
   5669.637   4.5612e-17  2.4729e-18 
   5670.981    4.502e-17  2.4387e-18 
   5672.317   5.0253e-17  2.5004e-18 
   5673.644   4.5243e-17  2.5103e-18 
   5674.963   4.1977e-17  2.4643e-18 
   5676.273   3.9364e-17  2.5452e-18 
   5677.574   4.2747e-17  2.5572e-18 
   5678.867   4.7776e-17   2.634e-18 
   5680.151    4.661e-17  2.6769e-18 
   5681.427   4.3843e-17  2.6278e-18 
   5682.693   4.4219e-17  2.7218e-18 
   5683.952   4.3605e-17  2.6441e-18 
   5685.201   4.2966e-17    2.68e-18 
   5686.442   4.7104e-17  2.6943e-18 
   5687.674   4.7572e-17  2.7055e-18 
   5688.898    4.671e-17  1.9744e-18 
   5690.113   3.9466e-17   1.947e-18 
    5691.32   4.2528e-17  1.9888e-18 
   5692.517   4.3567e-17   1.987e-18 
   5693.707   4.2352e-17  2.0183e-18 
   5694.887   4.2495e-17  2.0601e-18 
   5696.059   3.9244e-17  2.0469e-18 
   5697.222   4.1997e-17  2.0586e-18 
   5698.377   4.0683e-17  2.0695e-18 
   5699.523   3.7936e-17  2.0754e-18 
    5700.67   4.6029e-17  2.0988e-18 
   5701.815    4.271e-17  2.0905e-18 
   5702.961   4.2229e-17  2.0891e-18 
   5704.106   4.1107e-17  2.0747e-18 
   5705.251   4.1997e-17  2.0471e-18 
   5706.396    4.224e-17  2.0714e-18 
   5707.542   4.0399e-17  2.0345e-18 
   5708.688   3.9707e-17  2.0482e-18 
   5709.833   3.9649e-17  2.0542e-18 
   5710.979   4.2267e-17  2.0518e-18 
   5712.125   4.5456e-17  2.0612e-18 
    5713.27   3.8518e-17  2.0115e-18 
   5714.416   3.9611e-17  2.0362e-18 
   5715.561   4.0433e-17  2.0429e-18 
   5716.708   4.1679e-17  2.0352e-18 
   5717.854   4.1487e-17   2.028e-18 
     5719.0   4.1382e-17  2.0213e-18 
   5720.146   4.3744e-17  2.0381e-18 
   5721.292    4.741e-17    2.07e-18 
   5722.438   4.4214e-17  2.0515e-18 
   5723.582   4.3438e-17    2.04e-18 
   5724.728   3.9324e-17  2.0074e-18 
   5725.875   4.0827e-17  2.0241e-18 
    5727.02   4.1623e-17  2.0164e-18 
   5728.166   4.1614e-17  2.0153e-18 
   5729.313   4.0059e-17  1.9941e-18 
   5730.459   3.6194e-17  1.9944e-18 
   5731.606   4.2876e-17  1.9834e-18 
   5732.752   4.1302e-17   2.001e-18 
   5733.898   4.0371e-17  1.9651e-18 
   5735.046   4.1501e-17  1.9798e-18 
   5736.193    4.106e-17  1.9871e-18 
   5737.339   3.9153e-17  1.9668e-18 
   5738.487    3.744e-17  1.9421e-18 
   5739.633   4.1431e-17  1.9684e-18 
    5740.78   4.2756e-17  1.9691e-18 
   5741.926   3.9614e-17  1.9417e-18 
   5743.073   4.1665e-17  1.9516e-18 
   5744.221   4.2326e-17  1.9523e-18 
   5745.367   4.2486e-17  1.9523e-18 
   5746.514   4.1911e-17  1.9458e-18 
   5747.661   4.1308e-17  1.9387e-18 
   5748.808   4.1207e-17  1.9317e-18 
   5749.955   4.1254e-17  1.9203e-18 
   5751.103   3.9359e-17  1.9243e-18 
    5752.25   4.4199e-17  1.9235e-18 
   5753.398   4.1027e-17  1.9065e-18 
   5754.545   4.1417e-17  1.9146e-18 
   5755.692   4.2161e-17  1.9238e-18 
   5756.839   4.1621e-17  1.9574e-18 
   5757.988   3.9505e-17  1.9669e-18 
   5759.134   4.2586e-17  1.9761e-18 
   5760.282   4.0157e-17  1.9747e-18 
    5761.43   4.2242e-17  1.9723e-18 
   5762.577   4.2591e-17  1.9816e-18 
   5763.725   3.7031e-17  1.9251e-18 
   5764.874   4.2381e-17  1.9246e-18 
   5766.021   3.7655e-17  1.9052e-18 
   5767.168   3.9987e-17  1.9194e-18 
   5768.317   4.2345e-17  1.8978e-18 
   5769.465   3.8797e-17  1.9005e-18 
   5770.613   3.6791e-17  1.8974e-18 
   5771.761   3.7998e-17  1.8927e-18 
   5772.908   4.1297e-17  1.9018e-18 
   5774.056   3.7479e-17  1.8786e-18 
   5775.205   4.0099e-17   1.891e-18 
   5776.354   3.7391e-17  1.8796e-18 
   5777.502   4.5408e-17  1.9032e-18 
   5778.649   4.1987e-17  1.8822e-18 
   5779.798   4.0254e-17  1.8761e-18 
   5780.946   3.8204e-17  1.8583e-18 
   5782.094   4.0374e-17  1.8545e-18 
   5783.243   3.6342e-17  1.8396e-18 
   5784.393   4.4777e-17  1.8653e-18 
    5785.54   3.8858e-17  1.8528e-18 
   5786.689   3.9102e-17  1.8519e-18 
   5787.838   4.2253e-17  1.8637e-18 
   5788.987   4.1891e-17   1.873e-18 
   5790.136   3.5989e-17  1.8512e-18 
   5791.284   3.6575e-17  1.8489e-18 
   5792.433     4.21e-17  1.8704e-18 
   5793.582   4.1045e-17   1.861e-18 
   5794.731   3.9864e-17  1.8455e-18 
    5795.88   4.1141e-17  1.8355e-18 
   5797.029   4.0711e-17  1.8454e-18 
   5798.178   3.9547e-17  1.8557e-18 
   5799.327    4.029e-17  1.8569e-18 
   5800.476   3.8875e-17  1.8506e-18 
   5801.625   3.7487e-17  1.8502e-18 
   5802.775   3.8855e-17  1.8351e-18 
   5803.924   3.9531e-17  1.8378e-18 
   5805.073   3.7888e-17   1.812e-18 
   5806.223   4.1327e-17  1.8153e-18 
   5807.372   3.6791e-17  1.7989e-18 
   5808.521   3.6859e-17  1.8041e-18 
   5809.672   4.2449e-17  1.8168e-18 
   5810.822   4.1095e-17  1.8181e-18 
    5811.97   4.0058e-17  1.8057e-18 
    5813.12   3.8725e-17  1.8039e-18 
    5814.27   4.0948e-17  1.7898e-18 
    5815.42   3.7698e-17  1.7912e-18 
    5816.57   3.8564e-17  1.8024e-18 
   5817.719   3.9675e-17   1.786e-18 
   5818.869   4.5526e-17  1.8278e-18 
   5820.019   3.7641e-17  1.7826e-18 
   5821.169   4.4527e-17  1.8109e-18 
    5822.32   3.9033e-17  1.7975e-18 
   5823.469   3.6256e-17  1.7795e-18 
    5824.62   3.6434e-17  1.7873e-18 
   5825.769   3.7841e-17  1.7876e-18 
   5826.919   3.8813e-17  1.7756e-18 
    5828.07   3.8928e-17  1.7989e-18 
    5829.22   3.9057e-17  1.7978e-18 
   5830.371   3.7841e-17  1.7916e-18 
   5831.521   3.9833e-17  1.7872e-18 
   5832.671   3.9836e-17   1.792e-18 
   5833.822   4.1178e-17   1.808e-18 
   5834.972   3.3473e-17  1.7583e-18 
   5836.123   3.9433e-17   1.775e-18 
   5837.274   3.8335e-17  1.7684e-18 
   5838.423   4.0443e-17   1.773e-18 
   5839.575   3.7164e-17  1.7795e-18 
   5840.726   4.1921e-17  1.8001e-18 
   5841.876   3.9657e-17  1.7968e-18 
   5843.027   4.1086e-17  1.8182e-18 
   5844.178    3.875e-17  1.8051e-18 
   5845.329   4.2848e-17  1.8283e-18 
    5846.48    4.058e-17   1.791e-18 
    5847.63   3.6924e-17  1.7656e-18 
   5848.782   3.8789e-17  1.7568e-18 
   5849.933   4.0823e-17  1.7616e-18 
   5851.084   4.0755e-17  1.7537e-18 
   5852.235    4.078e-17  1.7549e-18 
   5853.385   4.2014e-17  1.7642e-18 
   5854.538   4.4032e-17  1.7523e-18 
   5855.689   3.8625e-17  1.7353e-18 
    5856.84   4.2147e-17  1.7655e-18 
   5857.991   4.0025e-17  1.7514e-18 
   5859.143   3.8421e-17  1.7511e-18 
   5860.295   3.6779e-17  1.7462e-18 
   5861.446   3.8307e-17  1.7717e-18 
   5862.597    3.884e-17  1.8247e-18 
   5863.748   3.6744e-17  1.8464e-18 
     5864.9   4.1314e-17  1.9208e-18 
   5866.052   3.9769e-17  1.9693e-18 
   5867.204   3.8752e-17  1.9808e-18 
   5868.355   4.0686e-17   1.968e-18 
   5869.508   4.0402e-17  1.9351e-18 
    5870.66   3.8706e-17  1.8915e-18 
   5871.812   3.9342e-17  1.8565e-18 
   5872.963   3.7277e-17  1.8272e-18 
   5874.116   3.6796e-17  1.8024e-18 
   5875.268   3.8989e-17  1.7929e-18 
   5876.419   3.6185e-17  1.7767e-18 
   5877.572   3.6328e-17  1.7705e-18 
   5878.724   3.8175e-17  1.7499e-18 
   5879.876   4.0206e-17  1.7551e-18 
   5881.029   3.8081e-17  1.7593e-18 
   5882.181   4.1162e-17  1.7807e-18 
   5883.333   3.9231e-17  1.8064e-18 
   5884.486   4.1084e-17  1.9289e-18 
   5885.638   3.8479e-17  2.2543e-18 
    5886.79   4.1373e-17  2.7013e-18 
   5887.943   3.7784e-17  2.9809e-18 
   5889.095   3.8202e-17  3.1227e-18 
   5890.248   3.6945e-17  3.1724e-18 
   5891.401   4.2817e-17  3.2248e-18 
   5892.553   3.7332e-17  3.1921e-18 
   5893.706   3.5528e-17  3.0829e-18 
   5894.859   4.2836e-17  2.9919e-18 
   5896.011   3.7899e-17  2.9263e-18 
   5897.165   4.3494e-17  2.8607e-18 
   5898.318   4.1207e-17  2.6315e-18 
    5899.47   4.0469e-17  2.3109e-18 
   5900.624   3.1293e-17  2.0029e-18 
   5901.776   4.3303e-17  1.9221e-18 
    5902.93   3.8855e-17  1.8405e-18 
   5904.083   3.9134e-17  1.8349e-18 
   5905.237   3.9902e-17  1.8176e-18 
   5906.389     3.61e-17  1.8105e-18 
   5907.542   4.1002e-17  1.8011e-18 
   5908.696    3.752e-17  1.7893e-18 
   5909.849   3.7832e-17  1.7699e-18 
   5911.002    4.246e-17  1.8032e-18 
   5912.156   3.7498e-17  1.8371e-18 
   5913.309   3.9498e-17   1.867e-18 
   5914.462   3.6651e-17  1.9065e-18 
   5915.616   3.7201e-17     1.9e-18 
    5916.77   4.3975e-17   1.907e-18 
   5917.924   3.6288e-17  1.8526e-18 
   5919.077   3.9623e-17  1.8044e-18 
   5920.231   4.1774e-17  1.7948e-18 
   5921.385   3.8724e-17  1.7911e-18 
   5922.538   3.7654e-17   1.805e-18 
   5923.693   3.8321e-17  1.7985e-18 
   5924.846   3.7603e-17  1.8119e-18 
     5926.0   3.9787e-17  1.8042e-18 
   5927.155   3.6493e-17  1.7765e-18 
   5928.308   3.9158e-17  1.7822e-18 
   5929.462   3.4094e-17  1.8207e-18 
   5930.616   3.8196e-17  1.8917e-18 
   5931.771   3.7947e-17  1.9044e-18 
   5932.925   4.1804e-17    1.93e-18 
    5934.08   3.6564e-17   1.928e-18 
   5935.233   3.5397e-17  1.8721e-18 
   5936.388   3.8779e-17  1.8111e-18 
   5937.542    4.085e-17  1.7539e-18 
   5938.697   3.6353e-17  1.7207e-18 
   5939.851   4.1065e-17  1.7208e-18 
   5941.005   3.9942e-17  1.7337e-18 
   5942.159   3.8204e-17  1.7202e-18 
   5943.315   4.3519e-17  1.7734e-18 
   5944.469   3.6266e-17  1.7538e-18 
   5945.624   3.8568e-17   1.784e-18 
   5946.778   3.6817e-17  1.7713e-18 
   5947.933   3.9428e-17  1.7829e-18 
   5949.087   3.9062e-17  1.7763e-18 
   5950.243   3.4953e-17  1.8135e-18 
   5951.398   4.1041e-17  1.8567e-18 
   5952.553   3.6008e-17  1.8617e-18 
   5953.708   3.6061e-17  1.8843e-18 
   5954.863   3.8589e-17  1.8876e-18 
   5956.018   3.9073e-17  1.8633e-18 
   5957.172   3.6303e-17  1.7938e-18 
   5958.328    4.133e-17  1.7749e-18 
   5959.483   3.5131e-17  1.7356e-18 
   5960.638   3.7184e-17  1.7468e-18 
   5961.793   4.0488e-17  1.7299e-18 
   5962.948   4.2846e-17  1.7301e-18 
   5964.104    3.861e-17  1.7099e-18 
    5965.26   4.1188e-17  1.7273e-18 
   5966.415   3.8482e-17  1.7234e-18 
    5967.57   4.1172e-17  1.7526e-18 
   5968.727   3.8772e-17   1.738e-18 
   5969.881   4.1513e-17  1.7644e-18 
   5971.037   3.9373e-17  1.7532e-18 
   5972.193   4.0729e-17  1.7605e-18 
   5973.348   4.0705e-17  1.7539e-18 
   5974.504   3.8819e-17  1.7572e-18 
    5975.66    3.937e-17  1.7786e-18 
   5976.816   3.7355e-17  1.7854e-18 
   5977.971   3.9313e-17  1.8208e-18 
   5979.127   3.7568e-17  1.8234e-18 
   5980.283   4.0522e-17  1.8106e-18 
   5981.439   3.9535e-17  1.7822e-18 
   5982.595   3.6397e-17   1.767e-18 
   5983.751   4.0569e-17  1.7648e-18 
   5984.907   3.7725e-17   1.741e-18 
   5986.064   3.8061e-17   1.702e-18 
    5987.22   3.9636e-17  1.7049e-18 
   5988.375   3.9728e-17  1.7011e-18 
   5989.532   4.0652e-17  1.6817e-18 
   5990.688   3.8315e-17  1.6838e-18 
   5991.845   4.1145e-17  1.6965e-18 
   5993.001   4.0654e-17  1.6861e-18 
   5994.157   3.7183e-17  1.6879e-18 
   5995.314   3.6961e-17  1.6915e-18 
   5996.471   3.8943e-17  1.7103e-18 
   5997.627   3.9307e-17   1.699e-18 
   5998.784   3.6199e-17  1.6946e-18 
   5999.941   4.0676e-17  1.7223e-18 
   6001.097   4.1407e-17  1.7281e-18 
   6002.254   3.8723e-17  1.7373e-18 
    6003.41    4.079e-17  1.7296e-18 
   6004.567   3.9672e-17  1.7353e-18 
   6005.724   3.8039e-17  1.7065e-18 
   6006.881   4.0107e-17  1.7105e-18 
   6008.038   3.7325e-17  1.6738e-18 
   6009.195   3.6196e-17  1.6809e-18 
   6010.352   3.7497e-17  1.6535e-18 
   6011.509   4.2017e-17  1.6812e-18 
   6012.667   3.9239e-17  1.6524e-18 
   6013.823   4.0743e-17  1.6709e-18 
    6014.98    3.892e-17  1.6509e-18 
   6016.137   3.9574e-17  1.6779e-18 
   6017.295   3.5604e-17  1.6392e-18 
   6018.452   3.7405e-17  1.6533e-18 
    6019.61   3.8156e-17  1.6586e-18 
   6020.767   4.0323e-17  1.6585e-18 
   6021.924   3.4661e-17  1.6441e-18 
   6023.081   3.9676e-17  1.6578e-18 
   6024.239   4.1039e-17  1.6779e-18 
   6025.397   3.9834e-17  1.6557e-18 
   6026.554   3.4157e-17  1.6508e-18 
   6027.711   3.7043e-17  1.6568e-18 
    6028.87   3.7295e-17  1.6733e-18 
   6030.027   3.5968e-17  1.6834e-18 
   6031.185   4.1464e-17  1.7024e-18 
   6032.343   3.8254e-17  1.6989e-18 
     6033.5   3.9733e-17  1.6947e-18 
   6034.659   3.8376e-17  1.6966e-18 
   6035.817   3.8283e-17  1.6847e-18 
   6036.975   3.4888e-17  1.6602e-18 
   6038.132   3.8936e-17  1.6574e-18 
   6039.291   3.6786e-17  1.6654e-18 
   6040.449   3.7797e-17  1.6569e-18 
   6041.607   4.0335e-17    1.67e-18 
   6042.764   3.8433e-17  1.6524e-18 
   6043.922   3.3374e-17  1.6285e-18 
   6045.081   3.9307e-17    1.66e-18 
   6046.239   3.6999e-17  1.6426e-18 
   6047.398   3.6489e-17   1.647e-18 
   6048.557   4.0973e-17  1.6715e-18 
   6049.715   3.5432e-17  1.6369e-18 
   6050.873   4.1364e-17  1.6556e-18 
   6052.032    3.751e-17  1.6599e-18 
   6053.191   4.0577e-17  1.6571e-18 
   6054.348   3.5695e-17  1.6258e-18 
   6055.508   3.6313e-17  1.6481e-18 
   6056.666    3.391e-17  1.6324e-18 
   6057.824   3.8498e-17  1.6543e-18 
   6058.984   3.6543e-17  1.6301e-18 
   6060.142   3.7785e-17  1.6439e-18 
   6061.301   3.8558e-17  1.6726e-18 
    6062.46   3.8742e-17  1.6795e-18 
   6063.618   3.6351e-17  1.6748e-18 
   6064.778   3.7576e-17   1.675e-18 
   6065.936   3.6675e-17   1.672e-18 
   6067.096   3.8854e-17  1.6807e-18 
   6068.255   3.5303e-17  1.6633e-18 
   6069.414   4.2133e-17   1.674e-18 
   6070.573   3.9011e-17  1.6586e-18 
   6071.732   3.7486e-17  1.6356e-18 
   6072.891   3.5892e-17  1.6447e-18 
   6074.051   3.7218e-17  1.6375e-18 
   6075.209   3.5556e-17  1.6296e-18 
    6076.37   4.0653e-17  1.6276e-18 
   6077.528   4.0166e-17  1.6333e-18 
   6078.688    3.839e-17  1.6276e-18 
   6079.848   4.0038e-17   1.637e-18 
   6081.007   3.4672e-17  1.6476e-18 
   6082.167   3.3257e-17  1.6352e-18 
   6083.326   3.4957e-17  1.6357e-18 
   6084.486   3.8722e-17  1.6693e-18 
   6085.645   4.2681e-17  1.6644e-18 
   6086.805   3.6761e-17  1.6378e-18 
   6087.965   3.1584e-17  1.6078e-18 
   6089.124    3.576e-17  1.6339e-18 
   6090.284   3.7165e-17  1.6286e-18 
   6091.444   3.6862e-17  1.6262e-18 
   6092.604   3.4911e-17  1.6272e-18 
   6093.764   3.8431e-17  1.6748e-18 
   6094.924   3.9168e-17    1.67e-18 
   6096.084    3.943e-17  1.6713e-18 
   6097.244   3.6539e-17   1.647e-18 
   6098.405   3.7647e-17   1.664e-18 
   6099.564    3.639e-17   1.654e-18 
   6100.725   3.6824e-17  1.6298e-18 
   6101.885   3.6265e-17  1.6313e-18 
   6103.045   3.7017e-17  1.6183e-18 
   6104.205   3.8692e-17  1.6335e-18 
   6105.365    3.539e-17  1.6233e-18 
   6106.526   3.5162e-17  1.6286e-18 
   6107.687   3.9566e-17  1.6469e-18 
   6108.847   3.7902e-17  1.6406e-18 
   6110.008   3.7003e-17   1.639e-18 
   6111.168   3.8918e-17  1.6632e-18 
   6112.328    3.731e-17  1.6598e-18 
   6113.489   3.9014e-17  1.6802e-18 
    6114.65   3.9979e-17  1.6775e-18 
   6115.811   4.0087e-17  1.6852e-18 
   6116.971   3.3032e-17   1.659e-18 
   6118.131   3.6718e-17  1.6448e-18 
   6119.293    3.772e-17  1.6488e-18 
   6120.454   3.7184e-17  1.6401e-18 
   6121.615   3.7207e-17   1.629e-18 
   6122.775   3.9038e-17  1.6391e-18 
   6123.936    3.353e-17  1.6098e-18 
   6125.097   3.8506e-17  1.6322e-18 
    6126.26   3.5545e-17  1.6209e-18 
    6127.42    3.745e-17  1.6328e-18 
   6128.581   3.6309e-17  1.6075e-18 
   6129.742   3.7486e-17  1.6011e-18 
   6130.904   3.5642e-17  1.5917e-18 
   6132.064   3.8434e-17  1.6207e-18 
   6133.226   3.5619e-17  1.6088e-18 
   6134.387   3.4332e-17  1.6191e-18 
   6135.548   3.6427e-17  1.6336e-18 
    6136.71   3.3598e-17  1.6391e-18 
   6137.872   3.5954e-17  1.6569e-18 
   6139.033   3.9924e-17  1.6654e-18 
   6140.195   3.8917e-17   1.683e-18 
   6141.356   3.6341e-17  1.6699e-18 
   6142.518   3.8818e-17   1.682e-18 
    6143.68   3.4797e-17  1.6573e-18 
   6144.841   3.2658e-17  1.6291e-18 
   6146.003   4.2025e-17  1.6762e-18 
   6147.164   3.6994e-17  1.6445e-18 
   6148.327   3.5283e-17  1.6078e-18 
   6149.488   3.4193e-17   1.591e-18 
    6150.65   3.6752e-17  1.6088e-18 
   6151.812   3.5051e-17  1.6085e-18 
   6152.975   3.6816e-17  1.6466e-18 
   6154.136   3.6139e-17  1.6756e-18 
   6155.298   3.7211e-17   1.704e-18 
    6156.46   3.9341e-17  1.7301e-18 
   6157.623   3.8387e-17  1.7207e-18 
   6158.784   3.8895e-17  1.7077e-18 
   6159.947   3.5224e-17  1.6643e-18 
   6161.109   3.7337e-17  1.6177e-18 
   6162.271   3.8209e-17  1.5996e-18 
   6163.434    3.816e-17  1.5813e-18 
   6164.596   3.6344e-17  1.5573e-18 
   6165.758   3.7566e-17  1.5764e-18 
    6166.92   3.6321e-17  1.6079e-18 
   6168.083   3.6647e-17  1.6439e-18 
   6169.246   3.8224e-17  1.6459e-18 
   6170.408   3.6063e-17  1.6449e-18 
    6171.57   3.6527e-17  1.6448e-18 
   6172.734   3.3418e-17   1.628e-18 
   6173.896   3.7404e-17  1.6205e-18 
   6175.059   3.4344e-17  1.6222e-18 
   6176.221   3.4079e-17  1.6029e-18 
   6177.385    3.881e-17  1.6139e-18 
   6178.547   3.8621e-17  1.6276e-18 
    6179.71   3.4093e-17  1.5972e-18 
   6180.873   3.7451e-17  1.6023e-18 
   6182.036   3.7124e-17  1.5849e-18 
   6183.198   3.6483e-17  1.5857e-18 
   6184.361   3.6422e-17  1.5672e-18 
   6185.524   3.5108e-17  1.5518e-18 
   6186.688   3.7279e-17  1.5542e-18 
   6187.852   3.5104e-17    1.55e-18 
   6189.014   3.1886e-17  1.5385e-18 
   6190.177   3.6213e-17  1.5529e-18 
    6191.34   3.5548e-17  1.5543e-18 
   6192.503   3.5281e-17  1.5478e-18 
   6193.667   3.3797e-17  1.5515e-18 
    6194.83   3.3441e-17  1.5267e-18 
   6195.993   3.4888e-17  1.5326e-18 
   6197.157   3.5551e-17  1.5211e-18 
   6198.321   3.3693e-17  1.5382e-18 
   6199.484   3.4709e-17  1.5708e-18 
   6200.648   3.6187e-17  1.5941e-18 
   6201.812   3.7685e-17  1.6052e-18 
   6202.975    3.787e-17  1.6088e-18 
   6204.139   3.5902e-17  1.5952e-18 
   6205.302   3.7394e-17  1.5786e-18 
   6206.466   3.7463e-17  1.5591e-18 
   6207.629   3.5445e-17  1.5378e-18 
   6208.793   3.5938e-17  1.5404e-18 
   6209.957   3.3084e-17  1.5338e-18 
   6211.121   3.9818e-17  1.5591e-18 
   6212.285    3.729e-17  1.5416e-18 
   6213.449   3.4146e-17  1.5291e-18 
   6214.613   4.0328e-17   1.553e-18 
   6215.777   3.5663e-17   1.543e-18 
   6216.942   3.6065e-17  1.5444e-18 
   6218.106   3.3187e-17   1.568e-18 
    6219.27   3.6321e-17  1.5981e-18 
   6220.434   3.7822e-17  1.6067e-18 
   6221.599   3.8462e-17  1.6073e-18 
   6222.762   3.5696e-17  1.5998e-18 
   6223.926   3.4312e-17  1.5714e-18 
   6225.091   3.5511e-17  1.5417e-18 
   6226.255   3.6112e-17  1.5268e-18 
   6227.419   3.6568e-17  1.5065e-18 
   6228.584   3.6162e-17   1.514e-18 
   6229.748   3.3627e-17   1.512e-18 
   6230.914   3.8563e-17  1.6093e-18 
   6232.078   3.8269e-17   1.723e-18 
   6233.242   3.5491e-17  1.8158e-18 
   6234.408    3.774e-17   1.873e-18 
   6235.572   3.4394e-17  1.9076e-18 
   6236.738   3.4279e-17  1.9077e-18 
   6237.902     3.34e-17  1.8624e-18 
   6239.066   3.4196e-17  1.7974e-18 
   6240.231   3.4741e-17  1.7385e-18 
   6241.396   3.5985e-17  1.6974e-18 
   6242.561   3.6711e-17  1.6704e-18 
   6243.726   3.8267e-17  1.6296e-18 
   6244.891    3.881e-17  1.6104e-18 
   6246.056   3.7637e-17  1.5816e-18 
   6247.221   3.6375e-17  1.5298e-18 
   6248.386   3.6099e-17   1.522e-18 
   6249.551   3.7848e-17  1.5061e-18 
   6250.717   3.4733e-17  1.4986e-18 
   6251.882   3.7314e-17  1.4954e-18 
   6253.047   3.6269e-17  1.5508e-18 
   6254.212   3.7083e-17  1.6549e-18 
   6255.378   3.4437e-17  1.7263e-18 
   6256.543   3.8048e-17   1.807e-18 
   6257.708   3.5611e-17  1.8244e-18 
   6258.874   3.9886e-17  1.8528e-18 
   6260.039   3.3563e-17   1.765e-18 
   6261.205   3.3973e-17  1.7121e-18 
   6262.371   3.4009e-17  1.6839e-18 
   6263.536     3.46e-17  1.6848e-18 
   6264.702   3.5385e-17  1.6679e-18 
   6265.867   3.7109e-17  1.6635e-18 
   6267.033   3.4554e-17   1.616e-18 
   6268.199   3.7314e-17  1.5818e-18 
   6269.365    3.676e-17  1.5493e-18 
   6270.531   3.7619e-17  1.5318e-18 
   6271.696   3.9842e-17  1.5215e-18 
   6272.862   3.7791e-17  1.5204e-18 
   6274.028   3.3075e-17   1.518e-18 
   6275.194   3.6244e-17  1.5385e-18 
    6276.36   3.7076e-17  1.6099e-18 
   6277.526   3.5065e-17  1.6032e-18 
   6278.692   3.5435e-17  1.6176e-18 
   6279.858   3.6581e-17  1.5691e-18 
   6281.024   3.2988e-17  1.5194e-18 
   6282.191   3.7931e-17  1.5465e-18 
   6283.357   3.2396e-17  1.6082e-18 
   6284.523   3.4205e-17  1.6799e-18 
   6285.689   3.6276e-17  1.7739e-18 
   6286.855   3.5434e-17  1.7535e-18 
   6288.022   3.5259e-17   1.797e-18 
   6289.189   3.4168e-17    1.76e-18 
   6290.356    3.324e-17  1.6313e-18 
   6291.521   3.3542e-17   1.553e-18 
   6292.688    3.424e-17  1.5218e-18 
   6293.854   3.1253e-17  1.6032e-18 
   6295.021   3.4509e-17  2.1508e-18 
   6296.188   2.8376e-17  3.4247e-18 
   6297.354    3.637e-17  4.4653e-18 
   6298.521   3.2471e-17  4.9997e-18 
   6299.688   3.9329e-17  5.2801e-18 
   6300.854   2.7324e-17  5.3628e-18 
   6302.021   2.7091e-17  5.0256e-18 
   6303.188   4.5291e-17  4.2018e-18 
   6304.355   4.3418e-17  3.3217e-18 
   6305.522   4.0203e-17  2.6931e-18 
   6306.689   4.0122e-17  2.2515e-18 
   6307.856   3.6502e-17  1.9617e-18 
   6309.023   3.4159e-17  1.7759e-18 
    6310.19   3.2441e-17  1.6445e-18 
   6311.357   3.3624e-17  1.5303e-18 
   6312.524   3.4003e-17   1.491e-18 
   6313.692   3.2816e-17   1.449e-18 
   6314.858   2.9904e-17  1.4069e-18 
   6316.026   3.5756e-17  1.4175e-18 
   6317.194   3.4735e-17  1.4397e-18 
   6318.362   3.3105e-17  1.4622e-18 
   6319.529   3.4989e-17  1.4911e-18 
   6320.695   3.5786e-17   1.501e-18 
   6321.864   3.4866e-17  1.5189e-18 
    6323.03   3.7425e-17  1.5026e-18 
   6324.198   3.6533e-17  1.4812e-18 
   6325.366    3.384e-17  1.5099e-18 
   6326.533   3.6558e-17  1.5763e-18 
   6327.701   3.5709e-17  1.6363e-18 
   6328.869    3.525e-17  1.6541e-18 
   6330.035   3.3233e-17  1.6642e-18 
   6331.204   3.6341e-17  1.6628e-18 
   6332.371   3.2676e-17  1.5638e-18 
   6333.539   3.3676e-17  1.4938e-18 
   6334.707   3.3246e-17   1.433e-18 
   6335.875   3.2564e-17  1.4008e-18 
   6337.043   3.3967e-17  1.3846e-18 
   6338.211   3.3783e-17  1.3964e-18 
   6339.379   3.4771e-17  1.3833e-18 
   6340.547   3.5396e-17  1.4054e-18 
   6341.715   3.3954e-17  1.3829e-18 
   6342.883   3.6884e-17  1.3956e-18 
   6344.051   3.6063e-17  1.4236e-18 
   6345.219   3.6354e-17  1.4336e-18 
   6346.387   3.6706e-17    1.45e-18 
   6347.555    3.625e-17  1.4576e-18 
   6348.723    3.449e-17  1.4695e-18 
   6349.893   3.2895e-17   1.452e-18 
   6351.061   3.4754e-17  1.4607e-18 
    6352.23   3.7697e-17   1.481e-18 
   6353.398   3.2613e-17  1.5065e-18 
   6354.567   3.7607e-17  1.5344e-18 
   6355.734   3.6695e-17  1.5647e-18 
   6356.903    3.521e-17  1.5644e-18 
   6358.072   3.7784e-17  1.6576e-18 
    6359.24   3.1346e-17   2.065e-18 
   6360.409   3.4196e-17  2.5984e-18 
   6361.578   3.4305e-17  2.9244e-18 
   6362.746   3.5495e-17  3.1117e-18 
   6363.916   3.3285e-17  3.1854e-18 
   6365.084   4.1461e-17  3.1216e-18 
   6366.252   3.9298e-17  2.7198e-18 
   6367.421   3.3637e-17  2.2318e-18 
    6368.59   3.9394e-17  1.9022e-18 
   6369.759   3.6501e-17  1.6578e-18 
   6370.928   3.4053e-17  1.4785e-18 
   6372.098    3.279e-17  1.4031e-18 
   6373.266    3.536e-17  1.3978e-18 
   6374.436   3.2273e-17  1.3753e-18 
   6375.602   3.5403e-17  1.4041e-18 
   6376.771   3.4387e-17  1.3998e-18 
    6377.94    3.712e-17  1.4204e-18 
    6379.11   3.4697e-17  1.4096e-18 
   6380.279   3.4816e-17   1.405e-18 
   6381.449   3.4389e-17  1.4179e-18 
   6382.617   3.6294e-17  1.4301e-18 
   6383.787   3.7073e-17  1.4629e-18 
   6384.957   3.9214e-17  1.4694e-18 
   6386.126    3.446e-17  1.4541e-18 
   6387.295   3.4919e-17  1.4614e-18 
   6388.465   3.5731e-17  1.4378e-18 
   6389.634   3.2302e-17  1.3976e-18 
   6390.804   3.2774e-17  1.3761e-18 
   6391.974   3.5328e-17  1.7955e-18 
   6393.143   3.4893e-17  1.7978e-18 
   6394.313   3.4384e-17  1.7855e-18 
   6395.482   3.3083e-17   1.757e-18 
   6396.652   3.0295e-17  1.7266e-18 
   6397.822   3.3716e-17  1.7672e-18 
   6398.991   3.6026e-17  1.7685e-18 
   6400.162   3.5356e-17  1.7698e-18 
   6401.332   3.2787e-17  1.7529e-18 
   6402.501   3.6183e-17  1.7565e-18 
   6403.671   3.3844e-17  1.7579e-18 
   6404.841   3.6806e-17  1.3312e-18 
   6406.012   3.5261e-17  1.3336e-18 
   6407.181   3.2093e-17  1.3317e-18 
   6408.352    3.499e-17   1.342e-18 
   6409.521   3.3678e-17  1.3341e-18 
   6410.692   3.3897e-17  1.3402e-18 
   6411.862   3.5058e-17  1.3457e-18 
   6413.033     3.62e-17  1.3613e-18 
   6414.202   3.1598e-17  1.3324e-18 
   6415.373   3.2813e-17  1.3512e-18 
   6416.543   3.5992e-17  1.3452e-18 
   6417.713   3.3079e-17  1.7757e-18 
   6418.885   3.7631e-17  1.8099e-18 
   6420.054   3.2171e-17  1.7882e-18 
   6421.225   4.0408e-17  1.8082e-18 
   6422.395   3.8066e-17  1.7935e-18 
   6423.566   3.7177e-17  1.8194e-18 
   6424.736   3.4287e-17  1.7994e-18 
   6425.907   3.5532e-17  1.8169e-18 
   6427.077   3.3211e-17  1.3166e-18 
   6428.248   3.6261e-17  1.3486e-18 
   6429.418     3.67e-17  1.3408e-18 
   6430.589   3.4695e-17  1.3238e-18 
   6431.761   3.4823e-17  1.3235e-18 
   6432.932    3.658e-17  1.3104e-18 
   6434.103   3.5687e-17  1.3168e-18 
   6435.273   3.2816e-17  1.2949e-18 
   6436.444   3.5508e-17  1.3093e-18 
   6437.615   3.4199e-17  1.3052e-18 
   6438.786   3.1908e-17  1.2907e-18 
   6439.958   3.2838e-17  1.3041e-18 
   6441.128   3.5496e-17  1.3051e-18 
   6442.299   3.1773e-17  1.2918e-18 
   6443.471   3.4863e-17  1.3007e-18 
   6444.641    3.348e-17    1.31e-18 
   6445.813    3.188e-17  1.3063e-18 
   6446.984   3.5069e-17  1.3078e-18 
   6448.156   3.6456e-17  1.3343e-18 
   6449.327   3.5038e-17  1.3422e-18 
   6450.497   3.4473e-17   1.352e-18 
   6451.669   3.5797e-17  1.3597e-18 
   6452.841   3.5344e-17  1.3836e-18 
   6454.012   3.7939e-17  1.3907e-18 
   6455.184   3.5118e-17   1.384e-18 
   6456.355    3.457e-17  1.3846e-18 
   6457.527   3.5263e-17  1.3872e-18 
   6458.698   3.4895e-17  1.3825e-18 
    6459.87   3.2471e-17   1.386e-18 
   6461.042   3.6212e-17  1.4248e-18 
   6462.213   3.2294e-17  1.4545e-18 
   6463.385   3.4452e-17  1.4952e-18 
   6464.556   3.2869e-17  1.5183e-18 
   6465.729   3.6265e-17  1.5459e-18 
   6466.901   3.3287e-17  1.5669e-18 
   6468.073   3.3341e-17  1.5616e-18 
   6469.245   3.3208e-17  1.5446e-18 
   6470.416   3.5574e-17  1.5379e-18 
   6471.588   3.1729e-17  1.5022e-18 
    6472.76    3.415e-17  1.4645e-18 
   6473.932   3.2941e-17  1.4106e-18 
   6475.104   3.3005e-17  1.3861e-18 
   6476.277   3.1956e-17  1.3623e-18 
   6477.449   3.3358e-17  1.3656e-18 
    6478.62   3.2823e-17  1.3519e-18 
   6479.793   3.3218e-17   1.342e-18 
   6480.965   3.3022e-17  1.3315e-18 
   6482.137   3.4884e-17  1.3235e-18 
    6483.31   3.0611e-17  1.3023e-18 
   6484.482   3.2838e-17  1.3024e-18 
   6485.654   3.0822e-17  1.2894e-18 
   6486.824   3.2947e-17  1.2923e-18 
   6487.997   3.5771e-17  1.3098e-18 
   6489.169   3.3613e-17  1.2952e-18 
   6490.342   3.3423e-17  1.2957e-18 
   6491.514   3.4706e-17  1.2967e-18 
   6492.688   3.3562e-17  1.3106e-18 
    6493.86   3.2065e-17  1.3647e-18 
   6495.032   3.4044e-17  1.4911e-18 
   6496.205   3.3777e-17  1.5675e-18 
   6497.377   3.3572e-17  1.6242e-18 
    6498.55   3.2606e-17  1.6499e-18 
   6499.723   3.4055e-17  1.6513e-18 
   6500.896   3.0078e-17  1.6036e-18 
   6502.068   3.1057e-17  1.5408e-18 
   6503.241   3.3982e-17   1.495e-18 
   6504.415   3.2142e-17  1.4538e-18 
   6505.588   3.4801e-17  1.4396e-18 
    6506.76   3.5219e-17  1.4115e-18 
   6507.934   3.2536e-17  1.3704e-18 
   6509.107   3.4508e-17  1.3445e-18 
   6510.279   3.2369e-17  1.3239e-18 
   6511.452   2.8856e-17  1.3066e-18 
   6512.625   3.4059e-17  1.3062e-18 
   6513.799   3.3376e-17  1.3125e-18 
   6514.973   3.6196e-17  1.3172e-18 
   6516.146   3.3266e-17  1.3008e-18 
   6517.319   3.1336e-17  1.2956e-18 
   6518.491   3.0868e-17  1.3123e-18 
   6519.665   3.0953e-17  1.3308e-18 
   6520.839   3.1971e-17  1.3489e-18 
   6522.012   3.1889e-17  1.3612e-18 
   6523.185   3.1383e-17  1.3623e-18 
   6524.359    3.425e-17  1.3504e-18 
   6525.533   3.5621e-17  1.3457e-18 
   6526.706   3.2177e-17  1.3119e-18 
    6527.88   3.0952e-17    1.33e-18 
   6529.053   3.4139e-17  1.4093e-18 
   6530.226   3.2734e-17  1.4844e-18 
   6531.401   3.0772e-17  1.5187e-18 
   6532.573   3.0893e-17  1.5529e-18 
   6533.747   3.4419e-17  1.5614e-18 
   6534.922   3.2552e-17   1.524e-18 
   6536.095   3.1191e-17  1.4211e-18 
   6537.269   3.3219e-17  1.3797e-18 
   6538.443   3.3575e-17  1.3423e-18 
   6539.617   3.0845e-17  1.3302e-18 
   6540.791   3.3063e-17  1.3789e-18 
   6541.964   3.2339e-17  1.3843e-18 
   6543.139   3.1806e-17  1.3931e-18 
   6544.312   3.1199e-17  1.3904e-18 
   6545.487    3.314e-17  1.3889e-18 
   6546.661   3.1833e-17   1.356e-18 
   6547.834    3.328e-17  1.3333e-18 
   6549.009   3.6298e-17  1.3893e-18 
   6550.184   3.2435e-17  1.4584e-18 
   6551.358   3.2446e-17  1.5351e-18 
   6552.532   3.4511e-17  1.5662e-18 
   6553.706    3.354e-17  1.5786e-18 
    6554.88   3.2408e-17  1.5568e-18 
   6556.055   3.1451e-17  1.4798e-18 
   6557.229   3.2814e-17  1.4083e-18 
   6558.404   3.3728e-17  1.4101e-18 
   6559.579   3.4682e-17  1.4526e-18 
   6560.753   3.5563e-17  1.4825e-18 
   6561.927   3.3434e-17  1.5006e-18 
   6563.102   3.1604e-17  1.5172e-18 
   6564.276   2.7878e-17  1.4941e-18 
   6565.451   3.0013e-17  1.4528e-18 
   6566.625   3.4065e-17  1.4159e-18 
   6567.801   3.1808e-17  1.3911e-18 
   6568.974   3.2585e-17   1.383e-18 
    6570.15   3.0124e-17  1.3643e-18 
   6571.325    3.258e-17  1.3455e-18 
     6572.5   3.3055e-17  1.3507e-18 
   6573.674    3.319e-17  1.4164e-18 
   6574.849   3.3772e-17  1.4546e-18 
   6576.024   3.2181e-17  1.4831e-18 
   6577.199   3.4179e-17  1.4991e-18 
   6578.374   3.1546e-17  1.4846e-18 
   6579.548   3.1986e-17  1.4388e-18 
   6580.723   3.3588e-17  1.3809e-18 
   6581.899   2.9251e-17  1.3181e-18 
   6583.074   3.0852e-17  1.2846e-18 
   6584.249   3.4237e-17  1.2833e-18 
   6585.425   3.2223e-17    1.27e-18 
     6586.6   2.8764e-17  1.2549e-18 
   6587.775   3.0034e-17  1.2529e-18 
    6588.95   3.2488e-17  1.2609e-18 
   6590.125   3.3121e-17  1.2499e-18 
   6591.301   3.3718e-17   1.261e-18 
   6592.477   3.4802e-17  1.2737e-18 
   6593.651   2.9744e-17  1.2848e-18 
   6594.827    3.404e-17  1.3037e-18 
   6596.002   3.0461e-17  1.2889e-18 
   6597.178   3.0664e-17  1.3035e-18 
   6598.354   3.0379e-17  1.2948e-18 
   6599.529   3.4486e-17  1.3182e-18 
   6600.705   3.0092e-17  1.3287e-18 
    6601.88   3.1345e-17  1.3445e-18 
   6603.056   3.2626e-17  1.3761e-18 
   6604.231   3.1749e-17  1.3766e-18 
   6605.407   3.3712e-17   1.349e-18 
   6606.583    3.228e-17  1.3354e-18 
   6607.759   3.3579e-17  1.2922e-18 
   6608.934   3.0737e-17  1.2728e-18 
   6610.111   3.3234e-17  1.2668e-18 
   6611.287   3.4085e-17  1.2685e-18 
   6612.462   3.2197e-17  1.2518e-18 
   6613.638   3.2186e-17  1.2381e-18 
   6614.814   3.2104e-17  1.2374e-18 
    6615.99   3.1201e-17  1.2399e-18 
   6617.166   2.9958e-17  1.2368e-18 
   6618.341   3.4497e-17  1.2425e-18 
   6619.518   3.3521e-17   1.236e-18 
   6620.695   3.2678e-17  1.2327e-18 
   6621.871   3.1446e-17  1.2312e-18 
   6623.047   3.0287e-17  1.2425e-18 
   6624.223    3.222e-17  1.2463e-18 
     6625.4   3.2431e-17  1.2621e-18 
   6626.575   3.2667e-17  1.2736e-18 
   6627.752   3.1277e-17  1.2596e-18 
   6628.928   3.3583e-17  1.2703e-18 
   6630.105   3.3011e-17  1.2902e-18 
   6631.281   3.2246e-17  1.2826e-18 
   6632.458   3.2024e-17  1.2796e-18 
   6633.634   3.0764e-17  1.2764e-18 
   6634.811   3.0414e-17  1.2792e-18 
   6635.987   2.9122e-17  1.2626e-18 
   6637.164   3.0315e-17  1.2597e-18 
    6638.34   3.0423e-17  1.2361e-18 
   6639.517   3.1622e-17  1.2387e-18 
   6640.693    3.225e-17  1.2269e-18 
    6641.87   3.2741e-17  1.2315e-18 
   6643.047   3.2102e-17  1.2253e-18 
   6644.221   2.9441e-17  1.2124e-18 
   6645.398   3.2155e-17  1.2254e-18 
   6646.575   2.9005e-17  1.1995e-18 
   6647.752    3.209e-17  1.2191e-18 
   6648.929   3.0037e-17  1.2142e-18 
   6650.106    3.339e-17  1.2263e-18 
   6651.283   3.1208e-17  1.2158e-18 
    6652.46   2.9516e-17  1.2209e-18 
   6653.636   3.0373e-17  1.2188e-18 
   6654.814   3.0313e-17  1.2148e-18 
    6655.99   3.3923e-17  1.2297e-18 
   6657.167   3.1958e-17   1.212e-18 
   6658.345   3.0853e-17  1.2164e-18 
   6659.522   3.1115e-17  1.2166e-18 
   6660.699   2.7977e-17  1.2168e-18 
   6661.877   3.1005e-17  1.2191e-18 
   6663.053   3.2725e-17  1.2275e-18 
   6664.231   3.3841e-17  1.2316e-18 
   6665.408   3.0338e-17  1.2355e-18 
   6666.586     2.93e-17  1.2328e-18 
   6667.764   2.8469e-17  1.2222e-18 
   6668.941   2.9693e-17  1.2192e-18 
   6670.117   2.9185e-17  1.2115e-18 
   6671.295   3.2184e-17  1.2162e-18 
   6672.473   2.8243e-17  1.1948e-18 
   6673.651   3.1309e-17  1.2046e-18 
   6674.828   2.9276e-17  1.1876e-18 
   6676.006    2.926e-17  1.1962e-18 
   6677.182   3.3448e-17  1.2032e-18 
    6678.36   3.1318e-17  1.1944e-18 
   6679.539   3.0647e-17  1.1945e-18 
   6680.717   3.0679e-17  1.1961e-18 
   6681.891   3.1469e-17  1.1997e-18 
   6683.069   3.2012e-17  1.2046e-18 
   6684.248   3.3454e-17  1.2074e-18 
   6685.425   3.0589e-17  1.1997e-18 
   6686.604   2.9266e-17  1.1938e-18 
   6687.781    3.023e-17  1.2132e-18 
   6688.959   3.0363e-17   1.193e-18 
   6690.136   2.9931e-17   1.199e-18 
   6691.315   3.1894e-17   1.198e-18 
   6692.493   3.0606e-17  1.2044e-18 
   6693.671   2.8216e-17  1.2044e-18 
   6694.849   3.3113e-17   1.243e-18 
   6696.027   3.0606e-17  1.2631e-18 
   6697.205   2.9797e-17  1.3005e-18 
   6698.383   3.0082e-17  1.3698e-18 
   6699.562   3.1034e-17  1.4507e-18 
    6700.74   3.2055e-17  1.5105e-18 
   6701.918   3.4209e-17  1.5677e-18 
   6703.096   3.1789e-17  1.5826e-18 
   6704.275   2.8256e-17  1.5667e-18 
   6705.453   3.0319e-17  1.5055e-18 
   6706.632   3.1431e-17  1.4611e-18 
   6707.811    3.111e-17  1.3763e-18 
   6708.988   3.3393e-17  1.3209e-18 
   6710.167   2.9276e-17  1.2646e-18 
   6711.345   3.2179e-17  1.2249e-18 
   6712.524    2.875e-17  1.2045e-18 
   6713.703   3.0982e-17  1.2029e-18 
   6714.881   2.9921e-17  1.2026e-18 
    6716.06   2.9184e-17   1.189e-18 
   6717.239   3.0797e-17  1.2022e-18 
   6718.417   2.9547e-17   1.197e-18 
   6719.596   2.8708e-17  1.1884e-18 
   6720.774   2.9122e-17  1.1741e-18 
   6721.953   3.1696e-17  1.1958e-18 
   6723.132   3.0501e-17  1.1773e-18 
   6724.311   3.1887e-17  1.1808e-18 
    6725.49   3.0145e-17  1.1709e-18 
   6726.669   2.9285e-17  1.1737e-18 
   6727.848   3.1982e-17  1.1694e-18 
   6729.026    2.892e-17  1.1754e-18 
   6730.206   3.0391e-17  1.1846e-18 
   6731.385   3.0163e-17  1.1792e-18 
   6732.564   2.8508e-17   1.165e-18 
   6733.742   3.0763e-17  1.1791e-18 
   6734.922   3.0961e-17  1.1727e-18 
   6736.101   2.5466e-17  1.1561e-18 
   6737.281   2.8855e-17  1.1722e-18 
    6738.46    2.987e-17  1.1705e-18 
   6739.639   2.9481e-17   1.182e-18 
   6740.818   3.2671e-17  1.1813e-18 
   6741.998   3.0398e-17  1.1896e-18 
   6743.176   3.1778e-17  1.1836e-18 
   6744.356     3.12e-17   1.187e-18 
   6745.536   3.1569e-17  1.1847e-18 
   6746.715   2.9978e-17  1.1768e-18 
   6747.895   3.1617e-17  1.1671e-18 
   6749.074   3.1324e-17  1.1713e-18 
   6750.253   2.8946e-17  1.1615e-18 
   6751.434   3.0043e-17  1.1588e-18 
   6752.612   3.0985e-17   1.153e-18 
   6753.792   2.9086e-17  1.1549e-18 
   6754.971    3.274e-17  1.1584e-18 
   6756.151   2.9613e-17  1.1485e-18 
   6757.332    3.242e-17  1.1584e-18 
    6758.51   2.9452e-17  1.1556e-18 
    6759.69   3.0608e-17  1.1546e-18 
   6760.871   2.9449e-17  1.1459e-18 
    6762.05    2.852e-17  1.1464e-18 
    6763.23    2.746e-17  1.1315e-18 
   6764.409   2.8064e-17  1.1441e-18 
   6765.589   3.0715e-17  1.1448e-18 
   6766.769   3.0906e-17  1.1423e-18 
   6767.949   3.1629e-17   1.151e-18 
    6769.13   3.1512e-17  1.1482e-18 
   6770.309   2.8467e-17  1.1362e-18 
    6771.49   3.1462e-17  1.1379e-18 
   6772.669   3.2186e-17  1.1501e-18 
    6773.85   3.0286e-17  1.1454e-18 
   6775.031   3.1659e-17   1.144e-18 
    6776.21   3.2079e-17  1.1512e-18 
    6777.39   3.0252e-17  1.1324e-18 
   6778.571   2.9274e-17  1.1342e-18 
    6779.75   2.6218e-17  1.1318e-18 
    6780.93   2.9424e-17  1.1406e-18 
   6782.112   2.8371e-17  1.1391e-18 
   6783.292    3.095e-17  1.1481e-18 
   6784.471   2.8641e-17  1.1451e-18 
   6785.652   2.8407e-17  1.1418e-18 
   6786.833   3.1226e-17  1.1589e-18 
   6788.013   2.8998e-17  1.1416e-18 
   6789.194   2.7959e-17  1.1412e-18 
   6790.374   3.0508e-17   1.148e-18 
   6791.554   3.0263e-17  1.1448e-18 
   6792.735   2.9797e-17  1.1351e-18 
   6793.916   3.0256e-17  1.1316e-18 
   6795.096   2.8884e-17  1.1282e-18 
   6796.277   2.9641e-17  1.1264e-18 
   6797.457   3.1619e-17  1.1362e-18 
   6798.638   2.8906e-17  1.1203e-18 
   6799.819   2.8731e-17  1.1237e-18 
   6800.999   3.1593e-17  1.1329e-18 
    6802.18   2.9633e-17  1.1258e-18 
   6803.361   3.0753e-17  1.1344e-18 
   6804.542   3.1966e-17  1.1353e-18 
   6805.723   3.2077e-17  1.1318e-18 
   6806.904   3.1082e-17  1.1256e-18 
   6808.084   3.0995e-17  1.1288e-18 
   6809.266   2.6355e-17  1.1221e-18 
   6810.447   3.1131e-17  1.1264e-18 
   6811.627   3.1283e-17  1.1342e-18 
   6812.809   2.7742e-17  1.1058e-18 
   6813.989   2.8971e-17  1.1204e-18 
   6815.171   3.0947e-17  1.1281e-18 
   6816.352   2.9959e-17  1.1188e-18 
   6817.533   2.7521e-17  1.1174e-18 
   6818.714   2.7766e-17  1.1195e-18 
   6819.896   3.1138e-17  1.1351e-18 
   6821.076    3.116e-17  1.1356e-18 
   6822.258   3.1546e-17  1.1586e-18 
    6823.44   2.8136e-17  1.2182e-18 
   6824.621   2.9135e-17  1.3191e-18 
   6825.802   2.9012e-17   1.434e-18 
   6826.984   3.0233e-17  1.5472e-18 
   6828.165   2.9829e-17  1.6238e-18 
   6829.346   2.9677e-17  1.6774e-18 
   6830.528   2.9579e-17   1.729e-18 
   6831.709   2.6977e-17  1.7217e-18 
   6832.891   2.7926e-17  1.6837e-18 
   6834.072   2.8407e-17  1.6385e-18 
   6835.254   3.1413e-17  1.5841e-18 
   6836.436   2.9232e-17  1.4882e-18 
   6837.617   2.8014e-17   1.391e-18 
   6838.799   2.9594e-17  1.3402e-18 
   6839.981   3.0696e-17  1.3026e-18 
   6841.162   3.0639e-17  1.2697e-18 
   6842.344   2.9151e-17  1.2561e-18 
   6843.526    2.797e-17  1.2227e-18 
   6844.708   2.9632e-17  1.1832e-18 
   6845.889   2.7968e-17  1.1572e-18 
   6847.072   2.8982e-17  1.1456e-18 
   6848.253   2.9686e-17   1.128e-18 
   6849.435   2.7605e-17  1.1252e-18 
   6850.617    2.789e-17  1.1248e-18 
   6851.799   2.7754e-17  1.1199e-18 
   6852.981   2.7546e-17  1.1186e-18 
   6854.163   2.9871e-17  1.1129e-18 
   6855.345   2.9457e-17  1.1227e-18 
   6856.527   2.9874e-17   1.124e-18 
   6857.709    3.125e-17  1.1474e-18 
   6858.892   3.0037e-17  1.2789e-18 
   6860.074   2.6625e-17  1.4835e-18 
   6861.256   2.9249e-17  1.6524e-18 
   6862.438   2.6869e-17  1.7661e-18 
   6863.621   2.6374e-17  1.7911e-18 
   6864.802   2.8703e-17  1.9744e-18 
   6865.985   2.9621e-17   1.968e-18 
   6867.167   2.6891e-17  1.8587e-18 
    6868.35   3.0262e-17  1.8179e-18 
   6869.532   3.1174e-17  1.6994e-18 
   6870.715   2.7781e-17  1.6232e-18 
   6871.897   3.2992e-17  1.5752e-18 
   6873.079   3.0547e-17   1.503e-18 
   6874.261   3.3379e-17  1.4273e-18 
   6875.444    2.841e-17  1.3474e-18 
   6876.626   3.3073e-17  1.3383e-18 
   6877.809   3.0767e-17  1.3145e-18 
   6878.992   2.7797e-17  1.2823e-18 
   6880.174   2.9711e-17   1.287e-18 
   6881.357   3.0003e-17  1.2971e-18 
    6882.54   2.8176e-17  1.3137e-18 
   6883.722   2.8067e-17  1.3219e-18 
   6884.906   2.9766e-17  1.3349e-18 
   6886.088   2.7844e-17  1.3461e-18 
   6887.271   2.9332e-17  1.4003e-18 
   6888.454   2.9593e-17  1.4711e-18 
   6889.636   3.0725e-17  1.4361e-18 
   6890.819    3.254e-17  1.4255e-18 
   6892.002   2.9191e-17  1.3726e-18 
   6893.185   2.8634e-17  1.2971e-18 
   6894.368   2.9905e-17   1.256e-18 
   6895.551    2.774e-17    1.24e-18 
   6896.734   2.7601e-17  1.2935e-18 
   6897.918   3.0485e-17  1.3686e-18 
   6899.101   3.2312e-17  1.4203e-18 
   6900.284   2.5233e-17  1.3882e-18 
   6901.467   2.7308e-17  1.3792e-18 
    6902.65   2.8472e-17  1.3244e-18 
   6903.833   2.7605e-17  1.2848e-18 
   6905.016   3.0356e-17  1.2712e-18 
     6906.2    2.939e-17  1.2161e-18 
   6907.383   2.8645e-17  1.1928e-18 
   6908.566   2.6756e-17  1.2508e-18 
    6909.75   2.6408e-17  1.3081e-18 
   6910.933   2.7771e-17  1.3677e-18 
   6912.116   2.9591e-17  1.3935e-18 
     6913.3   3.1651e-17  1.4079e-18 
   6914.483   2.7943e-17  1.3627e-18 
   6915.667   2.9726e-17  1.2403e-18 
   6916.851   2.3711e-17   1.209e-18 
   6918.033    2.663e-17  1.2411e-18 
   6919.217   2.7837e-17  1.3424e-18 
     6920.4   2.7018e-17  1.4291e-18 
   6921.584   2.5087e-17  1.4893e-18 
   6922.767   2.9963e-17  1.5513e-18 
   6923.952   2.5088e-17  1.5729e-18 
   6925.135   3.0147e-17  1.4895e-18 
   6926.319   3.1524e-17  1.3581e-18 
   6927.503   2.6976e-17  1.2608e-18 
   6928.687   2.9957e-17  1.2051e-18 
    6929.87   2.8718e-17  1.1502e-18 
   6931.054   2.9813e-17  1.1318e-18 
   6932.238   2.9651e-17  1.1075e-18 
   6933.422   2.9975e-17     1.1e-18 
   6934.606   2.9177e-17  1.1363e-18 
    6935.79   2.7895e-17  1.1895e-18 
   6936.973    2.951e-17  1.2476e-18 
   6938.157   3.2232e-17  1.2805e-18 
   6939.342   2.8273e-17  1.2943e-18 
   6940.526   2.6938e-17   1.283e-18 
    6941.71   3.1813e-17  1.2507e-18 
   6942.894   2.7051e-17  1.2054e-18 
   6944.078   2.9385e-17  1.2491e-18 
   6945.262   2.5953e-17  1.3457e-18 
   6946.447   2.4698e-17  1.4423e-18 
    6947.63    2.509e-17  1.5113e-18 
   6948.814   2.7715e-17  1.5543e-18 
   6949.999   2.7392e-17  1.5461e-18 
   6951.183    3.166e-17  1.4679e-18 
   6952.367   3.0546e-17  1.3482e-18 
   6953.552   2.6599e-17  1.2452e-18 
   6954.736   3.0612e-17  1.2022e-18 
    6955.92   3.1124e-17  1.1599e-18 
   6957.105   2.9068e-17  1.1344e-18 
    6958.29   2.8308e-17  1.1088e-18 
   6959.474   2.6123e-17   1.105e-18 
   6960.658   2.6798e-17  1.0903e-18 
   6961.843   2.7602e-17  1.0935e-18 
   6963.028   2.6813e-17  1.0938e-18 
   6964.211   2.6537e-17  1.0961e-18 
   6965.396   2.9473e-17  1.1397e-18 
    6966.58   2.9268e-17  1.1858e-18 
   6967.766   2.7773e-17  1.1987e-18 
    6968.95   2.6948e-17   1.225e-18 
   6970.135   2.6786e-17  1.2262e-18 
    6971.32   2.9425e-17  1.2175e-18 
   6972.504   2.6834e-17  1.1986e-18 
   6973.689   2.9564e-17  1.2284e-18 
   6974.875   3.0272e-17  1.2774e-18 
   6976.059   2.8807e-17  1.3308e-18 
   6977.243   2.6596e-17  1.3517e-18 
   6978.428   2.7003e-17  1.3664e-18 
   6979.613   2.9214e-17  1.3561e-18 
   6980.798   2.7181e-17  1.2904e-18 
   6981.982   2.6965e-17  1.2101e-18 
   6983.168   2.6305e-17  1.1627e-18 
   6984.352   2.5889e-17  1.1385e-18 
   6985.537   2.8042e-17  1.1103e-18 
   6986.722   2.8824e-17  1.0977e-18 
   6987.907   2.6442e-17  1.0799e-18 
   6989.093   2.9228e-17  1.0866e-18 
   6990.277   2.8843e-17  1.0782e-18 
   6991.463   2.7657e-17  1.0706e-18 
   6992.648   2.8017e-17  1.0692e-18 
   6993.833   2.8791e-17  1.0788e-18 
   6995.019   2.8596e-17  1.0761e-18 
   6996.204   2.8735e-17  1.0805e-18 
   6997.389   2.8762e-17   1.092e-18 
   6998.574   3.0408e-17  1.1254e-18 
    6999.76   2.8744e-17  1.1429e-18 
   7000.945   2.7855e-17  1.1579e-18 
   7002.131   2.6656e-17  1.1695e-18 
   7003.316   2.8572e-17  1.1833e-18 
   7004.501   2.6958e-17  1.1632e-18 
   7005.687    2.858e-17  1.1556e-18 
   7006.872   2.7961e-17  1.1461e-18 
   7008.058   2.9322e-17  1.1684e-18 
   7009.243   2.9023e-17  1.1921e-18 
   7010.429   3.1258e-17  1.2021e-18 
   7011.615   2.6389e-17    1.19e-18 
   7012.801   2.6278e-17  1.1696e-18 
   7013.986   2.7676e-17   1.131e-18 
   7015.172   2.8267e-17  1.0969e-18 
   7016.357   2.8948e-17  1.0783e-18 
   7017.543   2.7575e-17  1.0531e-18 
   7018.729   2.6957e-17  1.0475e-18 
   7019.915   2.8317e-17  1.0316e-18 
     7021.1   2.8328e-17  1.0351e-18 
   7022.286   2.8023e-17  1.0288e-18 
   7023.472   2.6253e-17  1.0325e-18 
   7024.658   2.6021e-17  1.0279e-18 
   7025.844   2.9845e-17  1.0428e-18 
   7027.029   2.7445e-17  1.0275e-18 
   7028.215   2.7912e-17  1.0331e-18 
   7029.401   2.8623e-17  1.0427e-18 
   7030.587   2.7933e-17  1.0393e-18 
   7031.774   2.5536e-17  1.0318e-18 
    7032.96   2.7504e-17  1.0428e-18 
   7034.146   2.7657e-17  1.0354e-18 
   7035.332   2.4179e-17  1.0117e-18 
   7036.517   2.7277e-17  1.0324e-18 
   7037.704    2.839e-17  1.0478e-18 
    7038.89   2.7108e-17  1.0525e-18 
   7040.076   2.6762e-17  1.0593e-18 
   7041.262   2.8352e-17  1.0793e-18 
   7042.448   2.7958e-17   1.086e-18 
   7043.635    2.786e-17  1.1156e-18 
   7044.822    2.601e-17  1.1346e-18 
   7046.008    2.519e-17  1.1673e-18 
   7047.194   2.8617e-17  1.2059e-18 
    7048.38   2.6877e-17  1.2016e-18 
   7049.566   2.6429e-17   1.203e-18 
   7050.753    2.794e-17  1.1875e-18 
   7051.939    2.799e-17  1.1557e-18 
   7053.126   2.8494e-17  1.1438e-18 
   7054.312   2.7651e-17  1.1212e-18 
   7055.498   2.8785e-17  1.1052e-18 
   7056.685   2.6664e-17  1.0816e-18 
   7057.873   2.9046e-17  1.0775e-18 
   7059.059   2.6185e-17  1.0656e-18 
   7060.245   2.7642e-17   1.075e-18 
   7061.432   2.7927e-17  1.0811e-18 
   7062.619   2.7994e-17  1.0909e-18 
   7063.805   2.6844e-17  1.0942e-18 
   7064.993   2.7644e-17   1.098e-18 
   7066.178   2.8405e-17    1.11e-18 
   7067.365   2.7678e-17  1.1038e-18 
   7068.552   2.7732e-17  1.0984e-18 
   7069.739   2.5418e-17  1.0875e-18 
   7070.926   2.7515e-17  1.0971e-18 
   7072.113   2.8609e-17  1.0942e-18 
   7073.299   2.7657e-17  1.0815e-18 
   7074.486   2.9719e-17  1.0853e-18 
   7075.673   2.6773e-17  1.0791e-18 
    7076.86   2.7269e-17  1.0702e-18 
   7078.047   2.6584e-17   1.075e-18 
   7079.235   2.8486e-17  1.0875e-18 
   7080.421   2.7534e-17  1.0792e-18 
   7081.609   2.7369e-17  1.0803e-18 
   7082.796   2.8506e-17  1.0815e-18 
   7083.982   3.0199e-17  1.0895e-18 
    7085.17   2.6762e-17  1.0753e-18 
   7086.357   3.0542e-17  1.1063e-18 
   7087.543   2.6797e-17  1.0967e-18 
   7088.731   2.6411e-17  1.1063e-18 
   7089.918   2.7208e-17  1.0971e-18 
   7091.105   2.7207e-17  1.0856e-18 
   7092.293   2.5699e-17  1.0707e-18 
    7093.48    2.748e-17  1.0567e-18 
   7094.667   2.7065e-17  1.0379e-18 
   7095.855   2.6412e-17  1.0324e-18 
   7097.042   2.7579e-17  1.0201e-18 
    7098.23   2.7923e-17  1.0206e-18 
   7099.417   2.8883e-17  1.0125e-18 
   7100.604   2.7433e-17  1.0194e-18 
   7101.791   2.7035e-17  1.0126e-18 
   7102.979   2.5063e-17   1.006e-18 
   7104.167   2.5516e-17  1.0117e-18 
   7105.354   2.6741e-17  1.0159e-18 
   7106.542   2.5021e-17  1.0107e-18 
   7107.729   2.6903e-17  1.0181e-18 
   7108.917   2.5382e-17  1.0111e-18 
   7110.105   2.4484e-17  1.0136e-18 
   7111.292   2.9388e-17  1.0211e-18 
    7112.48   2.8021e-17  1.0092e-18 
   7113.668   2.8178e-17  1.0109e-18 
   7114.855   2.6766e-17  1.0101e-18 
   7116.043    2.545e-17  1.0031e-18 
   7117.231   2.7099e-17  1.0049e-18 
   7118.419   2.6917e-17  1.0064e-18 
   7119.606   2.7257e-17  1.0013e-18 
   7120.795   2.6764e-17  9.9235e-19 
   7121.982   2.9853e-17  1.0093e-18 
    7123.17   2.7364e-17  1.0238e-18 
   7124.358   2.6371e-17  1.0287e-18 
   7125.546    2.535e-17  1.0322e-18 
   7126.734   2.8012e-17  1.0492e-18 
   7127.922   2.9189e-17   1.063e-18 
    7129.11   2.8588e-17   1.067e-18 
   7130.298   2.7016e-17  1.0622e-18 
   7131.486   2.4986e-17  1.0586e-18 
   7132.674   2.8013e-17   1.061e-18 
   7133.862   2.4749e-17  1.0362e-18 
   7135.051   2.5842e-17  1.0248e-18 
   7136.239   2.7545e-17  1.0242e-18 
   7137.427   2.8318e-17  1.0171e-18 
   7138.615   2.5172e-17  1.0228e-18 
   7139.802   2.8164e-17  1.0496e-18 
   7140.991   2.8514e-17   1.076e-18 
    7142.18   2.8503e-17  1.0936e-18 
   7143.368   2.9694e-17   1.112e-18 
   7144.556   2.4887e-17  1.1121e-18 
   7145.744   2.7169e-17  1.1082e-18 
   7146.933   2.6146e-17  1.1068e-18 
   7148.121   2.7084e-17  1.0881e-18 
   7149.309   2.6742e-17  1.0742e-18 
   7150.498   2.6083e-17  1.0497e-18 
   7151.687   2.5744e-17  1.0362e-18 
   7152.875   2.5678e-17  1.0261e-18 
   7154.063   2.6363e-17  1.0236e-18 
   7155.252   2.6368e-17  1.0236e-18 
    7156.44   2.7606e-17  1.0331e-18 
   7157.629   2.6055e-17  1.0346e-18 
   7158.818   2.7291e-17  1.0484e-18 
   7160.006    2.811e-17  1.0524e-18 
   7161.195   2.6176e-17  1.0542e-18 
   7162.384   2.8293e-17  1.0631e-18 
   7163.572   2.4965e-17  1.0455e-18 
   7164.761   2.4621e-17  1.0541e-18 
   7165.949    2.601e-17  1.0516e-18 
   7167.138   2.6251e-17  1.0548e-18 
   7168.327   2.8081e-17  1.0539e-18 
   7169.516   2.3866e-17   1.038e-18 
   7170.705   2.7689e-17  1.0461e-18 
   7171.894   2.7191e-17  1.0488e-18 
   7173.082   2.4792e-17  1.0451e-18 
   7174.271   2.5926e-17  1.0464e-18 
    7175.46    2.616e-17  1.0473e-18 
    7176.65   2.6174e-17  1.0522e-18 
   7177.838   2.6296e-17  1.0517e-18 
   7179.027    2.479e-17  1.0439e-18 
   7180.216   2.4986e-17  1.0433e-18 
   7181.405   2.8231e-17  1.1082e-18 
   7182.594   2.8459e-17  1.0929e-18 
   7183.783   2.8394e-17  1.0912e-18 
   7184.972   2.7249e-17  1.0963e-18 
   7186.162   2.5433e-17  1.0683e-18 
   7187.351   2.8333e-17  1.0581e-18 
    7188.54   2.4537e-17  1.0288e-18 
   7189.729   2.6507e-17  1.0331e-18 
   7190.918   2.7508e-17  1.0303e-18 
   7192.107   2.9725e-17  1.0369e-18 
   7193.297   2.9535e-17  1.0592e-18 
   7194.486   2.5921e-17  1.0371e-18 
   7195.675   2.4988e-17  1.0224e-18 
   7196.865   2.7583e-17  1.0279e-18 
   7198.054   2.6006e-17   1.031e-18 
   7199.244   2.6989e-17   1.047e-18 
   7200.433   2.8104e-17  1.0371e-18 
   7201.622   2.6627e-17  1.0393e-18 
   7202.812   2.9161e-17  1.0398e-18 
   7204.001   2.6207e-17  1.0185e-18 
    7205.19   2.6655e-17  1.0097e-18 
    7206.38   2.7654e-17  1.0067e-18 
    7207.57   2.6402e-17  1.0304e-18 
   7208.759   2.6432e-17  1.0099e-18 
   7209.948   2.6206e-17  9.9967e-19 
   7211.138    2.708e-17   9.882e-19 
   7212.327    2.805e-17  9.8792e-19 
   7213.517   2.6874e-17  9.8122e-19 
   7214.707   2.5179e-17  9.7067e-19 
   7215.896   2.4997e-17   9.807e-19 
   7217.087   2.5181e-17  9.8394e-19 
   7218.277   2.7377e-17  9.9198e-19 
   7219.466    2.607e-17  1.0067e-18 
   7220.656   2.4117e-17   1.004e-18 
   7221.845   2.6516e-17  1.0256e-18 
   7223.035   2.7608e-17  1.0312e-18 
   7224.225   2.6202e-17  1.0305e-18 
   7225.414    2.682e-17  1.0328e-18 
   7226.605   2.7948e-17  1.0363e-18 
   7227.794   2.6589e-17  1.0247e-18 
   7228.984   2.6968e-17  1.0319e-18 
   7230.175   2.6291e-17  1.0373e-18 
   7231.365   2.4103e-17  1.0314e-18 
   7232.554   2.5924e-17  1.0436e-18 
   7233.744   2.5254e-17  1.1048e-18 
   7234.934   2.5634e-17  1.2696e-18 
   7236.124   2.7171e-17  1.5006e-18 
   7237.315   2.8491e-17   1.714e-18 
   7238.505   2.3377e-17  1.8717e-18 
   7239.695   2.5073e-17  2.0133e-18 
   7240.885    2.127e-17  2.1374e-18 
   7242.075   2.2859e-17  2.1872e-18 
   7243.265   2.6596e-17  2.1666e-18 
   7244.455   2.8461e-17  2.1041e-18 
   7245.646   2.2943e-17   2.019e-18 
   7246.835   2.4626e-17  1.8658e-18 
   7248.025   2.2671e-17  1.6531e-18 
   7249.216    2.426e-17  1.5078e-18 
   7250.406   2.5429e-17  1.4175e-18 
   7251.597   2.3242e-17  1.3532e-18 
   7252.787   2.6472e-17  1.3287e-18 
   7253.976   2.4752e-17  1.3163e-18 
   7255.165   2.5389e-17  1.2738e-18 
   7256.356   2.4413e-17   1.224e-18 
   7257.546   2.5775e-17  1.1726e-18 
   7258.737   2.4031e-17  1.1301e-18 
   7259.927   2.4448e-17  1.0796e-18 
   7261.118   2.7962e-17   1.069e-18 
   7262.309   2.5488e-17  1.0495e-18 
   7263.499   2.5271e-17  1.1128e-18 
   7264.689    2.731e-17  1.1145e-18 
    7265.88   2.7344e-17  1.1345e-18 
    7267.07   2.3421e-17  1.1328e-18 
   7268.261   2.5561e-17  1.1269e-18 
   7269.453    2.769e-17  1.1391e-18 
   7270.642   2.3441e-17   1.241e-18 
   7271.833   2.3991e-17  1.5598e-18 
   7273.023   2.5752e-17   1.884e-18 
   7274.214   2.7566e-17   2.142e-18 
   7275.405   2.4038e-17  2.2725e-18 
   7276.597   2.0659e-17  2.2856e-18 
   7277.788   2.7312e-17  2.2304e-18 
   7278.977   2.7432e-17  1.9954e-18 
   7280.168   2.0102e-17  1.7898e-18 
   7281.359   2.7239e-17   1.713e-18 
    7282.55   2.6756e-17   1.671e-18 
   7283.741   2.5465e-17  1.6323e-18 
   7284.933   2.2951e-17   1.638e-18 
   7286.124   2.5985e-17   1.603e-18 
   7287.314   2.6643e-17  1.4397e-18 
   7288.504   2.3778e-17    1.32e-18 
   7289.696   2.4252e-17  1.2528e-18 
   7290.887   2.6682e-17  1.2026e-18 
   7292.078   2.5822e-17  1.1721e-18 
   7293.269   2.6808e-17  1.2256e-18 
    7294.46   2.9656e-17  1.2368e-18 
   7295.651   2.5986e-17  1.2228e-18 
   7296.843   2.7678e-17  1.2043e-18 
   7298.033   2.4979e-17  1.1721e-18 
   7299.225   2.5084e-17  1.1857e-18 
   7300.416   2.4155e-17  1.2498e-18 
   7301.608    2.486e-17     1.3e-18 
   7302.798   2.4402e-17  1.3306e-18 
    7303.99   2.5594e-17   1.363e-18 
    7305.18   2.2816e-17  1.3306e-18 
   7306.372   1.9554e-17  1.2439e-18 
   7307.564   2.3647e-17  1.1803e-18 
   7308.755   2.5684e-17  1.1323e-18 
   7309.947   2.5751e-17  1.1103e-18 
   7311.137   2.6609e-17  1.2504e-18 
   7312.329   2.6238e-17  1.5166e-18 
    7313.52   2.3257e-17  1.7327e-18 
   7314.712   2.1702e-17  1.8662e-18 
   7315.904   2.8826e-17   1.959e-18 
   7317.094    2.211e-17  1.9613e-18 
   7318.288   2.5317e-17  1.8033e-18 
   7319.477    2.357e-17  1.5698e-18 
    7320.67   2.4085e-17  1.3651e-18 
   7321.861   2.4211e-17  1.2153e-18 
    7323.05   2.6357e-17  1.0909e-18 
   7324.242   2.4908e-17  1.1094e-18 
   7325.434   2.5636e-17  1.2398e-18 
   7326.625   2.5073e-17  1.3557e-18 
   7327.816   2.7714e-17  1.4329e-18 
   7329.008   2.5638e-17  1.4843e-18 
     7330.2   2.5071e-17  1.4795e-18 
   7331.391   2.7977e-17  1.3935e-18 
   7332.583   2.4211e-17  1.2592e-18 
   7333.775   2.5365e-17   1.175e-18 
   7334.968   2.6255e-17  1.1699e-18 
   7336.158   2.5273e-17  1.3645e-18 
    7337.35   2.4765e-17    1.67e-18 
   7338.542   2.2236e-17  1.8839e-18 
   7339.735   2.4504e-17  2.0214e-18 
   7340.927   2.4793e-17  2.1116e-18 
   7342.119    2.354e-17   2.068e-18 
    7343.31   2.4007e-17  1.8452e-18 
   7344.502   2.5998e-17  1.6008e-18 
   7345.694   2.2992e-17  1.4026e-18 
   7346.885   2.6826e-17  1.2438e-18 
   7348.078   2.6057e-17  1.1227e-18 
   7349.271   2.6732e-17   1.078e-18 
   7350.462   2.4525e-17  1.0696e-18 
   7351.654    2.586e-17  1.0631e-18 
   7352.846   2.6547e-17  1.0809e-18 
   7354.038   2.4602e-17  1.1673e-18 
    7355.23   2.5673e-17  1.2809e-18 
   7356.423   2.4616e-17  1.3668e-18 
   7357.615   2.6882e-17   1.428e-18 
   7358.807   2.2974e-17  1.4501e-18 
     7360.0   2.4599e-17  1.4215e-18 
   7361.192   2.3182e-17  1.3379e-18 
   7362.384   2.5513e-17  1.2314e-18 
   7363.576   2.5874e-17  1.2317e-18 
   7364.768   2.8794e-17  1.3791e-18 
    7365.96   2.3476e-17  1.5714e-18 
   7367.153   2.3921e-17  1.7364e-18 
   7368.345   2.6014e-17  1.8478e-18 
   7369.538   2.8645e-17  1.9086e-18 
    7370.73   2.4734e-17  1.8638e-18 
   7371.922   2.9058e-17  1.6705e-18 
   7373.115   2.5178e-17  1.4677e-18 
   7374.308   2.6972e-17  1.3153e-18 
     7375.5   2.4596e-17  1.1719e-18 
   7376.692    2.473e-17  1.0578e-18 
   7377.885   2.5706e-17   1.033e-18 
   7379.077   2.5299e-17  1.0142e-18 
    7380.27   2.6609e-17  1.0133e-18 
   7381.462   2.3169e-17  1.0059e-18 
   7382.655   2.6414e-17  1.0028e-18 
   7383.848   2.6504e-17  1.0092e-18 
    7385.04   2.4889e-17  1.0091e-18 
   7386.233   2.6196e-17  1.0231e-18 
   7387.426   2.5216e-17  1.0923e-18 
   7388.618   2.5982e-17  1.1884e-18 
    7389.81   2.3937e-17  1.2688e-18 
   7391.003    2.548e-17  1.3029e-18 
   7392.195   2.4775e-17  1.3327e-18 
   7393.389   2.6302e-17  1.3124e-18 
   7394.582   2.6531e-17   1.236e-18 
   7395.774   2.8514e-17  1.1801e-18 
   7396.968   2.8942e-17  1.2316e-18 
    7398.16    2.359e-17  1.3529e-18 
   7399.353   2.3245e-17  1.4632e-18 
   7400.546   2.3486e-17  1.5485e-18 
   7401.738   2.6777e-17  1.5994e-18 
   7402.931   2.7575e-17  1.5744e-18 
   7404.125   2.8117e-17  1.4575e-18 
   7405.318   2.5397e-17  1.3046e-18 
    7406.51   2.5041e-17  1.1823e-18 
   7407.703   2.6152e-17  1.0874e-18 
   7408.896   2.5204e-17  1.0145e-18 
   7410.089   2.7921e-17  1.0004e-18 
   7411.283   2.9039e-17  9.9885e-19 
   7412.475   2.6689e-17  1.0071e-18 
   7413.669   2.8774e-17  1.0171e-18 
   7414.862   2.6158e-17  1.0054e-18 
   7416.054    2.624e-17  9.9965e-19 
   7417.248   2.8795e-17  1.0021e-18 
   7418.441    2.553e-17  9.8774e-19 
   7419.634   2.4926e-17  9.7054e-19 
   7420.827    2.498e-17  9.7486e-19 
   7422.021   2.6004e-17  9.6986e-19 
   7423.214   2.4247e-17  9.7137e-19 
   7424.407   2.6953e-17  9.9273e-19 
     7425.6   2.6057e-17  1.0425e-18 
   7426.794   2.8026e-17   1.092e-18 
   7427.988    2.818e-17   1.132e-18 
    7429.18   2.5633e-17  1.1563e-18 
   7430.373   2.6505e-17   1.166e-18 
   7431.567   2.9456e-17  1.1466e-18 
    7432.76   2.7803e-17  1.1147e-18 
   7433.953   2.5828e-17  1.1492e-18 
   7435.147   2.7138e-17  1.2246e-18 
   7436.341   2.5545e-17  1.2623e-18 
   7437.534   2.9354e-17  1.3206e-18 
   7438.728   2.5769e-17   1.334e-18 
   7439.921   2.5968e-17  1.3034e-18 
   7441.115   2.7111e-17  1.2077e-18 
   7442.308   2.7243e-17  1.1304e-18 
   7443.501   2.7387e-17  1.0538e-18 
   7444.695   2.6775e-17  1.0056e-18 
   7445.889   2.6509e-17  9.7357e-19 
   7447.083   2.6165e-17  9.6362e-19 
   7448.276   2.4898e-17  9.5187e-19 
    7449.47   2.7917e-17  9.5851e-19 
   7450.663   2.7645e-17  9.5709e-19 
   7451.857   2.6793e-17  9.5063e-19 
   7453.051   2.6856e-17  9.5362e-19 
   7454.245   2.6841e-17  9.6395e-19 
   7455.439   2.6142e-17   9.594e-19 
   7456.632   2.9806e-17  9.9096e-19 
   7457.826   2.8433e-17  9.9084e-19 
   7459.019   2.6446e-17   1.008e-18 
   7460.214   2.6936e-17  1.0331e-18 
   7461.407   2.8237e-17  1.0551e-18 
   7462.601   2.5539e-17  1.0857e-18 
   7463.795   2.5548e-17  1.1083e-18 
   7464.988   2.5122e-17  1.1248e-18 
   7466.182   2.4854e-17  1.1442e-18 
   7467.376   2.7131e-17  1.1799e-18 
   7468.571   2.5054e-17   1.211e-18 
   7469.765   2.7403e-17  1.2598e-18 
   7470.958    2.637e-17  1.3048e-18 
   7472.152   2.8674e-17  1.3285e-18 
   7473.346   2.7675e-17  1.3198e-18 
    7474.54   2.8165e-17  1.3125e-18 
   7475.734   2.8423e-17  1.3076e-18 
   7476.928    2.605e-17  1.2985e-18 
   7478.123   2.5942e-17  1.3142e-18 
   7479.316   2.4138e-17  1.3586e-18 
   7480.511   2.5951e-17  1.4093e-18 
   7481.705   2.6555e-17  1.4091e-18 
   7482.899   2.4311e-17  1.3831e-18 
   7484.093   2.6101e-17  1.3508e-18 
   7485.287   2.5957e-17  1.2753e-18 
   7486.482   2.7283e-17  1.1828e-18 
   7487.676   2.6471e-17  1.1113e-18 
    7488.87   2.5071e-17  1.0731e-18 
   7490.061     2.65e-17    1.06e-18 
   7491.256   2.4422e-17  1.0462e-18 
   7492.451     2.57e-17   1.057e-18 
   7493.642   2.5618e-17  1.0717e-18 
   7494.837   2.4936e-17  1.0567e-18 
   7496.031   2.6645e-17  1.0405e-18 
   7497.225    2.661e-17  1.0119e-18 
   7498.419   2.5317e-17  9.9627e-19 
   7499.614   2.5092e-17  9.8656e-19 
   7500.808     2.49e-17  9.6957e-19 
   7502.003   2.7016e-17  9.7156e-19 
   7503.197   2.5251e-17  9.6689e-19 
   7504.391   2.5623e-17  9.6325e-19 
   7505.586    2.465e-17  9.5725e-19 
    7506.78   2.9064e-17  9.5912e-19 
   7507.975   2.6547e-17  9.4628e-19 
   7509.169   2.6227e-17  9.4633e-19 
   7510.363   2.6161e-17  9.4735e-19 
   7511.559   2.5682e-17  9.4671e-19 
   7512.753   2.4942e-17  9.6786e-19 
   7513.948   2.8195e-17   9.982e-19 
   7515.143   2.6683e-17  1.0209e-18 
   7516.337   2.3604e-17  1.0323e-18 
   7517.532    2.769e-17  1.0822e-18 
   7518.727    2.797e-17  1.1717e-18 
   7519.921   2.6537e-17  1.3707e-18 
   7521.116   2.5615e-17   1.551e-18 
    7522.31   2.6729e-17  1.6682e-18 
   7523.505   2.6225e-17  1.7439e-18 
   7524.699   2.8889e-17  1.7676e-18 
   7525.895   2.4974e-17  1.6727e-18 
   7527.089   2.5611e-17  1.5464e-18 
   7528.284   2.6851e-17  1.4447e-18 
   7529.479   2.4801e-17  1.3658e-18 
   7530.675   2.7939e-17  1.2882e-18 
   7531.869   2.7588e-17   1.228e-18 
   7533.064   2.4318e-17  1.1539e-18 
   7534.259   2.6511e-17  1.0949e-18 
   7535.453   2.4977e-17  1.0489e-18 
   7536.649   2.7104e-17  1.0374e-18 
   7537.844   2.3279e-17  1.0209e-18 
   7539.038   2.5344e-17  1.0307e-18 
   7540.233    2.653e-17  1.0461e-18 
   7541.428    2.641e-17   1.041e-18 
   7542.623   2.5562e-17  1.0179e-18 
   7543.819   2.6174e-17  9.9561e-19 
   7545.014   2.6369e-17  9.8065e-19 
   7546.208    2.665e-17  9.6579e-19 
   7547.403   2.5272e-17  9.6258e-19 
   7548.598   2.6028e-17  9.5694e-19 
   7549.793   2.5785e-17  9.5854e-19 
    7550.99    2.533e-17   9.592e-19 
   7552.184   2.4572e-17  9.8187e-19 
   7553.379   2.5044e-17   1.029e-18 
   7554.575    2.601e-17  1.0835e-18 
    7555.77    2.397e-17  1.1124e-18 
   7556.965   2.5437e-17  1.1465e-18 
    7558.16   2.8867e-17  1.1559e-18 
   7559.356   2.4775e-17  1.1231e-18 
    7560.55   2.6189e-17  1.0715e-18 
   7561.745   2.6482e-17  1.0346e-18 
   7562.941   2.6559e-17  1.0139e-18 
   7564.136   2.2956e-17  9.9652e-19 
   7565.332   2.5752e-17  1.0095e-18 
   7566.527   2.5286e-17  1.0873e-18 
   7567.722   2.4146e-17  1.2483e-18 
   7568.917   2.6751e-17  1.3877e-18 
   7570.114   2.6001e-17  1.4902e-18 
   7571.309   2.3291e-17  1.5585e-18 
   7572.504   2.3783e-17  1.5645e-18 
     7573.7   2.5384e-17  1.4846e-18 
   7574.895    2.565e-17  1.3454e-18 
    7576.09   2.6683e-17  1.2269e-18 
   7577.286   2.3861e-17  1.1155e-18 
   7578.481    2.658e-17  1.0199e-18 
   7579.677   2.4905e-17  9.7111e-19 
   7580.872   2.7057e-17  9.8232e-19 
   7582.069   2.5401e-17  1.0436e-18 
   7583.262   2.3365e-17  1.0972e-18 
   7584.459   2.6461e-17  1.1484e-18 
   7585.655   2.5808e-17   1.172e-18 
   7586.851   2.2765e-17  1.1787e-18 
   7588.046   2.4841e-17   1.132e-18 
   7589.242   2.1616e-17  1.0633e-18 
   7590.438   2.5791e-17   1.112e-18 
   7591.633   2.4457e-17  1.1271e-18 
   7592.828   2.7068e-17  1.2242e-18 
   7594.025   2.6258e-17  1.4829e-18 
    7595.22   2.6349e-17  1.7708e-18 
   7596.416   2.9331e-17  2.0844e-18 
   7597.611    2.352e-17   2.335e-18 
   7598.808    2.725e-17  2.6092e-18 
   7600.004   2.4823e-17  2.6793e-18 
   7601.199   2.3526e-17  2.5998e-18 
   7602.395   2.5673e-17  2.4806e-18 
   7603.591   2.0834e-17  2.3244e-18 
   7604.787   2.4206e-17  2.2442e-18 
   7605.983   1.5256e-17  2.1163e-18 
   7607.178   1.6767e-17  2.0454e-18 
   7608.374    2.137e-17  2.0014e-18 
   7609.571    2.196e-17  1.8543e-18 
   7610.766   1.9337e-17  1.7817e-18 
   7611.962   2.6007e-17   1.694e-18 
   7613.158   2.0206e-17  1.6214e-18 
   7614.354    2.427e-17  1.5923e-18 
    7615.55   2.4499e-17  1.5035e-18 
   7616.746   2.7538e-17  1.4374e-18 
   7617.942   2.6842e-17  1.4003e-18 
   7619.138   2.1431e-17  1.4257e-18 
   7620.334   2.1635e-17  1.5008e-18 
   7621.531   2.3782e-17   1.506e-18 
   7622.727   3.0592e-17  1.6782e-18 
   7623.923    2.477e-17   1.768e-18 
   7625.118     2.35e-17  1.8525e-18 
   7626.315   2.6492e-17  2.0169e-18 
   7627.511   2.2155e-17  2.1022e-18 
   7628.707   2.0676e-17  2.1273e-18 
   7629.903   2.1356e-17  2.0692e-18 
     7631.1    2.117e-17  1.9656e-18 
   7632.296   2.3447e-17  1.7642e-18 
   7633.492   2.6178e-17  1.6567e-18 
   7634.688   2.8509e-17  1.6113e-18 
   7635.885   2.7313e-17   1.563e-18 
   7637.081   2.7293e-17  1.4668e-18 
   7638.278    2.616e-17  1.4059e-18 
   7639.473   2.4758e-17  1.4236e-18 
   7640.669   2.6788e-17  1.4361e-18 
   7641.866   2.4988e-17   1.384e-18 
   7643.063   2.2802e-17  1.3803e-18 
   7644.258   2.5029e-17  1.3918e-18 
   7645.455   2.5778e-17  1.3174e-18 
   7646.652   2.4141e-17  1.2742e-18 
   7647.848   2.4684e-17  1.2907e-18 
   7649.045    2.543e-17  1.3329e-18 
    7650.24   2.8769e-17  1.3488e-18 
   7651.437   2.6409e-17  1.3429e-18 
   7652.634   2.5081e-17  1.3413e-18 
    7653.83   2.6209e-17  1.3188e-18 
   7655.027   2.5588e-17   1.283e-18 
   7656.223   2.6911e-17  1.2347e-18 
    7657.42   2.2038e-17  1.2149e-18 
   7658.617   2.6309e-17  1.2488e-18 
   7659.814   2.4379e-17  1.3312e-18 
    7661.01   2.6429e-17  1.3676e-18 
   7662.206   2.5679e-17  1.3596e-18 
   7663.404   2.4828e-17  1.3453e-18 
   7664.599   2.8585e-17  1.3111e-18 
   7665.796    2.332e-17  1.2033e-18 
   7666.992   2.5774e-17  1.1302e-18 
   7668.189   2.7039e-17  1.1175e-18 
   7669.386   2.7441e-17  1.0861e-18 
   7670.583    2.533e-17  1.0409e-18 
    7671.78   2.5728e-17  1.0582e-18 
   7672.976   2.5896e-17  1.0537e-18 
   7674.173   2.4248e-17  1.0302e-18 
    7675.37   2.6226e-17  1.0316e-18 
   7676.567   2.4538e-17  1.0155e-18 
   7677.763    2.558e-17  1.0372e-18 
    7678.96   2.6976e-17  1.0598e-18 
   7680.157   2.5535e-17  1.0698e-18 
   7681.354   2.7847e-17  1.0795e-18 
   7682.551   2.3158e-17  1.0768e-18 
   7683.748   2.5699e-17  1.1095e-18 
   7684.944   2.4207e-17  1.1294e-18 
   7686.142   2.4919e-17  1.1109e-18 
   7687.339    2.372e-17  1.1025e-18 
   7688.535   2.6639e-17  1.1401e-18 
   7689.732   2.6784e-17  1.1663e-18 
   7690.929   2.3789e-17  1.1162e-18 
   7692.125   2.3648e-17  1.0866e-18 
   7693.323   1.9714e-17  1.0592e-18 
    7694.52   2.5051e-17  1.0762e-18 
   7695.717   2.5688e-17  1.0987e-18 
   7696.914     2.74e-17  1.1117e-18 
   7698.111   2.5814e-17  1.1249e-18 
   7699.308   2.2525e-17  1.1201e-18 
   7700.505   2.2811e-17  1.1155e-18 
   7701.702   2.4727e-17  1.0827e-18 
     7702.9   2.5728e-17  1.0573e-18 
   7704.096   2.4253e-17  1.0192e-18 
   7705.294    2.445e-17   9.992e-19 
   7706.491   2.4903e-17  1.0233e-18 
   7707.688   2.4619e-17  1.2201e-18 
   7708.885    2.374e-17  1.5211e-18 
   7710.082   2.3384e-17  1.7572e-18 
    7711.28   2.6163e-17  1.9878e-18 
   7712.477    2.219e-17  2.2607e-18 
   7713.674    3.102e-17  2.4608e-18 
   7714.871   2.6945e-17  2.4736e-18 
   7716.068   2.7216e-17  2.4422e-18 
   7717.266   2.0661e-17  2.3468e-18 
   7718.463   2.4383e-17  2.1739e-18 
    7719.66   2.2716e-17  1.9069e-18 
   7720.857   2.3628e-17  1.6892e-18 
   7722.054   2.6005e-17  1.5713e-18 
   7723.252   2.3807e-17   1.494e-18 
   7724.449   2.2819e-17  1.4474e-18 
   7725.647   2.3833e-17  1.4277e-18 
   7726.844   2.4503e-17  1.3896e-18 
   7728.042   2.6009e-17  1.3161e-18 
   7729.239   2.3334e-17  1.2168e-18 
   7730.436   2.2612e-17  1.1481e-18 
   7731.634    2.316e-17  1.1217e-18 
   7732.831   2.3358e-17  1.1104e-18 
   7734.029   2.0678e-17  1.0963e-18 
   7735.226   2.2851e-17  1.1048e-18 
   7736.424    2.662e-17  1.1218e-18 
   7737.621   2.3365e-17  1.1011e-18 
   7738.819   2.5678e-17  1.0713e-18 
   7740.016   2.1784e-17  1.0403e-18 
   7741.214   2.4892e-17  1.0443e-18 
   7742.412   2.3099e-17  1.0221e-18 
   7743.609    2.396e-17  1.0358e-18 
   7744.806   2.4892e-17  1.1478e-18 
   7746.004   2.6591e-17   1.519e-18 
   7747.202    1.834e-17  1.9276e-18 
     7748.4   2.1146e-17  2.2102e-18 
   7749.597   2.1703e-17   2.385e-18 
   7750.794   2.3527e-17  2.4786e-18 
   7751.992   2.1397e-17  2.4005e-18 
   7753.189   2.2378e-17  2.1197e-18 
   7754.386   2.6492e-17  1.8163e-18 
   7755.585   2.4464e-17  1.6697e-18 
   7756.783   1.9325e-17  1.6054e-18 
    7757.98   2.5079e-17  1.6028e-18 
   7759.179    2.394e-17  1.6367e-18 
   7760.376   2.4642e-17  1.6591e-18 
   7761.574   2.2484e-17  1.5906e-18 
   7762.772   2.1402e-17  1.4247e-18 
    7763.97   2.5772e-17  1.2688e-18 
   7765.167   2.3298e-17  1.1604e-18 
   7766.365   2.6096e-17  1.0969e-18 
   7767.563   2.4101e-17  1.1725e-18 
   7768.761   2.2796e-17  1.3591e-18 
   7769.958   2.4929e-17  1.5806e-18 
   7771.156   2.1155e-17  1.7826e-18 
   7772.355   2.3811e-17  1.9112e-18 
   7773.552   2.1305e-17  1.9478e-18 
   7774.751   2.3188e-17   1.897e-18 
   7775.948   2.0672e-17  1.8075e-18 
   7777.146   2.0925e-17  1.7144e-18 
   7778.344   2.5222e-17  1.6187e-18 
   7779.542   2.8221e-17  1.5362e-18 
    7780.74    2.173e-17  1.4914e-18 
   7781.939   2.3009e-17  1.4307e-18 
   7783.136   2.3177e-17  1.3179e-18 
   7784.335   2.4389e-17  1.2352e-18 
   7785.532   2.3253e-17  1.1681e-18 
    7786.73   2.4066e-17  1.1401e-18 
   7787.929   2.4655e-17  1.1517e-18 
   7789.127   2.4602e-17  1.3285e-18 
   7790.325   2.8586e-17  1.6836e-18 
   7791.523   2.2533e-17  1.9315e-18 
   7792.721   2.0558e-17    2.08e-18 
   7793.919   2.4523e-17  2.1669e-18 
   7795.117   2.6001e-17  2.1633e-18 
   7796.315   2.8052e-17  1.9519e-18 
   7797.513   2.0314e-17  1.6581e-18 
   7798.712   2.2517e-17  1.4248e-18 
    7799.91   2.3217e-17  1.2196e-18 
   7801.108   2.4251e-17  1.0641e-18 
   7802.306   2.3912e-17  1.0109e-18 
   7803.505   2.3173e-17  1.0953e-18 
   7804.703   2.3358e-17  1.2757e-18 
   7805.901   2.4849e-17  1.4301e-18 
   7807.099   2.2185e-17   1.506e-18 
   7808.297   2.7312e-17   1.579e-18 
   7809.495   1.9312e-17  1.5779e-18 
   7810.693   2.2292e-17  1.4857e-18 
   7811.892    2.096e-17  1.3553e-18 
   7813.091   2.6443e-17  1.2651e-18 
   7814.288   2.4079e-17  1.1797e-18 
   7815.487   2.4062e-17  1.1676e-18 
   7816.685    2.608e-17  1.4072e-18 
   7817.884   2.4508e-17  1.7829e-18 
   7819.082   2.4189e-17  2.0557e-18 
   7820.281   2.2485e-17  2.2229e-18 
   7821.479   2.4711e-17  2.3334e-18 
   7822.677   2.1796e-17  2.2971e-18 
   7823.875   2.2597e-17  2.0542e-18 
   7825.074   2.0234e-17  1.7486e-18 
   7826.272   2.3971e-17   1.501e-18 
   7827.471   2.4119e-17  1.2734e-18 
    7828.67   2.4895e-17  1.1046e-18 
   7829.868   2.1053e-17  1.0465e-18 
   7831.067   2.0873e-17  1.0251e-18 
   7832.265    2.133e-17  1.0147e-18 
   7833.464   2.5228e-17   1.016e-18 
   7834.662   2.3335e-17  1.0053e-18 
    7835.86   2.1989e-17    1.04e-18 
   7837.059   2.2232e-17  1.1709e-18 
   7838.258   2.4173e-17  1.3291e-18 
   7839.456   1.9576e-17  1.4205e-18 
   7840.655   2.4017e-17  1.4832e-18 
   7841.854    2.155e-17   1.505e-18 
   7843.052   2.2261e-17  1.4476e-18 
   7844.252   2.5607e-17  1.3138e-18 
    7845.45   2.1966e-17  1.2302e-18 
   7846.649   2.3538e-17  1.2141e-18 
   7847.847   2.1686e-17  1.2948e-18 
   7849.046    2.243e-17  1.6318e-18 
   7850.244   2.1937e-17  1.9677e-18 
   7851.443     2.93e-17  2.9131e-18 
   7852.641   2.6058e-17  3.0746e-18 
    7853.84   2.7816e-17  3.1547e-18 
   7855.039   2.4609e-17  3.0275e-18 
   7856.237   2.1552e-17  2.7417e-18 
   7857.437   1.9153e-17  2.5678e-18 
   7858.635   2.1243e-17  2.4392e-18 
   7859.834   2.3045e-17  2.3088e-18 
   7861.033   2.5973e-17  2.1913e-18 
   7862.233    2.434e-17  1.6071e-18 
    7863.43   2.3415e-17   1.457e-18 
    7864.63    2.538e-17  1.3987e-18 
   7865.829   2.4053e-17   1.447e-18 
   7867.027   2.4824e-17   1.591e-18 
   7868.226   2.4483e-17  1.7257e-18 
   7869.425    2.425e-17  1.7825e-18 
   7870.624   2.2719e-17  1.7995e-18 
   7871.823   2.6038e-17  1.7515e-18 
   7873.022   2.3208e-17  1.5986e-18 
    7874.22   2.2412e-17  1.4554e-18 
    7875.42   1.8681e-17    1.42e-18 
   7876.618    2.116e-17  1.4338e-18 
   7877.818   2.4095e-17  1.5012e-18 
   7879.017   2.4339e-17  1.5915e-18 
   7880.215   2.4075e-17   1.621e-18 
   7881.415   2.2745e-17  1.5784e-18 
   7882.614    2.068e-17  1.5097e-18 
   7883.812   2.4218e-17  1.4356e-18 
   7885.012   2.2801e-17  1.4341e-18 
   7886.211   2.3182e-17  1.5812e-18 
    7887.41   2.3232e-17  1.7178e-18 
   7888.609   2.5236e-17  1.8102e-18 
   7889.808   2.3948e-17  1.8706e-18 
   7891.007   2.2329e-17  1.8599e-18 
   7892.206    2.381e-17  1.7045e-18 
   7893.406   2.1038e-17  1.5008e-18 
   7894.605   2.4742e-17  1.3652e-18 
   7895.803    2.317e-17  1.2187e-18 
   7897.004   2.3424e-17  1.1145e-18 
   7898.202   2.1566e-17  1.0594e-18 
   7899.402   2.4936e-17  1.0508e-18 
   7900.601   2.5213e-17  1.0349e-18 
   7901.799   2.0701e-17  1.0141e-18 
   7902.999   2.1168e-17  1.0288e-18 
   7904.198   2.1819e-17  1.0384e-18 
   7905.397   2.1987e-17  1.0423e-18 
   7906.596   2.3333e-17  1.0765e-18 
   7907.796   2.0769e-17  1.1849e-18 
   7908.995   2.4494e-17  1.5379e-18 
   7910.194   2.1092e-17  2.0139e-18 
   7911.393   2.2823e-17  2.3226e-18 
   7912.593   2.0618e-17  2.5212e-18 
   7913.792   2.0063e-17  2.6145e-18 
   7914.991   2.1632e-17  2.5636e-18 
   7916.191   1.9967e-17  2.3292e-18 
    7917.39   2.0497e-17  2.1595e-18 
   7918.589   2.2468e-17  2.0497e-18 
   7919.789   2.1431e-17  1.9513e-18 
   7920.988   2.1049e-17  1.9036e-18 
   7922.187   2.3939e-17  1.8543e-18 
   7923.387   2.8056e-17  1.6924e-18 
   7924.586   2.3697e-17  1.4823e-18 
   7925.786   2.2709e-17  1.3538e-18 
   7926.985   2.3696e-17  1.3462e-18 
   7928.184   2.0869e-17  1.4228e-18 
   7929.384   2.1593e-17  1.5309e-18 
   7930.583   1.9686e-17   1.598e-18 
   7931.782   2.1389e-17  1.6271e-18 
   7932.982   2.2339e-17  1.5664e-18 
   7934.182   2.2619e-17  1.4163e-18 
   7935.381   2.2487e-17  1.2698e-18 
   7936.581   2.2879e-17    1.14e-18 
    7937.78   2.1865e-17  1.0409e-18 
    7938.98   2.1157e-17  9.9287e-19 
   7940.178   2.2386e-17  9.9713e-19 
   7941.379    2.114e-17  9.9848e-19 
   7942.579   2.4174e-17  1.0342e-18 
   7943.778   2.3392e-17  1.0757e-18 
   7944.977   2.0581e-17  1.1775e-18 
   7946.177   2.1136e-17  1.3131e-18 
   7947.376   1.9513e-17  1.3837e-18 
   7948.576   2.1728e-17  1.4331e-18 
   7949.776   2.3176e-17  1.4491e-18 
   7950.975   2.2301e-17  1.3871e-18 
   7952.175   2.0949e-17  1.2528e-18 
   7953.375   2.0698e-17  1.1419e-18 
   7954.574    2.379e-17  1.0505e-18 
   7955.774   2.1931e-17  9.7365e-19 
   7956.974   2.3011e-17  9.4105e-19 
   7958.174   2.0658e-17  9.5423e-19 
   7959.374   2.3302e-17  1.0932e-18 
   7960.573   2.4678e-17  1.4734e-18 
   7961.772   2.3678e-17  1.8277e-18 
   7962.972    2.319e-17    2.04e-18 
   7964.172   2.3184e-17  2.1944e-18 
   7965.372   2.5204e-17  2.2459e-18 
   7966.571   2.2765e-17  2.1128e-18 
   7967.771   2.2233e-17  1.8276e-18 
   7968.971   2.4315e-17  1.5768e-18 
   7970.171   2.1568e-17  1.3413e-18 
    7971.37   2.2125e-17  1.1306e-18 
    7972.57   2.2933e-17  1.0754e-18 
    7973.77   1.9625e-17  1.1192e-18 
   7974.969   2.0407e-17  1.2339e-18 
    7976.17   2.4137e-17  1.4186e-18 
    7977.37   1.9187e-17  1.5476e-18 
   7978.569   2.0725e-17  1.6112e-18 
    7979.77   2.2153e-17  1.6286e-18 
   7980.969   2.1726e-17  1.5714e-18 
   7982.169   2.0517e-17  1.4273e-18 
   7983.369   2.0971e-17  1.2585e-18 
   7984.569   1.8224e-17  1.1404e-18 
    7985.77   2.4143e-17  1.0558e-18 
   7986.969   2.0341e-17  1.0296e-18 
   7988.168    2.288e-17  1.1938e-18 
   7989.369   2.2904e-17  1.5879e-18 
   7990.569   2.4368e-17  1.9353e-18 
    7991.77   2.3447e-17  2.1447e-18 
   7992.969   2.2809e-17  2.2823e-18 
   7994.168   2.0614e-17  2.3059e-18 
   7995.368   1.8772e-17  2.1337e-18 
   7996.569   2.2221e-17  1.8174e-18 
   7997.769   2.2904e-17   1.549e-18 
   7998.969   2.3184e-17  1.3049e-18 
   8000.169   2.1545e-17  1.1146e-18 
   8001.369   2.2939e-17  1.0503e-18 
   8002.569    2.175e-17   1.026e-18 
   8003.768   2.2468e-17   9.967e-19 
   8004.969   2.0941e-17  9.8231e-19 
   8006.168    2.178e-17  9.7134e-19 
   8007.369   2.0838e-17  9.5811e-19 
   8008.569   2.1353e-17  9.9475e-19 
   8009.769   2.5926e-17  1.1153e-18 
   8010.969   2.2141e-17  1.2511e-18 
   8012.169   2.2619e-17  1.3556e-18 
   8013.369   2.3178e-17  1.4203e-18 
    8014.57   2.0337e-17   1.452e-18 
    8015.77   2.1405e-17  1.4223e-18 
    8016.97   2.0727e-17  1.3285e-18 
   8018.171   2.2794e-17  1.2385e-18 
   8019.368   2.1978e-17  1.1863e-18 
   8020.568    2.525e-17  1.2226e-18 
   8021.768   2.2463e-17  1.4553e-18 
   8022.968   2.0228e-17  1.7021e-18 
   8024.168   2.1861e-17  1.8656e-18 
   8025.368   2.6113e-17  2.0031e-18 
   8026.569   2.0254e-17  2.0322e-18 
   8027.769    2.426e-17  1.9162e-18 
   8028.969   2.2315e-17  1.6981e-18 
   8030.169    2.153e-17  1.4873e-18 
    8031.37   2.1071e-17  1.2841e-18 
    8032.57   2.1883e-17   1.117e-18 
    8033.77   2.2134e-17  1.0526e-18 
    8034.97   2.4187e-17  1.0121e-18 
   8036.171   2.1154e-17  9.8264e-19 
   8037.372   2.2739e-17  9.7753e-19 
   8038.572   2.2104e-17  9.5604e-19 
   8039.772   2.1413e-17  9.5937e-19 
   8040.972   2.0408e-17  9.5022e-19 
   8042.173   2.0669e-17   9.458e-19 
   8043.373   2.3069e-17   9.505e-19 
   8044.573   2.3104e-17  9.4429e-19 
   8045.773   1.9095e-17  9.4854e-19 
   8046.974   2.1257e-17  9.9028e-19 
   8048.175   2.0855e-17  1.0874e-18 
   8049.375   2.0757e-17  1.1667e-18 
   8050.576   2.0437e-17  1.2103e-18 
   8051.775   2.1229e-17  1.2564e-18 
   8052.976   2.2594e-17  1.2549e-18 
   8054.176   2.2877e-17  1.1909e-18 
   8055.376   2.2763e-17  1.1019e-18 
   8056.577   1.9504e-17  1.0594e-18 
   8057.778   2.2645e-17  1.1358e-18 
   8058.979   1.8626e-17  1.2874e-18 
   8060.179   2.1204e-17    1.42e-18 
   8061.379   2.3169e-17  1.5171e-18 
    8062.58   2.1129e-17  1.5481e-18 
   8063.778   2.0651e-17  1.5001e-18 
   8064.978   2.3025e-17  1.3675e-18 
   8066.178    2.262e-17  1.2156e-18 
   8067.379    2.104e-17  1.0844e-18 
   8068.579    2.335e-17   9.902e-19 
    8069.78   2.1587e-17  9.4563e-19 
    8070.98   2.3425e-17  9.5159e-19 
   8072.181   2.3069e-17  9.5339e-19 
   8073.382   2.2473e-17  9.5799e-19 
   8074.582   2.1756e-17  9.6499e-19 
   8075.783   2.1719e-17  9.7783e-19 
   8076.984   2.1665e-17  9.7583e-19 
   8078.184   2.2838e-17  9.8615e-19 
   8079.385   2.0346e-17   9.728e-19 
   8080.585   2.1498e-17  9.7123e-19 
   8081.786   2.3845e-17  9.9977e-19 
   8082.986   2.3542e-17  1.0042e-18 
   8084.187   2.0978e-17  1.0094e-18 
   8085.387   1.9989e-17  1.0094e-18 
   8086.588   2.3575e-17  9.9849e-19 
   8087.789   2.0037e-17  9.7843e-19 
    8088.99   2.2453e-17  9.7736e-19 
    8090.19   2.3806e-17  1.0161e-18 
   8091.391   2.2692e-17  1.0454e-18 
   8092.592   2.1318e-17  1.0645e-18 
   8093.792   2.1685e-17   1.088e-18 
   8094.993   2.4257e-17  1.0922e-18 
   8096.194   2.1826e-17  1.0608e-18 
   8097.395   2.0873e-17    1.04e-18 
   8098.596   2.2417e-17  1.0929e-18 
   8099.797   2.2801e-17  1.1507e-18 
   8100.996   1.9446e-17  1.1942e-18 
   8102.198   2.1038e-17  1.2408e-18 
   8103.399   2.1725e-17   1.247e-18 
   8104.599   2.1522e-17  1.2084e-18 
     8105.8   2.1219e-17   1.137e-18 
   8107.001   2.2079e-17  1.0729e-18 
   8108.202   2.1679e-17  1.0115e-18 
   8109.402    2.173e-17  9.7649e-19 
   8110.604   2.1872e-17  9.5709e-19 
   8111.804   2.1247e-17   9.646e-19 
   8113.005   2.1578e-17  9.4047e-19 
   8114.206   2.1637e-17  9.4318e-19 
   8115.407   2.3357e-17   9.435e-19 
   8116.607   2.0851e-17  9.2849e-19 
   8117.808   2.0763e-17  9.2683e-19 
   8119.009   2.3167e-17  9.2912e-19 
    8120.21   2.0725e-17  9.3644e-19 
    8121.41   2.2462e-17  9.3517e-19 
   8122.612   2.2814e-17   9.449e-19 
   8123.812   1.9974e-17  9.4506e-19 
   8125.013   2.1362e-17  9.5563e-19 
   8126.214   2.0887e-17  9.5598e-19 
   8127.415   2.1472e-17   9.641e-19 
   8128.616   2.1864e-17  9.6242e-19 
   8129.817   2.2811e-17  9.7364e-19 
   8131.018   2.0259e-17  9.7301e-19 
   8132.219   2.2272e-17  9.6394e-19 
    8133.42   1.8256e-17  9.6928e-19 
   8134.621   1.9865e-17  9.8862e-19 
   8135.821   1.8619e-17  1.0145e-18 
   8137.022   2.1238e-17  1.0367e-18 
   8138.224   2.2296e-17  1.0508e-18 
   8139.424   2.2642e-17  1.0584e-18 
   8140.626   2.0854e-17  1.0406e-18 
   8141.827   2.1103e-17   1.023e-18 
   8143.027    2.024e-17  1.0236e-18 
   8144.229   1.9535e-17  1.0372e-18 
    8145.43   2.0993e-17  1.0604e-18 
   8146.631   2.0951e-17  1.0744e-18 
   8147.832   2.2293e-17  1.0666e-18 
   8149.033   2.1463e-17  1.0389e-18 
   8150.234   2.0014e-17  9.8784e-19 
   8151.434   2.1094e-17  9.5898e-19 
   8152.635   2.1445e-17  9.2566e-19 
   8153.837   2.3027e-17   9.209e-19 
   8155.039   1.9207e-17  9.0081e-19 
   8156.239   2.1531e-17  9.0965e-19 
    8157.44   2.2036e-17  9.0974e-19 
   8158.642   2.1937e-17   9.091e-19 
   8159.843   2.1799e-17  9.1172e-19 
   8161.044   2.2015e-17  9.7075e-19 
   8162.245    2.256e-17    9.86e-19 
   8163.446   2.2335e-17  9.6648e-19 
   8164.646   2.0719e-17  9.5183e-19 
   8165.847   1.9204e-17  9.1963e-19 
   8167.049   2.0326e-17  9.1838e-19 
    8168.25   2.0194e-17   9.301e-19 
   8169.452   2.3752e-17  9.4034e-19 
   8170.653    2.083e-17  9.3355e-19 
   8171.854   2.2899e-17   9.273e-19 
   8173.055   2.0051e-17  9.1724e-19 
   8174.257   2.1531e-17  9.2627e-19 
   8175.458   2.3665e-17  9.6497e-19 
   8176.659   2.2844e-17   9.675e-19 
    8177.86   2.2788e-17  9.7119e-19 
   8179.061   2.0732e-17  9.6895e-19 
   8180.262    1.883e-17  9.5099e-19 
   8181.462   1.8702e-17  9.4142e-19 
   8182.665   1.9743e-17  9.4948e-19 
   8183.866   2.0999e-17  9.6584e-19 
   8185.067   2.1132e-17  9.8134e-19 
   8186.268   2.1141e-17  9.7608e-19 
   8187.469   2.0254e-17  9.6781e-19 
   8188.671   2.0231e-17  9.6809e-19 
   8189.872   1.8343e-17  9.6567e-19 
   8191.073   2.0122e-17  9.8891e-19 
   8192.274   1.9605e-17  1.0217e-18 
   8193.476   2.0448e-17   1.043e-18 
   8194.678   2.1533e-17  1.0579e-18 
   8195.879   1.8226e-17  1.0432e-18 
    8197.08   1.9313e-17  1.0251e-18 
   8198.281   2.0431e-17  9.8891e-19 
   8199.483   2.1477e-17  9.5267e-19 
   8200.685   2.1833e-17  9.2867e-19 
   8201.885   2.3517e-17  9.2815e-19 
   8203.087   2.0555e-17  9.3425e-19 
   8204.287   2.1564e-17  9.4576e-19 
   8205.489   2.1473e-17  9.5444e-19 
    8206.69   2.1147e-17  9.5403e-19 
   8207.892   2.1559e-17  9.5068e-19 
   8209.093   2.1234e-17  9.4506e-19 
   8210.294   2.0943e-17  9.3954e-19 
   8211.496    2.153e-17  9.3737e-19 
   8212.698   2.1883e-17  9.3819e-19 
   8213.899   2.1435e-17  9.3549e-19 
   8215.101   2.3566e-17  9.3541e-19 
   8216.303   2.1441e-17  9.2514e-19 
   8217.504   2.1624e-17  9.2267e-19 
   8218.701   2.2837e-17  9.2932e-19 
   8219.902   2.0231e-17  9.2309e-19 
   8221.104   2.2371e-17  9.2522e-19 
   8222.306   2.1674e-17   9.266e-19 
   8223.508   2.1634e-17  9.2414e-19 
   8224.708   2.0244e-17  9.1481e-19 
    8225.91   2.0218e-17  9.9835e-19 
   8227.111   2.2608e-17  1.0518e-18 
   8228.312   2.2057e-17  1.0395e-18 
   8229.515   2.1681e-17  1.0293e-18 
   8230.716   2.0701e-17  1.0087e-18 
   8231.916   2.2123e-17  9.8781e-19 
   8233.119   2.2219e-17  9.7431e-19 
   8234.319   2.1435e-17  9.5728e-19 
   8235.522    2.292e-17  9.5852e-19 
   8236.725   2.2769e-17   9.586e-19 
   8237.926   2.2562e-17  9.7479e-19 
   8239.127    2.112e-17  9.7348e-19 
   8240.328   1.9084e-17   9.646e-19 
   8241.529   2.0871e-17  9.9239e-19 
   8242.731    2.135e-17  1.0124e-18 
   8243.933   2.2132e-17  9.8766e-19 
   8245.135    2.021e-17  9.7289e-19 
   8246.335   2.1653e-17  9.8644e-19 
   8247.536   2.1249e-17  9.7526e-19 
   8248.739   2.1078e-17  9.7863e-19 
   8249.938   2.1021e-17  9.6387e-19 
   8251.139    2.375e-17  9.6128e-19 
   8252.341   2.0214e-17   9.407e-19 
   8253.542   2.1603e-17  9.4092e-19 
   8254.743   2.0799e-17  9.2815e-19 
   8255.945   2.1686e-17  9.3933e-19 
   8257.148   2.1354e-17  9.2506e-19 
    8258.35   2.1013e-17    9.13e-19 
   8259.551   2.2093e-17  9.1745e-19 
   8260.752    2.014e-17  9.1352e-19 
   8261.955   2.1673e-17  9.0888e-19 
   8263.156    2.113e-17  8.9995e-19 
   8264.357   2.0374e-17  9.0964e-19 
   8265.559   2.0547e-17  9.1295e-19 
   8266.759    2.071e-17  9.1108e-19 
   8267.961   2.1325e-17  9.1157e-19 
   8269.163   2.3094e-17  9.2388e-19 
   8270.364   1.9539e-17  9.0851e-19 
   8271.566   2.0764e-17  9.1579e-19 
   8272.768   2.0008e-17  9.3221e-19 
   8273.969   2.0606e-17  1.0153e-18 
    8275.17   2.1277e-17  1.1612e-18 
   8276.372   1.8939e-17  1.3223e-18 
   8277.574   2.1508e-17  1.5676e-18 
   8278.777   2.2159e-17  1.7614e-18 
   8279.979   2.0909e-17   1.898e-18 
    8281.18   1.9639e-17  1.9308e-18 
   8282.381   2.0845e-17  1.9156e-18 
   8283.584   2.1937e-17   1.898e-18 
   8284.784   2.3129e-17  1.9576e-18 
   8285.986   2.2365e-17  2.0492e-18 
   8287.189   2.4136e-17  2.1257e-18 
    8288.39   2.1567e-17  2.1462e-18 
   8289.591   2.2299e-17  2.0781e-18 
   8290.793    2.039e-17  1.9073e-18 
   8291.995   1.8784e-17  1.6958e-18 
   8293.196   2.4599e-17  1.5878e-18 
   8294.399   2.1337e-17  1.6666e-18 
     8295.6   1.9512e-17  1.9618e-18 
     8296.8   2.1975e-17  2.1964e-18 
   8298.004   1.7396e-17  2.3195e-18 
   8299.206   2.3881e-17  2.3139e-18 
   8300.408   2.1325e-17  2.1826e-18 
   8301.608   1.9116e-17  1.9166e-18 
   8302.811   2.0646e-17  1.5989e-18 
   8304.012   1.9293e-17  1.2962e-18 
   8305.213   2.2232e-17  1.1267e-18 
   8306.416   2.0884e-17  1.1526e-18 
   8307.618   1.9281e-17  1.2672e-18 
   8308.819   2.2648e-17  1.3805e-18 
   8310.021   2.2803e-17  1.4463e-18 
   8311.223   1.8962e-17  1.4512e-18 
   8312.426   2.0801e-17  1.3975e-18 
   8313.627   2.0063e-17  1.2913e-18 
   8314.829   2.1127e-17  1.1661e-18 
   8316.029   2.1689e-17  1.0605e-18 
   8317.232   2.2129e-17  1.0173e-18 
   8318.436   2.1186e-17  1.0007e-18 
   8319.637   2.1535e-17  9.9498e-19 
   8320.839   2.3691e-17  9.7969e-19 
   8322.041   2.2666e-17  9.5977e-19 
   8323.241   2.1004e-17  9.2537e-19 
   8324.443   2.2804e-17   9.156e-19 
   8325.645   2.1984e-17  9.1207e-19 
   8326.847   2.0814e-17  9.1026e-19 
   8328.049   1.9991e-17  8.9454e-19 
   8329.251   2.3321e-17  9.1117e-19 
   8330.451   2.1974e-17  9.0169e-19 
   8331.654   2.1147e-17  9.0629e-19 
   8332.856   2.2621e-17  9.1289e-19 
   8334.058   2.1142e-17  9.3003e-19 
    8335.26   2.0471e-17  9.4976e-19 
   8336.462   2.2311e-17  9.8216e-19 
   8337.664   2.3031e-17  1.0341e-18 
   8338.866   2.0891e-17  1.2356e-18 
   8340.068    2.463e-17  1.7612e-18 
    8341.27    2.794e-17  2.4343e-18 
   8342.471   2.5255e-17  2.9209e-18 
   8343.674   2.3746e-17  3.2073e-18 
   8344.875   2.6585e-17  3.2694e-18 
   8346.077   1.9807e-17  3.1105e-18 
   8347.279   2.4748e-17  2.7468e-18 
   8348.481   2.1246e-17  2.3147e-18 
   8349.683    2.475e-17  2.0125e-18 
   8350.885   2.0253e-17  1.9414e-18 
   8352.085   2.1425e-17  2.0274e-18 
   8353.288   2.3714e-17  2.0189e-18 
    8354.49   2.0206e-17  1.9107e-18 
   8355.693   2.1021e-17   1.691e-18 
   8356.895   2.0178e-17  1.4188e-18 
   8358.096   2.0565e-17  1.1726e-18 
   8359.298   2.0346e-17  1.0867e-18 
     8360.5   2.1343e-17  1.1858e-18 
   8361.702    1.827e-17  1.2919e-18 
   8362.904   2.3143e-17  1.4142e-18 
   8364.107   1.8825e-17  1.4483e-18 
   8365.308   2.1753e-17   1.441e-18 
    8366.51   2.2741e-17  1.3846e-18 
   8367.712   1.9542e-17  1.2524e-18 
   8368.914   2.2249e-17  1.1148e-18 
   8370.116   2.1652e-17  9.9077e-19 
   8371.318   2.1455e-17  9.3624e-19 
    8372.52   2.1838e-17  9.2356e-19 
   8373.722   2.0946e-17  9.1216e-19 
   8374.925   2.2129e-17    9.28e-19 
   8376.127   2.2265e-17  9.7186e-19 
   8377.329   2.2502e-17  1.0792e-18 
    8378.53   2.0899e-17  1.3092e-18 
   8379.732   2.0008e-17   1.535e-18 
   8380.935   2.2128e-17  1.6875e-18 
   8382.136   2.4386e-17   1.751e-18 
   8383.337   2.0583e-17  1.7195e-18 
    8384.54   2.1901e-17  1.5877e-18 
   8385.742   2.2398e-17  1.3867e-18 
   8386.943   2.2977e-17  1.1649e-18 
   8388.146   2.2052e-17  1.0129e-18 
   8389.349   2.1507e-17  9.6621e-19 
   8390.551   2.0549e-17   9.619e-19 
   8391.752   2.2155e-17  9.6889e-19 
   8392.955   1.9019e-17  9.8105e-19 
   8394.156   1.9157e-17  1.2308e-18 
   8395.359   2.1592e-17  1.7773e-18 
   8396.561   2.4249e-17  2.2994e-18 
   8397.762   2.0255e-17  2.6503e-18 
   8398.965   1.6833e-17  2.7852e-18 
   8400.166   2.2201e-17  2.7468e-18 
   8401.367   2.2437e-17   2.521e-18 
    8402.57   2.5651e-17  2.0844e-18 
   8403.772   2.3067e-17  1.5476e-18 
   8404.976   2.1385e-17  1.0939e-18 
   8406.178   2.2753e-17  9.6116e-19 
   8407.379    2.142e-17   9.216e-19 
   8408.581   2.2983e-17  9.1482e-19 
   8409.784   2.1363e-17  9.6463e-19 
   8410.985   2.0295e-17  1.1663e-18 
   8412.187   2.1719e-17  1.4616e-18 
   8413.389   2.1791e-17  1.6939e-18 
   8414.591   1.9412e-17  1.8274e-18 
   8415.792    2.519e-17  1.8384e-18 
   8416.996   2.2303e-17  1.7474e-18 
   8418.196   2.2626e-17  1.5524e-18 
   8419.399   2.1603e-17  1.2854e-18 
   8420.601   2.0551e-17  1.0548e-18 
   8421.803   2.2452e-17  9.8246e-19 
   8423.006    2.003e-17  9.9381e-19 
   8424.208     2.04e-17  1.0738e-18 
    8425.41   2.2534e-17  1.4304e-18 
   8426.613   1.8206e-17  2.0096e-18 
   8427.814   1.9598e-17  2.5397e-18 
   8429.016   2.3066e-17  2.8706e-18 
   8430.219   1.9378e-17  2.9634e-18 
   8431.422   2.3502e-17  2.8876e-18 
   8432.623   2.0446e-17  2.5854e-18 
   8433.826   2.0216e-17  2.1002e-18 
   8435.025   2.2589e-17  1.5076e-18 
   8436.229   2.1472e-17     1.1e-18 
   8437.433   2.1948e-17   9.793e-19 
   8438.634   2.1283e-17  9.3131e-19 
   8439.836    2.008e-17  8.9738e-19 
   8441.039   2.0977e-17  9.0897e-19 
    8442.24   2.3382e-17  9.9156e-19 
   8443.442   1.8731e-17  1.1157e-18 
   8444.645   2.2175e-17  1.2297e-18 
   8445.846   1.8641e-17  1.2878e-18 
   8447.048   1.9919e-17  1.3557e-18 
    8448.25   2.0511e-17  1.4713e-18 
   8449.452   2.1326e-17  1.6162e-18 
   8450.654    2.091e-17   1.712e-18 
   8451.857   1.9774e-17  1.7242e-18 
    8453.06   1.8862e-17  1.6961e-18 
   8454.262   1.8298e-17  1.6174e-18 
   8455.463   1.9893e-17  1.4026e-18 
   8456.667   1.9198e-17  1.1522e-18 
   8457.868   2.2694e-17  9.7647e-19 
    8459.07   2.0971e-17  9.5375e-19 
   8460.273    2.049e-17  1.1361e-18 
   8461.475   2.3856e-17  1.5758e-18 
   8462.678   2.0191e-17  2.0479e-18 
   8463.879   2.0086e-17  2.3669e-18 
   8465.082   2.0335e-17  2.4845e-18 
   8466.283   2.2158e-17  2.4487e-18 
   8467.485   1.9009e-17  2.2535e-18 
   8468.689   2.0473e-17  1.8767e-18 
   8469.891   1.9369e-17  1.4074e-18 
   8471.092   2.0348e-17  1.0483e-18 
   8472.295   2.1387e-17  9.6792e-19 
   8473.497   2.1572e-17   9.636e-19 
   8474.699   2.0562e-17  9.4682e-19 
   8475.902   2.0461e-17  9.3819e-19 
   8477.104   1.9226e-17  9.1156e-19 
   8478.304   1.9744e-17  8.8423e-19 
   8479.507   2.1644e-17  8.6883e-19 
   8480.709   1.9018e-17  8.4285e-19 
   8481.912   1.9596e-17  8.3742e-19 
   8483.114   2.1825e-17  8.4507e-19 
   8484.316   2.0177e-17  8.4527e-19 
   8485.519   2.1005e-17  8.4645e-19 
   8486.721   2.2487e-17  8.5196e-19 
   8487.923   2.0116e-17  8.7473e-19 
   8489.124   2.2507e-17  9.9698e-19 
   8490.328    1.896e-17  1.1805e-18 
   8491.529   2.1011e-17  1.3528e-18 
   8492.731   2.1457e-17  1.4404e-18 
   8493.934   2.2421e-17  1.4489e-18 
   8495.137   2.1251e-17  1.4166e-18 
   8496.339   2.2234e-17  1.2961e-18 
   8497.541   2.0139e-17  1.1318e-18 
   8498.743   2.0923e-17  1.0153e-18 
   8499.946   2.0844e-17   1.105e-18 
   8501.147   2.1695e-17  1.3787e-18 
    8502.35   2.2925e-17  1.6718e-18 
   8503.553    2.012e-17  1.8546e-18 
   8504.754   1.8668e-17  1.8978e-18 
   8505.956   1.7535e-17  1.8501e-18 
   8507.158   1.8089e-17   1.689e-18 
   8508.362   2.0577e-17  1.4135e-18 
   8509.563   1.9562e-17  1.0968e-18 
   8510.766   2.2317e-17  9.0814e-19 
   8511.968   2.0256e-17  8.5652e-19 
   8513.171   2.1448e-17  8.4647e-19 
   8514.373   1.8956e-17  8.3382e-19 
   8515.575   1.9659e-17   8.314e-19 
   8516.776   2.1439e-17  8.4632e-19 
   8517.979   1.9556e-17  8.4999e-19 
   8519.181   2.1729e-17  8.6858e-19 
   8520.383   1.9858e-17  8.6925e-19 
   8521.586   2.1542e-17   8.729e-19 
   8522.787   2.1769e-17  8.6731e-19 
    8523.99   1.8941e-17   8.539e-19 
   8525.192   1.8631e-17  8.4757e-19 
   8526.393   2.2298e-17  8.3825e-19 
   8527.597   1.9192e-17  8.2856e-19 
   8528.799   1.8341e-17  8.2352e-19 
   8530.001   2.0392e-17  8.2658e-19 
   8531.204   2.0586e-17  8.2247e-19 
   8532.406    1.838e-17   8.264e-19 
   8533.608   1.9298e-17  8.5771e-19 
   8534.809   2.1098e-17  9.4011e-19 
   8536.012   2.1956e-17  1.0407e-18 
   8537.215   1.8271e-17  1.1074e-18 
   8538.418   1.7967e-17  1.1267e-18 
   8539.618   2.1108e-17  1.1285e-18 
    8540.82   2.2128e-17  1.0847e-18 
   8542.024   1.8951e-17  9.9386e-19 
   8543.227   1.8073e-17  9.2893e-19 
    8544.43   1.9208e-17  9.8715e-19 
   8545.631   1.7421e-17  1.1478e-18 
   8546.833   1.9296e-17   1.304e-18 
   8548.035   2.0222e-17  1.3814e-18 
   8549.237   1.8476e-17  1.3875e-18 
   8550.439   2.0318e-17  1.3487e-18 
   8551.642   2.0754e-17  1.2254e-18 
   8552.844   2.0701e-17  1.0591e-18 
   8554.046   2.0857e-17  9.1811e-19 
    8555.25   1.9889e-17  8.5832e-19 
   8556.451    2.214e-17  8.4744e-19 
   8557.654   1.9936e-17  8.3383e-19 
   8558.856   2.0682e-17  8.2625e-19 
   8560.059   2.0406e-17  8.2369e-19 
   8561.259    2.284e-17  8.3672e-19 
   8562.462   2.0552e-17  8.3043e-19 
   8563.665   1.9643e-17   8.254e-19 
   8564.867    2.192e-17  8.3647e-19 
   8566.069   2.0707e-17  8.3159e-19 
   8567.272    2.115e-17  8.3713e-19 
   8568.473   2.1852e-17  8.4683e-19 
   8569.676   1.9757e-17  8.5054e-19 
   8570.879   1.9864e-17  8.6931e-19 
   8572.081   1.9512e-17  8.7523e-19 
   8573.283   2.1537e-17  9.0086e-19 
   8574.485   1.9502e-17  9.0312e-19 
   8575.687   1.9596e-17  9.0785e-19 
    8576.89   1.8772e-17  8.9217e-19 
   8578.092   1.9806e-17  8.9247e-19 
   8579.293   1.8333e-17  8.6453e-19 
   8580.496   2.1031e-17  8.5585e-19 
   8581.698   1.7947e-17  8.3117e-19 
   8582.901   1.7726e-17  8.3548e-19 
   8584.104   1.9511e-17  8.7284e-19 
   8585.306   2.0201e-17  9.3815e-19 
   8586.507   2.0437e-17  9.9796e-19 
   8587.711   2.0901e-17  1.0277e-18 
   8588.911   2.1849e-17  1.0288e-18 
   8590.114   1.8676e-17  1.0065e-18 
   8591.315   1.9754e-17  9.6235e-19 
    8592.52   2.0942e-17  9.4064e-19 
   8593.721   2.0755e-17  9.7846e-19 
   8594.922   1.9812e-17  1.0485e-18 
   8596.127   1.9479e-17  1.0916e-18 
   8597.327   1.9976e-17  1.0974e-18 
    8598.53    1.906e-17  1.0729e-18 
   8599.732   2.0271e-17  1.0277e-18 
   8600.934   2.0505e-17  9.5012e-19 
   8602.137   1.9198e-17  8.8999e-19 
   8603.338   2.0607e-17  8.7213e-19 
   8604.541   1.7717e-17  8.6358e-19 
   8605.744   2.0312e-17  8.8904e-19 
   8606.945   1.8947e-17  9.0521e-19 
   8608.148    2.002e-17  9.2766e-19 
    8609.35   1.9416e-17  9.7295e-19 
   8610.553   1.7922e-17  1.0422e-18 
   8611.754   1.8096e-17  1.1076e-18 
   8612.957   1.8145e-17  1.1859e-18 
   8614.159   1.8881e-17  1.2814e-18 
   8615.362   1.9454e-17  1.3763e-18 
   8616.563   1.8099e-17  1.4699e-18 
   8617.766   1.7665e-17  1.5708e-18 
   8618.968    2.209e-17  1.6735e-18 
   8620.169   2.0815e-17  1.7773e-18 
   8621.372   2.0787e-17  1.8651e-18 
   8622.574   1.5914e-17  1.9364e-18 
   8623.777   1.8759e-17  2.0197e-18 
   8624.979   1.9284e-17  2.0813e-18 
   8626.182   1.8292e-17  2.1353e-18 
   8627.384   1.8814e-17  2.1727e-18 
   8628.587     2.15e-17  2.1953e-18 
   8629.788   2.1588e-17  2.2127e-18 
   8630.989   1.8538e-17  2.1922e-18 
   8632.192   1.8701e-17  2.1535e-18 
   8633.393   2.0545e-17  2.1217e-18 
   8634.596   1.6796e-17  2.0543e-18 
   8635.799   1.9908e-17   1.961e-18 
   8637.002   2.2792e-17  1.8724e-18 
   8638.203   1.9806e-17  1.7819e-18 
   8639.406    1.847e-17  1.6436e-18 
   8640.608     1.96e-17   1.501e-18 
   8641.812   1.7688e-17  1.3753e-18 
   8643.013   2.0066e-17  1.2989e-18 
   8644.215   1.8432e-17  1.2584e-18 
   8645.416    1.821e-17  1.3087e-18 
   8646.619   1.9051e-17  1.4482e-18 
   8647.821   1.8295e-17  1.6462e-18 
   8649.023   1.6249e-17  1.8047e-18 
   8650.228   1.8924e-17  1.9011e-18 
   8651.428   1.8195e-17  1.9902e-18 
   8652.629   1.9523e-17  2.1025e-18 
   8653.832   1.4642e-17  2.1176e-18 
   8655.034   1.8444e-17   2.089e-18 
   8656.236   2.0448e-17  2.1288e-18 
   8657.439   2.0836e-17  2.2127e-18 
   8658.641   1.9489e-17  2.1822e-18 
   8659.843    1.705e-17  2.0988e-18 
   8661.045   1.9099e-17  2.1017e-18 
   8662.248   2.0418e-17  2.1507e-18 
    8663.45   2.0167e-17  2.1045e-18 
   8664.652   1.8211e-17  2.0093e-18 
   8665.854   1.8435e-17   1.975e-18 
   8667.056   1.4767e-17  2.0068e-18 
   8668.258   2.1165e-17  1.9701e-18 
   8669.461   2.3078e-17  1.8465e-18 
   8670.663   2.2715e-17  1.7829e-18 
   8671.865   1.9779e-17  1.7875e-18 
   8673.066   2.0075e-17  1.7586e-18 
    8674.27   1.6348e-17   1.653e-18 
   8675.473   2.1076e-17  1.5666e-18 
   8676.674   1.8547e-17  1.5419e-18 
   8677.877   2.1384e-17  1.5434e-18 
   8679.079   1.9135e-17  1.4774e-18 
   8680.281     1.93e-17  1.3876e-18 
   8681.482    1.611e-17  1.3308e-18 
   8682.686   1.9184e-17  1.3277e-18 
   8683.886   1.8461e-17  1.2996e-18 
   8685.089   1.9457e-17  1.2301e-18 
   8686.291   2.1036e-17  1.1732e-18 
   8687.492   2.1829e-17  1.1522e-18 
   8688.696   1.8595e-17  1.1339e-18 
   8689.897   1.9036e-17  1.1025e-18 
   8691.101    1.915e-17  1.0601e-18 
   8692.304   1.9317e-17  1.0274e-18 
   8693.505   1.8278e-17  1.0239e-18 
   8694.706    1.673e-17  1.0147e-18 
   8695.909   1.7833e-17  1.0134e-18 
    8697.11   1.8865e-17  1.0088e-18 
   8698.312   1.7856e-17  1.0203e-18 
   8699.516    1.912e-17  1.0324e-18 
   8700.718   1.9145e-17  1.0258e-18 
   8701.919   2.0337e-17  1.0165e-18 
   8703.122   1.9708e-17  1.0018e-18 
   8704.324   1.9102e-17  1.0009e-18 
   8705.527   1.8576e-17  1.0188e-18 
   8706.729   1.9609e-17  1.0239e-18 
   8707.931   1.8944e-17  1.0178e-18 
   8709.132   1.9204e-17  9.9563e-19 
   8710.334   2.0656e-17  9.6184e-19 
   8711.537   1.8839e-17  9.0984e-19 
   8712.739   1.8686e-17  8.7806e-19 
   8713.943   1.8725e-17  8.6939e-19 
   8715.144   1.8873e-17  8.5806e-19 
   8716.346   1.9107e-17   8.583e-19 
   8717.548   1.8916e-17  8.5509e-19 
    8718.75   1.9125e-17  8.5136e-19 
   8719.952   1.9181e-17  8.5159e-19 
   8721.154   1.7636e-17  8.4395e-19 
   8722.352   1.8879e-17   8.479e-19 
   8723.554   1.8733e-17  8.5752e-19 
   8724.757   1.9531e-17   8.789e-19 
    8725.96   1.9708e-17  8.7775e-19 
   8727.162   1.9026e-17  8.7639e-19 
   8728.364   1.8542e-17  8.7277e-19 
   8729.565   1.7555e-17    8.55e-19 
   8730.766   1.8529e-17  8.4461e-19 
   8731.969   1.7226e-17  8.3436e-19 
   8733.172   1.7949e-17   8.324e-19 
   8734.373   1.8994e-17  8.5204e-19 
   8735.576   1.8202e-17  8.7104e-19 
   8736.778    1.803e-17  8.9037e-19 
   8737.979   1.8271e-17  9.0531e-19 
   8739.182    1.816e-17  9.1866e-19 
   8740.384   1.8754e-17   9.207e-19 
   8741.586   1.7157e-17  9.0393e-19 
   8742.787   1.7958e-17  8.9321e-19 
    8743.99   1.7801e-17  8.8871e-19 
   8745.191   2.0152e-17  8.8693e-19 
   8746.391   1.8627e-17  8.8297e-19 
   8747.593   1.7986e-17  8.8569e-19 
   8748.795   1.7811e-17  8.8309e-19 
   8749.997    1.815e-17  8.7991e-19 
   8751.198   1.9352e-17  8.8267e-19 
   8752.401   1.9959e-17   8.791e-19 
   8753.602   1.7849e-17  9.0592e-19 
   8754.805   1.7792e-17  1.0295e-18 
   8756.007   1.8067e-17   1.297e-18 
   8757.208   2.1827e-17  1.6586e-18 
   8758.411   1.7368e-17  2.0452e-18 
   8759.612   1.2916e-17  2.3185e-18 
   8760.815   1.5932e-17  2.3844e-18 
   8762.016   1.5931e-17  2.3521e-18 
   8763.219   1.8656e-17  2.3727e-18 
   8764.421   1.7078e-17  2.4799e-18 
   8765.622   1.6268e-17   2.574e-18 
   8766.825   1.4659e-17  2.6122e-18 
   8768.028     1.89e-17   2.589e-18 
   8769.229   1.4882e-17  2.4643e-18 
   8770.432   1.5882e-17  2.1409e-18 
   8771.633   1.8154e-17  1.7057e-18 
   8772.834   1.9001e-17  1.5393e-18 
   8774.036   1.4885e-17  1.8753e-18 
   8775.239   1.6803e-17  2.3303e-18 
   8776.442   1.8392e-17  2.6704e-18 
   8777.644    1.793e-17  2.7488e-18 
   8778.845   1.5868e-17  2.6474e-18 
   8780.046   1.5108e-17  2.4159e-18 
   8781.248   1.7452e-17   1.976e-18 
    8782.45    1.807e-17  1.4054e-18 
   8783.653   1.9669e-17  1.0099e-18 
   8784.854   1.8841e-17  9.2542e-19 
   8786.056   1.8848e-17   9.549e-19 
   8787.256   1.6872e-17  1.1546e-18 
   8788.459   1.7636e-17  1.4476e-18 
   8789.663   1.7633e-17  1.6294e-18 
   8790.864   1.7745e-17  1.6512e-18 
   8792.065   1.9856e-17  1.6483e-18 
   8793.267   1.7182e-17  1.5374e-18 
    8794.47   1.7855e-17   1.303e-18 
   8795.671   2.0207e-17   1.005e-18 
   8796.872   2.0701e-17  8.8468e-19 
   8798.075   2.0484e-17  8.6251e-19 
   8799.276   1.7877e-17  8.6164e-19 
   8800.478   1.7828e-17  8.5236e-19 
   8801.681   1.8344e-17  8.4821e-19 
   8802.882   1.7787e-17  8.4135e-19 
   8804.085    1.711e-17  8.3669e-19 
   8805.286   1.7444e-17  8.4654e-19 
   8806.487   1.8502e-17  8.9813e-19 
    8807.69    1.806e-17   9.589e-19 
   8808.892   1.5864e-17  9.9049e-19 
   8810.094   1.5234e-17  9.9084e-19 
   8811.296   1.9701e-17  9.9161e-19 
   8812.497   1.8093e-17  9.5561e-19 
   8813.699   1.9092e-17  9.0228e-19 
   8814.901   1.8124e-17  8.4171e-19 
   8816.103    1.732e-17  8.3237e-19 
   8817.306   1.9305e-17  8.3935e-19 
   8818.506   1.8505e-17  8.3543e-19 
   8819.708   1.8061e-17  8.5883e-19 
   8820.909   1.6984e-17  9.6242e-19 
   8822.112   1.7891e-17  1.4171e-18 
   8823.312   1.4489e-17  2.2997e-18 
   8824.515   1.1706e-17  3.2167e-18 
   8825.719   1.8429e-17  3.6722e-18 
   8826.918   1.5655e-17  3.7355e-18 
    8828.12   2.1719e-17  3.6687e-18 
   8829.324   2.0798e-17  3.3568e-18 
   8830.524   1.7638e-17  2.6558e-18 
   8831.727   2.2532e-17  1.8903e-18 
   8832.929    1.759e-17  1.9327e-18 
   8834.129   1.8809e-17  2.2946e-18 
   8835.331   2.1198e-17  2.4152e-18 
   8836.533   1.6488e-17  2.3671e-18 
   8837.736   1.6763e-17  2.2767e-18 
   8838.937   1.8634e-17  2.0376e-18 
   8840.138   2.0164e-17   1.554e-18 
   8841.341   1.8433e-17  1.0733e-18 
   8842.542   1.9724e-17  9.5386e-19 
   8843.744   1.7578e-17  9.4742e-19 
   8844.945   1.9502e-17  9.9648e-19 
   8846.147   1.9698e-17  1.1641e-18 
   8847.349   1.8235e-17   1.385e-18 
   8848.549    2.032e-17  1.4861e-18 
   8849.751   1.8111e-17  1.4796e-18 
   8850.954   1.9236e-17  1.4586e-18 
   8852.155   1.8248e-17  1.3622e-18 
   8853.358   1.7847e-17  1.1617e-18 
    8854.56   1.7647e-17  9.4798e-19 
    8855.76   1.7065e-17  8.8658e-19 
   8856.962   1.9402e-17  8.7543e-19 
   8858.164    1.776e-17  9.0224e-19 
   8859.365   1.6525e-17  9.3425e-19 
   8860.567   1.9182e-17  9.7718e-19 
   8861.769   1.8578e-17  1.0137e-18 
    8862.97   1.7219e-17   1.143e-18 
   8864.173   2.0024e-17   1.494e-18 
   8865.375   1.6232e-17  1.8351e-18 
   8866.576   1.6395e-17  1.9351e-18 
   8867.778   1.7553e-17  1.9321e-18 
   8868.979   1.9285e-17  1.8891e-18 
   8870.181   1.5541e-17  1.6837e-18 
   8871.382   1.6776e-17  1.2898e-18 
   8872.584   1.5488e-17   9.406e-19 
   8873.786   1.7247e-17  8.5198e-19 
   8874.989   1.7852e-17  8.2931e-19 
   8876.189   1.7242e-17  8.1369e-19 
   8877.391   1.6986e-17  8.0571e-19 
   8878.592   1.6629e-17  7.9931e-19 
   8879.794   1.5602e-17  8.2899e-19 
   8880.995   1.9763e-17  1.1279e-18 
   8882.197   1.7262e-17   1.906e-18 
   8883.399   1.9907e-17  2.7377e-18 
   8884.599   1.2768e-17  3.0826e-18 
   8885.798   1.6223e-17  3.1333e-18 
   8886.999   7.7801e-18  3.0875e-18 
   8888.202   1.6468e-17   2.825e-18 
   8889.405   1.2843e-17  2.1159e-18 
   8890.605   1.6422e-17  1.3011e-18 
   8891.806   1.9882e-17  1.0325e-18 
   8893.007   2.0883e-17  9.7648e-19 
   8894.209   1.8711e-17  9.4938e-19 
   8895.411   1.7638e-17  9.3394e-19 
   8896.612   1.8738e-17  9.2707e-19 
   8897.814   1.7825e-17  9.7384e-19 
   8899.015   1.8237e-17  1.2382e-18 
   8900.217   1.6608e-17  1.7001e-18 
   8901.419   1.7258e-17  2.0178e-18 
   8902.621   1.5837e-17  2.0818e-18 
   8903.822    1.179e-17  2.0764e-18 
   8905.022   1.7863e-17  2.0104e-18 
   8906.224   1.6904e-17  1.7197e-18 
   8907.426   1.7183e-17  1.2572e-18 
   8908.627   1.8597e-17  1.0269e-18 
   8909.828   1.8867e-17  9.8469e-19 
   8911.029   1.8288e-17  9.4147e-19 
   8912.231   1.7624e-17  9.0071e-19 
   8913.434   1.8269e-17  8.9212e-19 
   8914.634   1.8443e-17  1.1121e-18 
   8915.836   1.8923e-17  1.8962e-18 
   8917.037   1.7825e-17  2.8326e-18 
   8918.239    1.143e-17  3.2655e-18 
   8919.439   1.9767e-17  3.3298e-18 
   8920.641   1.8947e-17  3.3119e-18 
   8921.842    2.432e-17  3.0779e-18 
   8923.044   1.0686e-17   2.365e-18 
   8924.246   2.1184e-17  1.4479e-18 
   8925.447   1.7941e-17  1.1276e-18 
   8926.648   1.9803e-17  1.0752e-18 
    8927.85   1.9922e-17  1.0332e-18 
   8929.051   1.8348e-17  9.9721e-19 
   8930.253   1.9599e-17  9.6108e-19 
   8931.454   1.7988e-17  9.3736e-19 
   8932.654   1.6164e-17  9.0701e-19 
   8933.856   1.7268e-17  9.0604e-19 
   8935.058   1.7723e-17  9.1309e-19 
   8936.259   1.6824e-17  9.0487e-19 
   8937.461   1.7436e-17  9.1427e-19 
   8938.659   1.6796e-17  1.0025e-18 
    8939.86   1.8255e-17  1.3621e-18 
   8941.061   1.6987e-17  1.7653e-18 
   8942.263   1.3466e-17   1.915e-18 
   8943.463    1.987e-17  1.9252e-18 
   8944.665   1.8903e-17  1.9024e-18 
   8945.865   1.8749e-17  1.7435e-18 
   8947.066   1.7041e-17  1.3322e-18 
   8948.268   1.7857e-17  9.5516e-19 
    8949.47    1.641e-17  8.5842e-19 
   8950.671   1.7984e-17  8.3175e-19 
   8951.872   1.6805e-17   8.352e-19 
   8953.073   1.7644e-17  1.0096e-18 
   8954.274   1.1812e-17  1.6571e-18 
   8955.476   1.8578e-17  2.4533e-18 
   8956.678   1.9158e-17  2.8158e-18 
   8957.878   1.7645e-17   2.865e-18 
   8959.079   1.8837e-17   2.839e-18 
   8960.279   2.3594e-17  2.6446e-18 
   8961.481   1.0942e-17  2.0377e-18 
   8962.683   1.8185e-17  1.2447e-18 
   8963.884     1.83e-17  9.6014e-19 
   8965.086   1.7534e-17  8.9565e-19 
   8966.286    1.617e-17  8.7133e-19 
   8967.488   1.6982e-17  8.7274e-19 
   8968.688   1.7273e-17  9.0479e-19 
   8969.889   1.8052e-17  9.1471e-19 
    8971.09   1.5955e-17  9.1641e-19 
   8972.292   1.8307e-17  9.1876e-19 
   8973.493     1.88e-17  9.0021e-19 
   8974.694   1.8539e-17  8.7456e-19 
   8975.896   1.9518e-17  8.6207e-19 
   8977.096   1.6469e-17  8.7685e-19 
   8978.298   1.6889e-17  8.9636e-19 
   8979.499   1.7261e-17   9.326e-19 
     8980.7     1.48e-17  9.3645e-19 
   8981.899   1.7252e-17  9.4656e-19 
   8983.101   1.6704e-17  9.7474e-19 
   8984.304   1.6875e-17  1.1244e-18 
   8985.503   1.5427e-17  1.3918e-18 
   8986.705   2.0919e-17  1.7792e-18 
   8987.907   2.0074e-17  1.8927e-18 
   8989.106   2.0141e-17  1.8292e-18 
   8990.308   1.6317e-17  1.7625e-18 
    8991.51   1.7635e-17   1.581e-18 
    8992.71   1.7955e-17  1.1711e-18 
   8993.911   1.7185e-17  9.6465e-19 
   8995.112   1.7464e-17   8.905e-19 
   8996.312     1.81e-17  9.4763e-19 
   8997.514   1.4501e-17  1.3459e-18 
   8998.714   1.9417e-17  1.9446e-18 
   8999.916   1.7467e-17  2.2591e-18 
   9001.118   1.4217e-17  2.3146e-18 
   9002.318   1.9785e-17  2.3736e-18 
   9003.519   1.7159e-17  2.1953e-18 
    9004.72   1.6969e-17  1.6801e-18 
   9005.921   1.6967e-17  1.0627e-18 
   9007.121   1.7218e-17  8.7478e-19 
   9008.322     1.63e-17  8.5737e-19 
   9009.523     1.68e-17  8.3118e-19 
   9010.723   1.8211e-17  7.9472e-19 
   9011.925   1.8756e-17  7.7461e-19 
   9013.126   1.9347e-17  7.9247e-19 
   9014.328   1.7746e-17    7.76e-19 
   9015.528   1.9759e-17  7.8563e-19 
   9016.728   1.9139e-17  8.3036e-19 
   9017.929   1.8358e-17  8.6542e-19 
   9019.131   1.7998e-17  8.5492e-19 
   9020.332    1.865e-17  8.4392e-19 
   9021.533   1.8503e-17  8.3986e-19 
   9022.732    1.694e-17  8.4808e-19 
   9023.933    1.855e-17    8.59e-19 
   9025.133   1.7653e-17  8.5048e-19 
   9026.337   1.9173e-17  8.9342e-19 
   9027.536   1.6956e-17   8.896e-19 
   9028.737   1.8074e-17  8.5169e-19 
   9029.938   1.6955e-17  8.4239e-19 
   9031.138   1.7216e-17  8.3109e-19 
   9032.339   1.8305e-17  8.0782e-19 
    9033.54    1.596e-17  8.4497e-19 
   9034.741   1.9463e-17  1.0394e-18 
   9035.941   1.7167e-17  1.2148e-18 
   9037.143   1.8742e-17  1.2664e-18 
   9038.342   1.7221e-17  1.2743e-18 
   9039.543   1.7025e-17  1.2606e-18 
   9040.744   1.6862e-17  1.1684e-18 
   9041.945   1.7489e-17  9.7197e-19 
   9043.145   1.9589e-17  8.6128e-19 
   9044.346   1.8746e-17   8.836e-19 
   9045.547   1.7536e-17  1.0569e-18 
   9046.748   1.8048e-17  1.4001e-18 
   9047.948   1.4742e-17  1.5781e-18 
   9049.149   2.1381e-17  1.6106e-18 
    9050.35   1.7509e-17   1.611e-18 
    9051.55   1.9086e-17  1.5462e-18 
   9052.751   1.6884e-17   1.294e-18 
   9053.953    1.737e-17  9.7404e-19 
   9055.152   1.6104e-17  8.6482e-19 
   9056.353   1.7108e-17  8.4426e-19 
   9057.554   1.8259e-17  8.3744e-19 
   9058.753   1.5912e-17  8.1293e-19 
   9059.953   1.7515e-17  8.1067e-19 
   9061.154   1.6473e-17  8.0818e-19 
   9062.355   1.6892e-17  8.3856e-19 
   9063.556   1.7133e-17  8.5858e-19 
   9064.757   1.7976e-17  8.7961e-19 
   9065.957   1.6926e-17  9.0557e-19 
   9067.158    1.697e-17  9.1393e-19 
   9068.359   1.6986e-17  9.0717e-19 
    9069.56   1.8173e-17  9.7755e-19 
   9070.759   1.7287e-17  9.5212e-19 
   9071.961   1.9216e-17  9.2286e-19 
    9073.16   1.8302e-17   8.436e-19 
    9074.36   1.7354e-17  8.0499e-19 
   9075.561   1.8403e-17  8.3569e-19 
   9076.762   1.7187e-17  7.8532e-19 
   9077.962   1.8242e-17   7.698e-19 
   9079.163   1.6218e-17  7.6995e-19 
   9080.362   1.6375e-17  7.7767e-19 
   9081.562   1.5059e-17  7.8397e-19 
   9082.765   1.5902e-17   8.009e-19 
   9083.965    1.548e-17   8.014e-19 
   9085.165   1.6635e-17  7.9812e-19 
   9086.365   1.7722e-17  7.9767e-19 
   9087.565   1.7374e-17  8.0162e-19 
   9088.766   1.7463e-17  8.7238e-19 
   9089.967   1.8563e-17  1.0104e-18 
   9091.167   1.7236e-17  1.0831e-18 
   9092.367    1.815e-17   1.101e-18 
   9093.567   1.4691e-17  1.0906e-18 
   9094.768    1.654e-17  1.0588e-18 
   9095.969   1.6484e-17  9.5408e-19 
   9097.168    1.703e-17  8.4899e-19 
   9098.369   1.5878e-17  8.6866e-19 
   9099.569   1.8064e-17  1.0532e-18 
   9100.769   1.4974e-17  1.2048e-18 
   9101.969   1.7388e-17  1.2374e-18 
    9103.17   1.8552e-17  1.2365e-18 
   9104.369    1.703e-17  1.2208e-18 
   9105.569   1.6203e-17  1.1066e-18 
   9106.771   1.3334e-17  8.9156e-19 
    9107.97   1.6723e-17  7.9378e-19 
    9109.17    1.853e-17  7.7783e-19 
   9110.371   1.8291e-17  7.7597e-19 
    9111.57   1.9062e-17  7.7633e-19 
   9112.771   1.8016e-17  7.6749e-19 
   9113.971    2.003e-17  7.7383e-19 
    9115.17   1.8878e-17   7.638e-19 
   9116.371   1.8342e-17  7.4871e-19 
   9117.572   1.6972e-17  7.3914e-19 
   9118.772    1.555e-17   7.407e-19 
   9119.972   1.6832e-17  7.4574e-19 
   9121.173   1.5809e-17  7.4798e-19 
   9122.373   1.8324e-17  7.5942e-19 
   9123.572   1.7118e-17  7.5934e-19 
   9124.773   1.8207e-17  7.6187e-19 
   9125.973   1.8084e-17  7.5472e-19 
   9127.173   1.7263e-17  7.4533e-19 
   9128.373   1.6533e-17  7.4029e-19 
   9129.572   1.7506e-17  7.4034e-19 
   9130.773   1.6087e-17  7.4449e-19 
   9131.973   1.5695e-17  7.5174e-19 
   9133.172   1.6538e-17  7.6236e-19 
   9134.373   1.5018e-17  7.6586e-19 
   9135.573   1.5607e-17   7.709e-19 
   9136.773   1.9139e-17   8.837e-19 
   9137.973   1.8955e-17  8.5938e-19 
   9139.172   1.6878e-17  8.2419e-19 
   9140.373   1.7858e-17  8.0016e-19 
   9141.573   1.7995e-17  7.7759e-19 
   9142.772   1.7841e-17   7.735e-19 
   9143.973   1.6589e-17  7.6857e-19 
   9145.172   1.7898e-17  7.7895e-19 
   9146.372   1.8299e-17  7.8207e-19 
   9147.573   1.8209e-17  8.1404e-19 
   9148.771     1.66e-17  8.9686e-19 
   9149.972   1.5541e-17   9.813e-19 
   9151.172   1.4131e-17  1.0145e-18 
   9152.373   1.8892e-17  1.1499e-18 
   9153.574   1.8669e-17  1.1702e-18 
   9154.773    1.971e-17  1.1494e-18 
   9155.973   1.6082e-17  1.0204e-18 
   9157.172   1.8836e-17  1.0262e-18 
   9158.371   1.9028e-17  1.0798e-18 
   9159.571   1.7392e-17  1.1082e-18 
   9160.771   1.5249e-17  1.0829e-18 
   9161.972   1.8327e-17  1.0779e-18 
    9163.17   1.8154e-17  1.0381e-18 
   9164.371   1.5356e-17  9.2793e-19 
   9165.571   1.7038e-17  8.1134e-19 
   9166.771   1.6969e-17  7.6852e-19 
   9167.971   1.8216e-17  7.6861e-19 
    9169.17   1.4627e-17  7.5655e-19 
    9170.37   1.7923e-17  7.6511e-19 
   9171.569   1.6603e-17  7.5888e-19 
    9172.77    1.679e-17  7.5691e-19 
   9173.969   1.7213e-17  8.3042e-19 
   9175.168   1.5696e-17  8.2897e-19 
   9176.368   1.9057e-17  8.2483e-19 
   9177.566   1.7473e-17  7.8248e-19 
   9178.767   1.6583e-17  8.0302e-19 
   9179.967   1.7884e-17  8.0597e-19 
   9181.166    1.765e-17  8.1053e-19 
   9182.366    1.728e-17  8.0928e-19 
   9183.566   1.7764e-17  7.9621e-19 
   9184.765   1.8824e-17  8.1889e-19 
   9185.965   1.8434e-17  7.9544e-19 
   9187.165   1.5747e-17  7.4849e-19 
   9188.364   1.6187e-17  7.4003e-19 
   9189.564   1.6785e-17  7.4544e-19 
   9190.764   1.7694e-17  7.3931e-19 
   9191.963   1.7266e-17  7.3955e-19 
   9193.162   1.6769e-17  7.3376e-19 
   9194.363   1.6389e-17  7.3248e-19 
   9195.562   1.8751e-17  7.4485e-19 
   9196.763   1.7639e-17  7.4592e-19 
    9197.96    1.815e-17  7.5128e-19 
    9199.16   1.7974e-17  7.5548e-19 
    9200.36    1.762e-17  7.6293e-19 
   9201.559    1.916e-17   7.699e-19 
   9202.758   1.8429e-17   7.692e-19 
   9203.959   1.7997e-17  7.6218e-19 
   9205.157   1.8075e-17   7.691e-19 
   9206.356   1.7151e-17   7.659e-19 
   9207.556   1.6672e-17  7.5904e-19 
   9208.756   1.7485e-17  7.6236e-19 
   9209.955   1.7783e-17  7.5892e-19 
   9211.156   1.6999e-17  7.6734e-19 
   9212.354   1.7973e-17  8.0668e-19 
   9213.553   1.9063e-17   8.895e-19 
   9214.752   1.6858e-17  9.4583e-19 
   9215.953   1.7239e-17  9.5801e-19 
   9217.152   1.5693e-17  9.6414e-19 
    9218.35   1.7969e-17   9.565e-19 
   9219.549   1.6013e-17  8.9775e-19 
   9220.748   1.7416e-17  8.6839e-19 
   9221.948   1.7236e-17  9.4816e-19 
   9223.148   1.6769e-17  1.0091e-18 
   9224.347   1.4332e-17  1.0187e-18 
   9225.547   1.6371e-17  1.0242e-18 
   9226.745    1.859e-17  1.0053e-18 
   9227.945   1.7964e-17  9.2858e-19 
   9229.145   1.7211e-17  8.2433e-19 
   9230.344    1.674e-17  7.7539e-19 
   9231.543   1.8058e-17  7.7377e-19 
   9232.742    1.586e-17  7.5811e-19 
   9233.941   1.6869e-17  7.4661e-19 
   9235.139   1.7244e-17  7.5065e-19 
   9236.339     1.79e-17  7.4424e-19 
   9237.538   1.6489e-17  7.3542e-19 
   9238.737   1.6001e-17   7.354e-19 
   9239.937   1.7253e-17   7.376e-19 
   9241.135   1.8596e-17  7.5063e-19 
   9242.333   1.8638e-17  7.5589e-19 
   9243.534   1.5538e-17  7.4583e-19 
   9244.733   1.5694e-17  7.7403e-19 
   9245.933   1.5714e-17  7.9934e-19 
    9247.13   1.7437e-17  8.4085e-19 
   9248.329   1.7411e-17  8.7605e-19 
   9249.529   1.6068e-17  8.9267e-19 
   9250.728   1.5827e-17  8.9529e-19 
   9251.928   1.6431e-17  8.9115e-19 
   9253.125   1.5703e-17  8.5578e-19 
   9254.324   1.8703e-17    8.31e-19 
   9255.522   1.6027e-17  8.0072e-19 
   9256.723   1.6065e-17  7.9713e-19 
   9257.922   1.5083e-17  8.2041e-19 
   9259.121   1.5624e-17  9.0889e-19 
    9260.32   1.6932e-17  1.0019e-18 
   9261.519     1.62e-17  1.0493e-18 
   9262.717   1.7671e-17   1.124e-18 
   9263.916   1.6131e-17   1.168e-18 
   9265.115   1.7403e-17  1.1296e-18 
   9266.314     1.41e-17  1.0421e-18 
   9267.513   1.7478e-17  9.9205e-19 
   9268.711   1.6435e-17  9.2142e-19 
    9269.91   1.6534e-17  8.0267e-19 
   9271.109   1.5969e-17  7.5553e-19 
   9272.308   1.6794e-17  7.4977e-19 
   9273.507    1.729e-17  7.5421e-19 
   9274.705   1.5132e-17  7.4298e-19 
   9275.903   1.6171e-17  7.3762e-19 
   9277.102   1.5652e-17  7.3217e-19 
   9278.303   1.6338e-17  7.4008e-19 
   9279.501   1.5335e-17   7.337e-19 
   9280.701    1.481e-17  7.2895e-19 
   9281.898   1.6351e-17  7.5863e-19 
   9283.098   1.5718e-17  8.2129e-19 
   9284.296    1.498e-17  8.8871e-19 
   9285.494   1.5728e-17  9.2622e-19 
   9286.692   1.5828e-17  9.4267e-19 
   9287.892   1.5226e-17  9.4195e-19 
    9289.09   1.7119e-17  9.2596e-19 
   9290.288   1.6383e-17  9.2141e-19 
   9291.487   1.4821e-17  9.5692e-19 
   9292.686   1.5162e-17  9.7423e-19 
   9293.883   1.3792e-17  9.6938e-19 
   9295.083    1.539e-17  9.6916e-19 
   9296.281   1.7123e-17  9.2284e-19 
    9297.48    1.639e-17  8.3108e-19 
   9298.679   1.5123e-17  7.7061e-19 
   9299.877   1.2524e-17  7.5197e-19 
   9301.076   1.4721e-17  8.0472e-19 
   9302.275   1.3731e-17  1.1122e-18 
   9303.473   1.2252e-17  1.7497e-18 
   9304.671   1.4386e-17   2.343e-18 
   9305.869   1.6881e-17   2.614e-18 
   9307.068    1.428e-17  2.7708e-18 
   9308.267   1.9672e-17  3.3515e-18 
   9309.465   8.8491e-18  3.6764e-18 
   9310.664   2.2174e-17  3.8004e-18 
   9311.861     2.17e-17  3.7154e-18 
   9313.061   2.0863e-17  3.6368e-18 
   9314.259   1.4482e-17  3.8713e-18 
   9315.457    2.804e-17  3.9074e-18 
   9316.657   3.1328e-18  3.3304e-18 
   9317.854   2.4745e-17  2.0796e-18 
   9319.053   9.6127e-18   1.985e-18 
   9320.251   2.0167e-17  2.6338e-18 
   9321.449   1.3086e-17  3.4239e-18 
   9322.647    1.481e-17  3.8322e-18 
   9323.846   1.9742e-17  4.0456e-18 
   9325.043   1.8701e-17  4.1595e-18 
   9326.242   2.8962e-17  3.4535e-18 
    9327.44   1.2941e-17   2.032e-18 
   9328.639   1.8828e-17  1.4026e-18 
   9329.837   1.5727e-17  1.3285e-18 
   9331.034   1.8038e-17  1.3179e-18 
   9332.232   1.4311e-17  1.4035e-18 
    9333.43   1.5513e-17  1.5316e-18 
   9334.628   1.8356e-17  1.9694e-18 
   9335.827   1.6856e-17  2.2501e-18 
   9337.024   1.1128e-17  2.2324e-18 
   9338.224   1.3112e-17  2.2738e-18 
   9339.422   1.3052e-17  2.3381e-18 
    9340.62   1.7871e-17   2.197e-18 
   9341.818   1.6853e-17  1.6299e-18 
   9343.017   1.8654e-17  1.4082e-18 
   9344.214   1.6313e-17  1.5025e-18 
   9345.411   1.9202e-17  1.4208e-18 
    9346.61   1.5891e-17  1.3907e-18 
   9347.809   1.4283e-17  1.2859e-18 
   9349.005   1.5517e-17   1.269e-18 
   9350.204   1.5884e-17  1.3023e-18 
   9351.402   1.6979e-17  1.3045e-18 
     9352.6   1.4643e-17  1.2637e-18 
   9353.798   1.4173e-17  1.3783e-18 
   9354.996   1.7993e-17  1.3212e-18 
   9356.193    1.787e-17  1.1473e-18 
   9357.392   1.7927e-17  1.1543e-18 
    9358.59   1.7665e-17  1.2981e-18 
   9359.788    1.309e-17  1.1665e-18 
   9360.985   1.4652e-17  1.0561e-18 
   9362.185   1.3406e-17  1.0385e-18 
   9363.377   1.4821e-17  1.0713e-18 
   9364.576    1.654e-17  1.1586e-18 
   9365.772   1.4309e-17  1.2388e-18 
    9366.97   1.6125e-17  1.2026e-18 
   9368.168   1.5161e-17  1.1895e-18 
   9369.365    1.316e-17  1.3939e-18 
   9370.564   1.6225e-17  1.9229e-18 
   9371.759  -5.0324e-18  3.3055e-18 
   9372.956   4.9475e-17  4.6129e-18 
   9374.154     1.67e-17  4.9243e-18 
   9375.351   1.9254e-17  5.1945e-18 
   9376.548    6.168e-18  5.5023e-18 
   9377.747   4.8027e-18  5.6956e-18 
   9378.945   9.7213e-18  4.6043e-18 
   9380.141   1.7812e-17  2.5489e-18 
   9381.341   1.9862e-17  1.8989e-18 
   9382.538   1.4672e-17  1.6269e-18 
   9383.735   1.6181e-17  1.6417e-18 
   9384.935   1.3402e-17  1.6374e-18 
   9386.132   1.6616e-17  1.6033e-18 
   9387.329   1.3897e-17  1.5721e-18 
   9388.524   1.1763e-17   1.414e-18 
   9389.723   1.3293e-17  1.1083e-18 
   9390.921   1.6849e-17  9.0224e-19 
   9392.119   1.4948e-17  8.6234e-19 
   9393.317   1.4332e-17  8.8076e-19 
   9394.514   1.3866e-17  9.2784e-19 
   9395.709   1.4005e-17  9.4517e-19 
   9396.908   1.3875e-17  9.4663e-19 
   9398.105   1.0798e-17  1.1707e-18 
   9399.302   1.5525e-17   1.776e-18 
     9400.5   1.4073e-17  2.0827e-18 
   9401.698   1.4298e-17  1.8631e-18 
   9402.895   1.4566e-17  1.8937e-18 
   9404.092   1.4737e-17  1.7957e-18 
    9405.29   1.1942e-17   1.444e-18 
   9406.487     1.43e-17  1.0126e-18 
   9407.684   1.4125e-17   9.048e-19 
   9408.882   1.4884e-17  9.2219e-19 
   9410.078   1.6174e-17  9.4498e-19 
   9411.278   1.5904e-17  9.0005e-19 
   9412.475   1.7347e-17  8.7966e-19 
    9413.67   1.5023e-17  8.6898e-19 
   9414.869   1.7892e-17  9.8384e-19 
   9416.065   1.2493e-17  1.5729e-18 
   9417.263   1.8076e-17  2.2753e-18 
   9418.461   1.2003e-17  2.4258e-18 
   9419.659   2.0974e-17  2.5515e-18 
   9420.854   1.4599e-17   2.463e-18 
   9422.052   1.5753e-17  2.2974e-18 
   9423.249   8.5252e-18  1.8553e-18 
   9424.446   1.8775e-17  1.3081e-18 
   9425.644   1.3348e-17  1.2612e-18 
   9426.841   1.5719e-17  1.2107e-18 
   9428.038    1.499e-17  1.2201e-18 
   9429.235    1.371e-17  1.0815e-18 
   9430.431   1.3083e-17  9.4166e-19 
   9431.629   1.3054e-17  8.9198e-19 
   9432.825   1.5802e-17  8.8901e-19 
   9434.022   1.7813e-17  9.9688e-19 
   9435.219   9.9223e-18    1.53e-18 
   9436.416   4.5886e-17  3.1246e-18 
   9437.613   5.4099e-18  4.8111e-18 
    9438.81   2.3606e-17  5.3907e-18 
   9440.006   1.2105e-17  5.6526e-18 
   9441.204    1.709e-17  5.6525e-18 
   9442.401   3.7575e-17  4.5182e-18 
   9443.598   1.6092e-17   2.366e-18 
   9444.795   1.5481e-17   1.484e-18 
   9445.992   1.5757e-17  1.3225e-18 
   9447.188   1.6731e-17  1.2318e-18 
   9448.386    1.579e-17  1.1835e-18 
   9449.582    1.533e-17  1.2115e-18 
    9450.78   1.4101e-17  1.1748e-18 
   9451.977   1.3934e-17  1.1006e-18 
   9453.174   1.5157e-17  1.0999e-18 
    9454.37   1.0217e-17  1.5804e-18 
   9455.566   2.4058e-17  2.6955e-18 
   9456.763   4.5514e-18  3.2702e-18 
    9457.96   1.7233e-17  3.2439e-18 
   9459.157   1.0286e-17  3.2513e-18 
   9460.353   1.7418e-17  3.4594e-18 
    9461.55   1.4595e-17  2.6571e-18 
   9462.747   1.8842e-17  1.4046e-18 
   9463.942   1.4082e-17  1.0167e-18 
    9465.14   1.6149e-17  9.4779e-19 
   9466.336   1.6036e-17  9.3318e-19 
   9467.532   1.4028e-17  9.0548e-19 
    9468.73   1.6035e-17  1.0197e-18 
   9469.927   1.4907e-17    1.02e-18 
   9471.123   1.4182e-17  9.8401e-19 
   9472.319   1.1254e-17  1.3489e-18 
   9473.515   1.9443e-17  2.7175e-18 
   9474.712   2.3223e-18  4.0507e-18 
   9475.909   1.2401e-17  4.2199e-18 
   9477.105   5.9455e-18  4.1367e-18 
   9478.301   2.1062e-17  4.2288e-18 
   9479.498   3.8154e-17  4.0018e-18 
   9480.694   9.1765e-18  2.7628e-18 
    9481.89   1.9042e-17  1.6129e-18 
   9483.087   1.5713e-17   1.292e-18 
   9484.282   1.5143e-17  1.0727e-18 
    9485.48   1.4222e-17  9.1223e-19 
   9486.677   1.5562e-17  8.8811e-19 
   9487.874   1.5656e-17  9.2786e-19 
   9489.071   1.5031e-17  9.3968e-19 
   9490.268   1.4052e-17  9.3268e-19 
   9491.463     1.44e-17  9.1038e-19 
   9492.659   1.8125e-17   1.102e-18 
   9493.854   1.5632e-17  1.1517e-18 
   9495.052   1.4136e-17  1.0936e-18 
   9496.247   1.3927e-17  1.0475e-18 
   9497.443   1.6162e-17  1.0662e-18 
   9498.639   4.4132e-18  1.6022e-18 
   9499.836   1.7735e-17  2.7152e-18 
   9501.032   1.6281e-17  3.3773e-18 
   9502.225   1.4157e-17  3.2162e-18 
   9503.421   1.5986e-17  2.7232e-18 
   9504.616   1.1529e-17  2.3381e-18 
   9505.813   1.1957e-17  1.8954e-18 
   9507.008   1.6057e-17  1.1772e-18 
   9508.205   1.4437e-17  9.4149e-19 
     9509.4   1.4419e-17  9.1122e-19 
   9510.598   1.4763e-17  8.9079e-19 
   9511.793   1.5461e-17  8.6896e-19 
   9512.988   1.5042e-17  8.6636e-19 
   9514.184   1.5294e-17  1.0673e-18 
    9515.38   3.2895e-18  1.9256e-18 
   9516.578   1.9388e-17  3.1639e-18 
   9517.773     5.64e-18  3.8021e-18 
   9518.969   2.2281e-17  3.7944e-18 
   9520.165   6.6743e-18  3.7314e-18 
    9521.36   1.7173e-17   3.643e-18 
   9522.557  -1.5852e-18  2.7617e-18 
   9523.753   1.9018e-17  1.5018e-18 
   9524.949   1.4392e-17  1.1506e-18 
   9526.144   1.5985e-17  1.1332e-18 
   9527.339   1.6429e-17  1.1764e-18 
   9528.535   1.2441e-17  1.1731e-18 
   9529.731   1.4913e-17  1.1397e-18 
   9530.928   1.3813e-17  1.0433e-18 
   9532.123   1.7422e-17  1.0844e-18 
   9533.318   1.5151e-17  1.1501e-18 
   9534.514   1.4891e-17   1.195e-18 
   9535.709   2.0922e-17  1.3185e-18 
   9536.907     1.59e-17  1.2772e-18 
   9538.101   1.4514e-17  1.3019e-18 
   9539.297    1.566e-17  1.6964e-18 
   9540.492   1.5308e-17  1.5294e-18 
   9541.688   1.3032e-17  1.4908e-18 
   9542.883   1.5261e-17  1.5303e-18 
    9544.08    1.453e-17  1.5961e-18 
   9545.274   1.1558e-17   1.579e-18 
    9546.47   1.6811e-17  1.4576e-18 
   9547.665   1.3883e-17  1.4372e-18 
    9548.86   1.3089e-17   2.184e-18 
   9550.056   1.3139e-17  3.2922e-18 
   9551.252   1.0995e-17  3.4274e-18 
   9552.448   1.2525e-17  3.7227e-18 
   9553.644   7.4559e-18  3.8073e-18 
   9554.838   1.7021e-17  3.4929e-18 
   9556.033   1.2596e-17  2.4784e-18 
   9557.229   1.5864e-17  1.2135e-18 
   9558.425   1.3978e-17  1.1629e-18 
   9559.621    1.536e-17  1.1018e-18 
   9560.816   1.5308e-17  1.0707e-18 
   9562.011   1.6464e-17  1.1505e-18 
   9563.205   1.0367e-17  1.7759e-18 
     9564.4   3.4193e-17  2.9567e-18 
   9565.597   1.3271e-17  3.4148e-18 
   9566.792   2.4528e-17  3.3311e-18 
   9567.987    1.404e-17   3.254e-18 
   9569.183   1.2623e-17  3.0266e-18 
   9570.378    5.658e-18  2.3917e-18 
   9571.573    1.371e-17  1.4223e-18 
   9572.765   1.4536e-17  1.0904e-18 
    9573.96   1.6992e-17  1.0046e-18 
   9575.156   1.3836e-17  9.3528e-19 
    9576.35   1.4702e-17  8.9054e-19 
   9577.545   1.3969e-17  8.5251e-19 
    9578.74    1.533e-17  9.4673e-19 
   9579.936   1.4402e-17  9.5132e-19 
    9581.13   1.1821e-17  9.3333e-19 
   9582.325   1.4982e-17  8.9104e-19 
   9583.519   1.2808e-17  8.5796e-19 
   9584.715   1.4444e-17  8.4005e-19 
   9585.909   1.4612e-17  8.3914e-19 
   9587.105    1.254e-17  8.8233e-19 
   9588.301   1.4464e-17  9.5255e-19 
   9589.495   1.7441e-17  1.0376e-18 
    9590.69   1.2881e-17  1.0393e-18 
   9591.885   1.6318e-17  1.0576e-18 
    9593.08    1.458e-17  1.0432e-18 
   9594.274   1.5725e-17  9.9039e-19 
   9595.471   1.4032e-17  9.3606e-19 
   9596.665   1.4351e-17  9.2651e-19 
   9597.859   1.3695e-17  8.8643e-19 
   9599.054   1.4729e-17  8.9587e-19 
    9600.25   1.3405e-17  8.9162e-19 
   9601.444   1.4422e-17  9.0752e-19 
   9602.639   1.6993e-17  9.4384e-19 
   9603.833   1.2521e-17  1.2577e-18 
   9605.028   1.6471e-17  1.7149e-18 
   9606.222   1.3396e-17  1.7545e-18 
   9607.417   1.5675e-17  1.7297e-18 
   9608.613   1.7906e-17  1.7911e-18 
   9609.808   2.1485e-17  1.6525e-18 
     9611.0   1.4151e-17  1.2895e-18 
   9612.196   1.5494e-17  9.7402e-19 
   9613.391   1.3748e-17   9.312e-19 
   9614.586   1.4387e-17   9.279e-19 
    9615.78   1.2471e-17  9.6694e-19 
   9616.973   1.2193e-17  1.2934e-18 
   9618.169   1.6731e-17  1.7005e-18 
   9619.363   1.0703e-17  1.8434e-18 
   9620.559    9.897e-18  1.8732e-18 
   9621.752   1.4948e-17  1.8874e-18 
   9622.947   1.5888e-17  1.7787e-18 
   9624.141   1.2391e-17  1.4348e-18 
   9625.337   1.2217e-17  1.1268e-18 
    9626.53      1.4e-17  1.0685e-18 
   9627.726   1.2265e-17  1.0489e-18 
    9628.92   1.4769e-17  1.0623e-18 
   9630.114   1.5197e-17  1.0477e-18 
   9631.307   1.5893e-17  1.0162e-18 
   9632.502   1.4856e-17  9.8405e-19 
   9633.696   1.2958e-17  9.3286e-19 
   9634.891   1.4545e-17   9.103e-19 
   9636.086    1.225e-17  9.6944e-19 
    9637.28    1.365e-17  9.8709e-19 
   9638.473   1.4449e-17  9.8855e-19 
   9639.668   1.1726e-17  8.8916e-19 
   9640.862   1.5054e-17  9.0969e-19 
   9642.056   1.4312e-17  8.9795e-19 
    9643.25    1.482e-17  9.1887e-19 
   9644.445   1.5115e-17  9.3364e-19 
   9645.638   1.3224e-17   9.327e-19 
   9646.833   1.5422e-17  9.2452e-19 
   9648.027   1.2949e-17  9.1399e-19 
   9649.221   1.3444e-17  9.3779e-19 
   9650.415   1.4325e-17  9.8262e-19 
   9651.609   1.3439e-17  1.0372e-18 
   9652.802   1.4165e-17  1.0552e-18 
   9653.996   1.7174e-17  1.0597e-18 
   9655.191    1.409e-17   1.062e-18 
   9656.384   1.3784e-17  1.0775e-18 
   9657.579   1.3789e-17  1.0683e-18 
   9658.771   1.1337e-17  1.0586e-18 
   9659.965   1.1721e-17  1.0681e-18 
    9661.16   1.2345e-17   1.066e-18 
   9662.353   1.2567e-17  1.0142e-18 
   9663.548   1.4437e-17  9.9779e-19 
   9664.742   1.2626e-17  1.2151e-18 
   9665.936   1.1811e-17  1.5367e-18 
   9667.129   1.2059e-17  1.6905e-18 
   9668.324   1.4777e-17  1.7314e-18 
   9669.516   1.1794e-17  1.7421e-18 
    9670.71   1.4475e-17  1.6943e-18 
   9671.905   1.2943e-17  1.4776e-18 
   9673.097   1.5611e-17  1.2313e-18 
   9674.291    1.519e-17  1.1548e-18 
   9675.484   1.6464e-17  1.1972e-18 
   9676.678    1.635e-17  1.3937e-18 
   9677.873   1.4688e-17  1.7036e-18 
   9679.066   1.7416e-17  2.0273e-18 
   9680.259   1.3892e-17  2.2059e-18 
   9681.452   1.4612e-17  2.2161e-18 
   9682.647   2.0046e-17  2.1403e-18 
   9683.842   1.5202e-17  1.9101e-18 
   9685.035    1.806e-17  1.5586e-18 
   9686.228   1.1788e-17  1.2452e-18 
   9687.422    1.482e-17  1.3217e-18 
   9688.614   1.4355e-17  1.4089e-18 
   9689.807   1.3908e-17  1.3886e-18 
     9691.0   1.1048e-17  1.3805e-18 
   9692.195   1.5923e-17  1.3656e-18 
   9693.389    1.513e-17  1.2335e-18 
    9694.58   1.5493e-17  1.2172e-18 
   9695.774   1.7387e-17  1.7559e-18 
   9696.967   1.6981e-17  2.2637e-18 
   9698.161   1.2327e-17  2.3554e-18 
   9699.355   1.3294e-17  2.3643e-18 
   9700.546   1.4158e-17  2.3466e-18 
    9701.74   1.9252e-17  2.0704e-18 
   9702.934   1.2873e-17  1.4815e-18 
   9704.127   1.4848e-17  1.0803e-18 
    9705.32   1.5054e-17  1.0207e-18 
   9706.512   1.3193e-17  1.0142e-18 
   9707.705   1.5291e-17  1.2107e-18 
   9708.899    1.525e-17  1.5085e-18 
   9710.092   1.3165e-17  1.6451e-18 
   9711.286   1.4596e-17  1.6632e-18 
   9712.479   1.1857e-17  1.6575e-18 
   9713.673   1.5403e-17  1.5937e-18 
   9714.866   1.4702e-17  1.4223e-18 
   9716.058   1.5034e-17  1.8263e-18 
   9717.251   1.8064e-17  2.4756e-18 
   9718.444   1.6703e-17  2.6696e-18 
   9719.637   2.0544e-17  2.7038e-18 
    9720.83   1.4507e-17  2.7057e-18 
   9722.022   1.8717e-17  2.4658e-18 
   9723.214   1.3797e-17  1.8153e-18 
   9724.407   1.3835e-17   1.256e-18 
   9725.602   1.4079e-17  1.1626e-18 
   9726.794   1.4478e-17  1.1372e-18 
   9727.988   1.3967e-17  1.1136e-18 
   9729.179   1.3736e-17   1.093e-18 
   9730.373   1.3957e-17  1.1041e-18 
   9731.566   1.2997e-17   1.195e-18 
   9732.758   1.3756e-17  1.3059e-18 
   9733.952   1.2356e-17  1.4894e-18 
   9735.142   1.1613e-17  1.7824e-18 
   9736.336   1.4038e-17  1.9235e-18 
   9737.529   1.8573e-17  1.8838e-18 
   9738.721   7.9553e-18  1.7813e-18 
   9739.914   1.4328e-17   1.676e-18 
   9741.105   9.9442e-18  1.4296e-18 
   9742.298   1.3351e-17  1.2914e-18 
   9743.491   1.4605e-17  1.3883e-18 
   9744.682   1.2014e-17  1.4116e-18 
   9745.876   1.1459e-17  1.3998e-18 
   9747.069   1.0475e-17  1.3763e-18 
   9748.262   1.3561e-17  1.2545e-18 
   9749.454   1.3346e-17  1.0423e-18 
   9750.647   1.2126e-17  9.0209e-19 
   9751.839   1.2705e-17  8.7777e-19 
   9753.032   1.2702e-17  1.1959e-18 
   9754.225   1.3061e-17  1.2003e-18 
   9755.417   1.2443e-17  1.1958e-18 
   9756.609   1.2591e-17  1.1826e-18 
   9757.801   1.0765e-17  1.1635e-18 
   9758.993   1.4468e-17  1.1583e-18 
   9760.184    1.505e-17  1.1312e-18 
   9761.376    1.331e-17  1.1209e-18 
   9762.569   1.2317e-17  1.1231e-18 
   9763.761   1.2592e-17  1.1311e-18 
   9764.954   1.4898e-17  1.1491e-18 
   9766.146   1.0665e-17  1.1337e-18 
   9767.338   1.2611e-17  1.1337e-18 
   9768.531   1.3242e-17  1.1501e-18 
   9769.722   1.4088e-17  1.1567e-18 
   9770.915   1.4736e-17  1.1664e-18 
   9772.105   1.3382e-17   1.149e-18 
   9773.298   1.4872e-17   1.162e-18 
    9774.49   1.1465e-17  1.1579e-18 
   9775.683   1.3473e-17  1.1765e-18 
   9776.875   1.4095e-17  1.1943e-18 
   9778.064   1.2767e-17  1.1901e-18 
   9779.258   1.1969e-17  1.1993e-18 
   9780.451   1.5305e-17   1.216e-18 
   9781.643   1.1451e-17  1.2104e-18 
   9782.835   1.1666e-17  1.2366e-18 
   9784.025   1.4195e-17  1.3077e-18 
   9785.218   1.5704e-17  1.6246e-18 
    9786.41   1.6841e-17  2.5489e-18 
   9787.602   1.9331e-17  4.0838e-18 
   9788.793   1.6662e-17  5.1346e-18 
   9789.985   1.7714e-17  5.3531e-18 
   9791.176   7.1553e-18  5.3385e-18 
   9792.368   7.9295e-18  5.1599e-18 
   9793.559    2.948e-17  3.4403e-18 
    9794.75   8.6886e-18  2.3723e-18 
   9795.943   1.9506e-17  2.0731e-18 
   9797.134   1.4704e-17  2.3933e-18 
   9798.327   1.3672e-17   2.368e-18 
   9799.518   1.4571e-17  2.3232e-18 
    9800.71   1.2372e-17  2.2597e-18 
     9801.9   1.5863e-17  2.0692e-18 
   9803.094   1.0899e-17  1.5983e-18 
   9804.285   1.5704e-17  1.3402e-18 
   9805.476   1.3246e-17  1.3645e-18 
   9806.666   1.4302e-17  1.3884e-18 
   9807.859   1.3046e-17  1.5173e-18 
   9809.049   1.6939e-17  1.7148e-18 
   9810.242   1.3573e-17  1.7425e-18 
   9811.434   1.4674e-17  1.6778e-18 
   9812.624   1.4775e-17   1.685e-18 
   9813.816   1.2899e-17  1.7028e-18 
   9815.008    1.449e-17  1.6037e-18 
   9816.199    1.346e-17  1.4493e-18 
   9817.391   1.2934e-17  1.4062e-18 
   9818.581   1.3283e-17   1.372e-18 
   9819.772   1.4302e-17  1.2722e-18 
   9820.963   1.0407e-17  1.1297e-18 
   9822.153   1.1692e-17   1.067e-18 
   9823.345   1.3984e-17  1.0835e-18 
   9824.535   1.4374e-17  1.1533e-18 
   9825.727   9.4376e-18  1.2132e-18 
   9826.918   1.2581e-17   1.259e-18 
    9828.11   1.4279e-17  1.2661e-18 
   9829.301   1.2533e-17  1.2495e-18 
   9830.492   1.4352e-17  1.2064e-18 
   9831.682   1.2518e-17  1.1291e-18 
   9832.873    1.186e-17  1.0648e-18 
   9834.064   1.4337e-17  1.0478e-18 
   9835.254   1.1552e-17  1.0268e-18 
   9836.446   1.4013e-17  1.0124e-18 
   9837.638   1.4209e-17  9.9254e-19 
   9838.829   1.2831e-17  9.7225e-19 
    9840.02   1.2635e-17  9.5959e-19 
   9841.211   1.6012e-17  9.7238e-19 
     9842.4   1.3765e-17   9.955e-19 
   9843.593   1.4774e-17  1.1797e-18 
   9844.782   1.5869e-17  1.7075e-18 
   9845.973   1.5923e-17  2.1645e-18 
   9847.165   1.5145e-17  2.3033e-18 
   9848.355   1.3652e-17  2.3159e-18 
   9849.545   9.0651e-18  2.2721e-18 
   9850.736   1.6894e-17  2.0495e-18 
   9851.928   1.0301e-17  1.5247e-18 
   9853.117   1.5098e-17  1.1555e-18 
   9854.307   1.1895e-17  1.0584e-18 
   9855.499     1.36e-17   1.035e-18 
   9856.688   1.4988e-17  1.0232e-18 
   9857.879    1.309e-17  1.0135e-18 
    9859.07   1.2909e-17  1.0054e-18 
    9860.26   1.4414e-17  1.0129e-18 
    9861.45   1.3905e-17  1.0215e-18 
   9862.641   1.2984e-17  1.0269e-18 
    9863.83   1.3408e-17   1.054e-18 
   9865.024    1.327e-17  1.0982e-18 
   9866.213   1.3232e-17   1.199e-18 
   9867.402    8.614e-18  1.7985e-18 
   9868.593   1.9242e-17    3.03e-18 
   9869.783   4.9704e-18  3.8392e-18 
   9870.975   1.4404e-17  4.0307e-18 
   9872.165   1.1513e-17  4.0571e-18 
   9873.355   1.2299e-17  3.9657e-18 
   9874.545   1.6955e-17  3.3446e-18 
   9875.735    5.368e-18  2.1922e-18 
   9876.925   1.5182e-17  1.4581e-18 
   9878.116   1.1736e-17   1.261e-18 
   9879.306   1.2654e-17  1.1924e-18 
   9880.496   1.2569e-17  1.1619e-18 
   9881.686   1.2595e-17  1.1888e-18 
   9882.875   1.3332e-17  1.2729e-18 
   9884.066   1.1735e-17  1.3216e-18 
   9885.257   1.2554e-17   1.338e-18 
   9886.446    1.013e-17   1.311e-18 
   9887.637   1.3445e-17  1.3006e-18 
   9888.825    1.417e-17  1.2677e-18 
   9890.016   1.2539e-17   1.483e-18 
   9891.204   1.8413e-17  2.1169e-18 
   9892.395   1.8525e-17  2.5899e-18 
   9893.586    1.383e-17  2.7156e-18 
   9894.775   8.7822e-18  2.7357e-18 
   9895.965   1.4321e-17  2.6749e-18 
   9897.155   1.4758e-17  2.3323e-18 
   9898.344   7.0049e-18  1.7185e-18 
   9899.535   1.5777e-17  1.3482e-18 
   9900.725   1.6484e-17  1.2531e-18 
   9901.914    1.091e-17  1.2006e-18 
   9903.103   1.3152e-17   1.171e-18 
   9904.293   1.4718e-17  1.1349e-18 
   9905.483   1.3978e-17  1.1328e-18 
   9906.671    1.411e-17  1.1451e-18 
    9907.86   1.4008e-17  1.1817e-18 
    9909.05   1.2173e-17  1.4171e-18 
   9910.241   7.2816e-18  2.3453e-18 
   9911.431   1.7698e-17  3.5324e-18 
   9912.619   2.0848e-17  4.1516e-18 
   9913.811   1.7485e-17  4.2729e-18 
     9915.0    9.464e-18    4.28e-18 
   9916.188   4.9009e-18  4.0416e-18 
   9917.377   1.3755e-17   3.222e-18 
   9918.567   1.1272e-17  2.0523e-18 
   9919.757   1.4275e-17  1.4815e-18 
   9920.946   1.2499e-17  1.3262e-18 
   9922.134   1.5895e-17  1.2563e-18 
   9923.326   1.4729e-17  1.1941e-18 
   9924.514    1.334e-17  1.1648e-18 
   9925.703   1.3415e-17  1.1477e-18 
   9926.893   1.3342e-17  1.1461e-18 
   9928.082   1.2472e-17  1.1458e-18 
   9929.273   1.2845e-17  1.1536e-18 
    9930.46   1.3132e-17   1.174e-18 
   9931.649   1.2841e-17  1.1825e-18 
   9932.838   1.1079e-17   1.196e-18 
   9934.026   1.2759e-17  1.2252e-18 
   9935.215   1.2949e-17  1.2712e-18 
   9936.405   1.4042e-17  1.4672e-18 
   9937.593   1.6072e-17  2.1206e-18 
   9938.782   1.6455e-17  2.8891e-18 
   9939.973    9.808e-18  3.3171e-18 
   9941.157   1.5344e-17  3.7237e-18 
   9942.346   1.6915e-17  4.3786e-18 
   9943.535   1.7924e-17  4.9114e-18 
   9944.719   1.8803e-17  4.9702e-18 
   9945.908   8.5634e-18  4.8255e-18 
   9947.099   8.1946e-18  4.6738e-18 
   9948.288   1.6661e-17   4.245e-18 
   9949.474    9.312e-18  3.4359e-18 
   9950.664   1.7932e-17  2.6646e-18 
   9951.853   1.2534e-17  2.5412e-18 
   9953.041   1.6945e-17  3.2769e-18 
   9954.229   1.1031e-17  3.8853e-18 
   9955.419   1.9408e-17  4.0718e-18 
   9956.607   1.4786e-17  4.2205e-18 
   9957.796   8.4714e-18  4.5105e-18 
   9958.985   2.3599e-17   4.555e-18 
   9960.173   1.5729e-18  4.1256e-18 
   9961.362   1.2411e-17  3.8412e-18 
   9962.551   1.5986e-17  3.7166e-18 
   9963.739   9.6368e-18  3.3375e-18 
   9964.926   7.2394e-18  2.5697e-18 
   9966.116   1.2767e-17  1.8251e-18 
   9967.305   1.0966e-17  1.6996e-18 
   9968.493    1.446e-17  2.0389e-18 
   9969.681   9.9415e-18   2.364e-18 
   9970.869   1.4635e-17  2.4898e-18 
   9972.057   1.5289e-17  2.5344e-18 
   9973.245   1.6208e-17  2.5239e-18 
   9974.435   1.3429e-17  2.3589e-18 
   9975.623   1.2182e-17  2.0789e-18 
    9976.81   1.4906e-17  1.8911e-18 
     9978.0   1.0998e-17  1.8141e-18 
   9979.187   1.3648e-17  1.7724e-18 
   9980.374   1.7637e-17  1.6803e-18 
   9981.562   1.3903e-17  1.5213e-18 
    9982.75    1.377e-17  1.3921e-18 
   9983.939   1.4936e-17  1.3233e-18 
   9985.126   1.1392e-17  1.2863e-18 
   9986.315   1.3503e-17  1.2913e-18 
   9987.504   1.4902e-17  1.2943e-18 
   9988.692   1.2536e-17  1.2967e-18 
    9989.88   1.3237e-17     1.3e-18 
   9991.066   1.4052e-17  1.2882e-18 
   9992.254    1.138e-17  1.2964e-18 
   9993.443   1.5675e-17  1.2938e-18 
    9994.63   1.2408e-17  2.0904e-18 
   9995.819   1.5287e-17  2.5325e-18 
   9997.007   1.4139e-17  3.0411e-18 
   9998.195   9.0924e-18  3.2999e-18 
   9999.381   1.3951e-17  3.4088e-18 
  10000.569   1.1902e-17  3.4127e-18 
  10001.758   1.4793e-17  3.2968e-18 
  10002.946   1.5721e-17  2.8683e-18 
  10004.133   1.2938e-17  2.4761e-18 
   10005.32   9.1866e-18  2.3893e-18 
  10006.508   1.4546e-17  2.7556e-18 
  10007.695   1.1864e-17  4.1492e-18 
  10008.882   1.1684e-17  4.1647e-18 
  10010.071   2.7195e-17   5.587e-18 
  10011.259   7.2087e-18  6.1211e-18 
  10012.446   1.4354e-17  6.2496e-18 
  10013.632   1.5618e-17  6.0949e-18 
   10014.82   1.1608e-17  5.3861e-18 
  10016.009    3.407e-18  3.9872e-18 
  10017.195   1.2769e-17  2.6843e-18 
  10018.382   1.0266e-17  2.1587e-18 
   10019.57    1.333e-17  2.0974e-18 
  10020.756   9.2174e-18  2.4645e-18 
  10021.945   1.3812e-17  3.1869e-18 
  10023.132   1.8054e-17  3.6276e-18 
  10024.321   1.9223e-17  3.7067e-18 
  10025.507   1.9023e-17  3.6748e-18 
  10026.695   1.4423e-17  3.5071e-18 
  10027.881   1.5964e-17  2.9521e-18 
  10029.069   1.0837e-17  2.1039e-18 
  10030.257   9.3633e-18  1.6741e-18 
  10031.443   1.2798e-17  1.5638e-18 
   10032.63   1.1999e-17  1.5291e-18 
  10033.816   1.0902e-17  1.5263e-18 
  10035.003   1.3534e-17  1.5596e-18 
  10036.192   1.4637e-17  1.5673e-18 
  10037.377   9.4276e-18   1.584e-18 
  10038.565   1.6803e-17  1.7744e-18 
  10039.751   1.4584e-17  2.1227e-18 
  10040.939   8.9425e-18  2.3971e-18 
  10042.126   7.5459e-18  2.4755e-18 
  10043.312   1.1794e-17  2.5142e-18 
  10044.499   1.0195e-17  2.4441e-18 
  10045.687   1.1092e-17  2.1728e-18 
  10046.874   1.2231e-17  1.7629e-18 
   10048.06      1.6e-17  1.5075e-18 
  10049.245    1.344e-17  1.4282e-18 
  10050.433   1.2062e-17    1.39e-18 
  10051.621    1.337e-17  1.3973e-18 
  10052.807   1.3733e-17  1.4066e-18 
  10053.993   1.3658e-17  1.4984e-18 
  10055.179   1.5814e-17  1.7746e-18 
  10056.363   1.2178e-17  2.3376e-18 
  10057.548   6.3429e-18   2.906e-18 
  10058.736   1.8466e-17  3.2221e-18 
  10059.921   1.0444e-17  3.2907e-18 
  10061.107   1.6177e-17  3.2592e-18 
  10062.294   1.8313e-17  3.0558e-18 
  10063.481   1.2945e-17  2.6549e-18 
  10064.667   1.5243e-17  2.3276e-18 
  10065.853    1.294e-17  2.2724e-18 
  10067.041   1.1852e-17  2.4054e-18 
  10068.226   1.4991e-17  2.5355e-18 
  10069.412   1.2778e-17  2.5084e-18 
  10070.598    1.505e-17  2.3961e-18 
  10071.785   9.4586e-18  2.2624e-18 
  10072.972   9.7541e-18  2.0829e-18 
  10074.157   1.4551e-17  1.8641e-18 
  10075.345   1.6476e-17  1.7628e-18 
  10076.529   1.3494e-17   1.985e-18 
  10077.715   1.1185e-17  2.9517e-18 
  10078.902   2.3221e-17  4.2552e-18 
  10080.089   8.6804e-18  5.0127e-18 
  10081.274   1.6036e-17  5.2261e-18 
  10082.459   1.7035e-17  5.2674e-18 
  10083.646   4.6163e-18   5.021e-18 
  10084.833   1.2973e-17  4.1196e-18 
  10086.019   8.0302e-18  2.8139e-18 
  10087.205   1.7506e-17  2.1142e-18 
  10088.388   1.1995e-17  1.8699e-18 
  10089.576    1.306e-17  1.7806e-18 
  10090.762   1.4047e-17  1.7113e-18 
  10091.947   1.1852e-17  1.6903e-18 
  10093.134   1.1416e-17  1.7144e-18 
  10094.319   1.7021e-17  1.7704e-18 
  10095.505     1.17e-17  1.7967e-18 
   10096.69   9.8171e-18  1.8368e-18 
  10097.877    1.491e-17  1.9979e-18 
  10099.062   8.2947e-18  2.5284e-18 
  10100.248   1.5701e-17  3.2501e-18 
  10101.433   1.3629e-17  3.6067e-18 
  10102.619   1.5192e-17   3.693e-18 
  10103.804   9.8875e-18  3.6665e-18 
   10104.99   1.0558e-17  3.4417e-18 
  10106.175   1.3417e-17  2.8291e-18 
  10107.362   1.2154e-17  2.1247e-18 
  10108.545   1.0172e-17  1.8281e-18 
  10109.732   1.4189e-17  1.7701e-18 
  10110.917   1.1153e-17  1.7209e-18 
  10112.103   1.2834e-17  1.7085e-18 
  10113.287   1.3446e-17  1.7169e-18 
  10114.472   1.1442e-17  1.7353e-18 
  10115.659    1.413e-17  1.8009e-18 
  10116.842   1.1739e-17  1.8924e-18 
  10118.028   1.1712e-17  2.3139e-18 
  10119.214   6.3232e-18  3.5812e-18 
    10120.4   2.0613e-17  5.1686e-18 
  10121.584    9.165e-18  6.0579e-18 
  10122.769   6.4552e-18  6.2764e-18 
  10123.955   1.3839e-17  6.2828e-18 
  10125.139   1.7854e-17  5.9384e-18 
  10126.323   1.9639e-17  4.8317e-18 
  10127.508   1.3733e-17  3.3802e-18 
  10128.695   1.4018e-17  2.5875e-18 
  10129.879   1.2868e-17  2.3713e-18 
  10131.063   1.7739e-17  2.2929e-18 
  10132.249   1.5304e-17  2.2125e-18 
  10133.434   1.4085e-17  2.1516e-18 
   10134.62   1.1518e-17  2.0693e-18 
  10135.803   1.1603e-17  1.9737e-18 
  10136.988   1.5622e-17  1.9398e-18 
   10138.17   1.6296e-17  1.9927e-18 
  10139.354   1.2063e-17  2.0937e-18 
  10140.539   1.0519e-17  2.2453e-18 
  10141.723   1.4857e-17  2.3933e-18 
  10142.908   1.3803e-17  2.5187e-18 
  10144.093   1.1093e-17  2.6139e-18 
  10145.277   8.3022e-18  2.6662e-18 
  10146.462   1.0518e-17  2.6903e-18 
  10147.648   1.4617e-17   2.897e-18 
   10148.83   1.5328e-17   3.462e-18 
  10150.016   1.2914e-17  3.9569e-18 
  10151.199   1.1512e-17  4.1351e-18 
  10152.385   1.4075e-17  4.1668e-18 
  10153.568   1.5218e-17  4.1725e-18 
  10154.754   1.5184e-17  3.9791e-18 
  10155.938   1.1404e-17  3.5149e-18 
  10157.121   1.9048e-17  3.1549e-18 
  10158.306   1.1362e-17  3.0327e-18 
  10159.491   1.1667e-17  3.0196e-18 
  10160.675   1.2928e-17   2.962e-18 
  10161.859   1.0025e-17  2.8076e-18 
  10163.043   1.1211e-17  2.8045e-18 
  10164.228   1.2497e-17  2.9084e-18 
  10165.412   1.2821e-17  3.1385e-18 
  10166.595   2.1256e-17  3.9719e-18 
   10167.78   1.4064e-17  5.4413e-18 
  10168.965   8.6751e-18  6.5729e-18 
  10170.148   -5.308e-19  6.9388e-18 
  10171.332    9.913e-18  6.9997e-18 
  10172.517    9.168e-18  6.7589e-18 
    10173.7     2.04e-17  5.8532e-18 
  10174.883   8.6099e-18  4.3032e-18 
  10176.068   1.6632e-17  3.2872e-18 
  10177.252   1.3759e-17  3.2575e-18 
  10178.436   1.1604e-17  3.3956e-18 
  10179.619   3.2948e-18  3.4129e-18 
  10180.804   7.1859e-18   3.424e-18 
  10181.988   8.9266e-18  3.4051e-18 
   10183.17   1.4679e-17  3.2673e-18 
  10184.355   1.9477e-17   3.516e-18 
  10185.538   7.2179e-18  4.4595e-18 
   10186.72   3.7939e-18  5.3157e-18 
  10187.905     2.32e-17  5.6628e-18 
  10189.089   1.0351e-17   5.664e-18 
  10190.272   2.2262e-17    5.59e-18 
  10191.455   1.2076e-17  4.9646e-18 
   10192.64   9.4595e-18  3.8678e-18 
  10193.821   1.6093e-17   3.065e-18 
  10195.007   1.3164e-17  2.8065e-18 
  10196.189   1.6561e-17  2.7954e-18 
  10197.375   1.1781e-17   2.877e-18 
  10198.557   1.5165e-17  3.3555e-18 
  10199.739   1.1929e-17  3.9026e-18 
  10200.923   6.9677e-18  4.1767e-18 
  10202.106   1.6649e-17  4.3104e-18 
   10203.29   1.3484e-17  4.4812e-18 
  10204.475   1.0472e-17  4.7223e-18 
  10205.656   1.1503e-17  5.2295e-18 
   10206.84   7.8386e-18   6.232e-18 
  10208.023  -4.4377e-18  7.1612e-18 
  10209.206  -1.3403e-20  7.4588e-18 
   10210.39    2.089e-17  7.3717e-18 
  10211.572  -2.6137e-18  6.9061e-18 
  10212.756    2.013e-17  5.9423e-18 
  10213.937   3.3944e-18  4.4667e-18 
  10215.121   1.8282e-17  3.3558e-18 
  10216.304   1.0241e-17  3.0059e-18 
  10217.486    1.536e-17  2.8954e-18 
   10218.67   1.0493e-17  2.8906e-18 
  10219.853   8.6973e-18  3.1176e-18 
  10221.036   1.8276e-17   3.936e-18 
  10222.218   1.5352e-17  4.8602e-18 
  10223.402   5.2016e-18  5.3604e-18 
  10224.583   6.0163e-18  5.5713e-18 
  10225.767   9.0058e-18  5.8264e-18 
  10226.949    1.935e-17  5.9709e-18 
  10228.132   1.6644e-17   5.592e-18 
  10229.313   1.7716e-17  5.0167e-18 
  10230.498   3.3178e-18  4.7512e-18 
   10231.68   5.7576e-18   4.496e-18 
  10232.863   1.7734e-17  3.8924e-18 
  10234.046   1.1122e-17  3.1796e-18 
  10235.226    1.147e-17  2.8092e-18 
   10236.41   8.7576e-18   2.637e-18 
  10237.593   1.1024e-17  2.5172e-18 
  10238.775   1.5875e-17  2.4803e-18 
  10239.957    1.216e-17  2.4272e-18 
   10241.14   9.8227e-18  2.3474e-18 
  10242.322    1.731e-17    2.35e-18 
  10243.502   1.6114e-17  2.3261e-18 
  10244.687   1.2751e-17  2.2567e-18 
  10245.869   9.6767e-18  2.2063e-18 
  10247.051    1.118e-17  2.1727e-18 
  10248.232   1.2741e-17  2.1367e-18 
  10249.416    9.766e-18  2.1004e-18 
  10250.598   7.7258e-18  2.0526e-18 
  10251.779   8.1838e-18  2.0314e-18 
  10252.962   1.0846e-17   2.044e-18 
  10254.143    8.208e-18  1.9644e-18 
  10255.326     9.45e-18  1.8825e-18 
  10256.508    6.597e-18  1.7899e-18 
  10257.689   5.6099e-18  1.6763e-18 
  10258.871   7.5355e-18  1.5961e-18 
  10260.054   8.8142e-18  1.4951e-18 
  10261.235   5.2517e-18  1.3888e-18 
  10262.417   5.4011e-18  1.2935e-18 
  10263.599   5.4499e-18  1.1727e-18 
  10264.781   2.8048e-18  1.0302e-18 
  10265.962   3.1772e-18  9.1286e-19 
  10267.144    2.458e-18  7.9768e-19 
  10268.325   1.6813e-18  5.9259e-19 
  10269.507   1.5413e-18  3.1931e-19 
  10270.688  -1.7086e-22  1.9733e-20 
