# STATUS =
# OBJECT = 2019gqi
# TELESCOPE = Keck1
# INSTRUMENT = LRIS
# DATE-OBS = 2019-07-02 00:00:00.000
# MJD = 58666.0
# EXPTIME =
# AIRMASS =
# SLIT =
# DISPERSER =
# SOURCE = DOI 10.3847/1538-4357/aca161
# FILTER =
# RESOLUTION =
# FLUX_STANDARD =
# EXTINCTION_CORRECTED =
# PHOTOMETRY_CALIBRATED =
# TELLURIC_CORRECTED =
# FLUX_UNITS =
# WAVE_UNITS =
# QUALITY =
# MIN_WAVE = 3069.6765
# MAX_WAVE = 10307.443
# COMMENT =
 Wavelength          Flux 
  3071.6199   -3.3882e-17 
   3073.564   1.17527e-17 
  3075.5088  -1.70712e-18 
  3077.4541   6.08443e-17 
  3079.3999   4.18598e-17 
  3081.3467  -1.23549e-16 
  3083.2937  -6.06957e-17 
  3085.2417   4.55265e-17 
  3087.1902  -3.13605e-17 
  3089.1394   8.81109e-17 
  3091.0891  -1.04931e-17 
  3093.0396   4.50662e-17 
  3094.9905  -1.97625e-17 
  3096.9421   3.68682e-17 
  3098.8943   7.17572e-18 
  3100.8474   -4.3566e-17 
  3102.8008  -3.46077e-18 
  3104.7549   1.54266e-17 
  3106.7097    2.1249e-17 
   3108.665  -4.22076e-17 
  3110.6211   7.98803e-18 
  3112.5776  -3.84263e-17 
  3114.5349   1.94951e-17 
  3116.4929  -1.04952e-17 
  3118.4514    6.9266e-18 
  3120.4104  -1.67798e-17 
  3122.3701   4.16803e-17 
  3124.3303  -4.50974e-17 
  3126.2913   2.36275e-17 
  3128.2527   2.14912e-18 
  3130.2151   3.60262e-18 
  3132.1777   2.05548e-17 
  3134.1411  -9.31503e-18 
   3136.105  -1.26291e-17 
  3138.0696   7.51685e-19 
  3140.0349   2.28144e-18 
  3142.0005   6.19662e-18 
  3143.9668   7.34003e-18 
  3145.9338   4.00381e-17 
  3147.9016   2.82063e-19 
  3149.8696   1.54316e-17 
  3151.8384   1.48572e-17 
  3153.8079   1.21184e-18 
  3155.7778   2.52757e-17 
  3157.7483   5.51076e-18 
  3159.7195   2.75783e-17 
  3161.6914   1.86763e-18 
  3163.6636    1.8867e-17 
  3165.6365   2.76254e-17 
  3167.6101   5.97285e-18 
  3169.5842   3.19767e-17 
  3171.5588   2.99998e-18 
  3173.5342   4.98799e-19 
    3175.51   1.28787e-17 
  3177.4866  -1.78678e-17 
  3179.4636   1.26575e-17 
  3181.4414   1.66779e-17 
  3183.4194  -5.01725e-18 
  3185.3982   1.57803e-17 
  3187.3777   1.30098e-17 
  3189.3577   2.72248e-17 
  3191.3381   6.37403e-18 
  3193.3193   1.10143e-17 
   3195.301   1.59103e-17 
  3197.2832   2.66321e-17 
  3199.2661  -2.15095e-18 
  3201.2495  -4.05078e-18 
  3203.2336   4.27336e-18 
  3205.2183   2.11491e-18 
  3207.2034   1.64639e-17 
   3209.189   2.05778e-17 
  3211.1753   1.66633e-17 
  3213.1621   3.25644e-17 
  3215.1497   1.69772e-17 
  3217.1377   1.43001e-17 
  3219.1262   1.98815e-17 
  3221.1152    2.0788e-18 
   3223.105   2.61904e-17 
  3225.0952   9.41602e-18 
  3227.0859   2.59069e-17 
  3229.0774   2.21464e-17 
  3231.0693  -1.12425e-18 
   3233.062   9.38439e-18 
  3235.0549   1.89076e-17 
  3237.0486   2.08962e-17 
  3239.0427  -6.96053e-18 
  3241.0374   1.85231e-17 
  3243.0327   2.16805e-17 
  3245.0286   1.14544e-17 
  3247.0249   1.48999e-17 
  3249.0217   1.25226e-17 
  3251.0193   9.04849e-18 
  3253.0173   1.79106e-17 
  3255.0161   1.35661e-17 
  3257.0151   2.05403e-17 
  3259.0149   8.10756e-18 
  3261.0149   8.53858e-18 
  3263.0159   1.64939e-17 
  3265.0171   2.97453e-17 
   3267.019   1.53731e-17 
  3269.0215   5.96663e-18 
  3271.0244   1.37184e-17 
  3273.0278   2.11529e-17 
   3275.032   1.92346e-17 
  3277.0364   1.10193e-17 
  3279.0415   1.36979e-17 
  3281.0471    4.4381e-18 
  3283.0535   1.13834e-17 
  3285.0601   1.28338e-17 
  3287.0674   1.10419e-17 
  3289.0752   8.14071e-18 
  3291.0835   1.25385e-17 
  3293.0923    1.6326e-17 
  3295.1016   1.15714e-17 
  3297.1116    2.8136e-17 
  3299.1221   1.33695e-17 
  3301.1331   5.15476e-18 
  3303.1445   3.57231e-18 
  3305.1565    1.9168e-17 
  3307.1689   1.03283e-17 
  3309.1821   1.19126e-17 
  3311.1958   5.77906e-18 
  3313.2097   1.56511e-17 
  3315.2244   9.95405e-18 
  3317.2395   3.65826e-18 
  3319.2554   5.49981e-18 
  3321.2715   6.38765e-18 
  3323.2881   2.18758e-17 
  3325.3054   1.03357e-17 
   3327.323   2.27407e-17 
  3329.3413   2.46516e-17 
  3331.3601   1.40493e-17 
  3333.3794   1.08876e-17 
  3335.3994   8.89949e-18 
  3337.4197   2.33882e-17 
  3339.4404   1.82773e-17 
  3341.4617   9.68417e-18 
  3343.4836   1.23336e-17 
  3345.5059   6.65211e-18 
  3347.5288   1.45535e-17 
  3349.5522   8.02589e-18 
  3351.5759   1.32201e-17 
  3353.6003   1.90897e-17 
  3355.6252   9.30716e-18 
  3357.6506   1.21362e-17 
  3359.6765   1.23709e-17 
  3361.7029   1.62227e-17 
  3363.7297   1.01778e-17 
  3365.7571   1.44199e-17 
  3367.7852   1.25333e-17 
  3369.8135   2.35708e-17 
  3371.8423   1.86284e-17 
  3373.8716   1.49715e-17 
  3375.9016   9.89413e-18 
  3377.9319   1.54463e-17 
  3379.9629   1.12593e-17 
  3381.9941   2.29168e-17 
  3384.0259    2.3385e-17 
  3386.0583   1.77098e-17 
  3388.0911   1.57791e-17 
  3390.1245   1.35802e-17 
  3392.1582   1.22924e-17 
  3394.1924   1.13373e-17 
  3396.2273   1.35795e-17 
  3398.2625   5.29867e-18 
  3400.2981   2.41033e-17 
  3402.3345   1.47726e-17 
  3404.3711   7.45321e-18 
  3406.4082   8.28298e-18 
   3408.446   2.41764e-17 
  3410.4841   1.60579e-17 
  3412.5227   1.50878e-17 
   3414.562   1.26894e-17 
  3416.6013   1.61089e-17 
  3418.6416    1.4819e-17 
  3420.6819   1.36365e-17 
  3422.7229   1.36759e-17 
  3424.7644   1.10916e-17 
  3426.8064   1.89621e-17 
  3428.8489   2.02271e-17 
  3430.8916   6.47591e-18 
  3432.9351   1.69858e-17 
   3434.979   7.32334e-18 
  3437.0232   9.67246e-18 
  3439.0681   1.11837e-17 
  3441.1133   1.56259e-17 
  3443.1589   1.01305e-17 
  3445.2051   1.59893e-17 
  3447.2517   1.43197e-17 
  3449.2988   8.11679e-18 
  3451.3464   8.74665e-18 
  3453.3943   1.87924e-17 
  3455.4429   1.48186e-17 
  3457.4917    1.5586e-17 
  3459.5413   1.55057e-17 
  3461.5911   1.47993e-17 
  3463.6414    1.2727e-17 
  3465.6921   9.53198e-18 
  3467.7434   1.49471e-17 
  3469.7949   1.23551e-17 
  3471.8472   9.55095e-18 
  3473.8997   8.68038e-18 
  3475.9529   1.42944e-17 
  3478.0061   1.31849e-17 
  3480.0603   1.39082e-17 
  3482.1145   1.93374e-17 
  3484.1694    1.0286e-17 
  3486.2246   1.24566e-17 
  3488.2805    1.4346e-17 
  3490.3367   1.76801e-17 
  3492.3933   2.05814e-17 
  3494.4502   1.32836e-17 
  3496.5078    1.2179e-17 
  3498.5657    9.0982e-18 
   3500.624   1.50616e-17 
  3502.6831   1.16612e-17 
  3504.7422   1.62048e-17 
   3506.802   1.34674e-17 
  3508.8621   8.37065e-18 
  3510.9226   1.92588e-17 
  3512.9836   1.56638e-17 
  3515.0452   1.05463e-17 
  3517.1072   1.46934e-17 
  3519.1694   9.58625e-18 
  3521.2322   1.52193e-17 
  3523.2954   1.22919e-17 
  3525.3591   1.70451e-17 
  3527.4231   1.34926e-17 
  3529.4875   1.04907e-17 
  3531.5525   1.73179e-17 
  3533.6179   1.37045e-17 
  3535.6836   1.01619e-17 
    3537.75   9.40231e-18 
  3539.8164    1.1477e-17 
  3541.8835   1.13953e-17 
  3543.9512   7.22395e-18 
   3546.019   1.80996e-17 
  3548.0874   2.24639e-17 
   3550.156    9.2443e-18 
  3552.2251   8.96765e-18 
  3554.2949   1.05996e-17 
  3556.3647   1.85029e-17 
  3558.4353   1.54781e-17 
  3560.5061   1.29471e-17 
  3562.5774   1.33684e-17 
  3564.6492   1.13238e-17 
  3566.7212   7.11895e-18 
  3568.7937   1.88405e-17 
  3570.8667   1.93296e-17 
  3572.9399   8.44389e-18 
  3575.0137   1.30532e-17 
  3577.0879   1.71784e-17 
  3579.1626   1.28264e-17 
  3581.2373    1.9416e-17 
  3583.3127   1.59092e-17 
  3585.3887   1.14595e-17 
  3587.4648   1.64654e-17 
  3589.5415   1.58635e-17 
  3591.6184   1.36691e-17 
  3593.6958   1.36235e-17 
  3595.7737   1.83288e-17 
  3597.8521    1.7891e-17 
  3599.9307   1.52843e-17 
  3602.0098   1.62575e-17 
  3604.0891    1.5219e-17 
  3606.1689   1.26146e-17 
  3608.2493   1.64445e-17 
  3610.3298   1.61369e-17 
  3612.4109   1.64722e-17 
  3614.4922   1.62743e-17 
  3616.5742   1.27799e-17 
  3618.6562   1.84987e-17 
   3620.739   1.53992e-17 
   3622.822   1.17878e-17 
  3624.9055   1.76974e-17 
  3626.9893   1.23618e-17 
  3629.0732   1.43236e-17 
   3631.158   1.64351e-17 
  3633.2429   1.58337e-17 
  3635.3281   1.91792e-17 
  3637.4141   1.61863e-17 
     3639.5   1.22518e-17 
  3641.5867   1.33073e-17 
  3643.6736    1.6705e-17 
  3645.7607   1.97889e-17 
  3647.8484   1.72782e-17 
  3649.9365   1.57419e-17 
  3652.0249   1.73995e-17 
  3654.1138   1.13802e-17 
  3656.2029   1.64335e-17 
  3658.2925   1.20521e-17 
  3660.3826   1.63798e-17 
  3662.4729   1.81373e-17 
  3664.5637   1.37908e-17 
  3666.6548    2.0076e-17 
  3668.7461   1.36856e-17 
  3670.8379   1.60697e-17 
  3672.9304   1.81001e-17 
  3675.0227   1.80787e-17 
  3677.1157   1.60972e-17 
  3679.2092   1.70144e-17 
   3681.303   1.36863e-17 
   3683.397   1.56962e-17 
  3685.4915    2.0364e-17 
  3687.5862   1.69277e-17 
  3689.6814   1.50679e-17 
  3691.7771   1.47304e-17 
  3693.8728   1.59918e-17 
  3695.9692   1.78455e-17 
  3698.0659   1.55532e-17 
  3700.1628   1.81065e-17 
  3702.2603   1.66322e-17 
  3704.3579   1.79871e-17 
  3706.4561     1.737e-17 
  3708.5547   1.81121e-17 
  3710.6533   1.34359e-17 
  3712.7527   1.19522e-17 
  3714.8523   1.85891e-17 
  3716.9521   1.72514e-17 
  3719.0525   1.26525e-17 
  3721.1531   1.49888e-17 
  3723.2539   1.41149e-17 
  3725.3552    1.4681e-17 
   3727.457   1.08454e-17 
  3729.5591   1.27772e-17 
  3731.6614   1.27431e-17 
  3733.7642   1.45506e-17 
  3735.8672   1.70414e-17 
  3737.9707   1.58944e-17 
  3740.0747   1.73991e-17 
  3742.1787   1.66529e-17 
  3744.2832   1.56878e-17 
  3746.3882   2.20153e-17 
  3748.4934   1.23944e-17 
  3750.5989   1.66155e-17 
  3752.7046   1.62978e-17 
  3754.8108   1.64938e-17 
  3756.9175   1.43738e-17 
  3759.0244   1.84922e-17 
  3761.1316   1.38498e-17 
  3763.2393   1.17032e-17 
  3765.3472   1.28656e-17 
  3767.4556   1.41897e-17 
  3769.5642   1.98883e-17 
  3771.6731   1.49065e-17 
  3773.7825   1.74687e-17 
  3775.8921    1.2581e-17 
   3778.002   1.56028e-17 
  3780.1123    1.7345e-17 
  3782.2229      1.51e-17 
   3784.334   1.63193e-17 
  3786.4453   1.64196e-17 
  3788.5569   1.80594e-17 
  3790.6689   1.47376e-17 
  3792.7812    1.7998e-17 
  3794.8938    2.1276e-17 
  3797.0068   1.84625e-17 
  3799.1201    2.0643e-17 
  3801.2339   2.04325e-17 
  3803.3479   1.83344e-17 
  3805.4619   1.83091e-17 
  3807.5767   1.81909e-17 
  3809.6917   1.69707e-17 
  3811.8069   1.64623e-17 
  3813.9224    1.1615e-17 
  3816.0383   1.67344e-17 
  3818.1545   2.11442e-17 
   3820.271   1.55931e-17 
  3822.3879   1.85398e-17 
  3824.5051   1.92026e-17 
  3826.6228    2.0197e-17 
  3828.7405   1.31624e-17 
  3830.8586   1.71498e-17 
  3832.9773   1.34275e-17 
  3835.0959    1.7706e-17 
  3837.2151   1.52923e-17 
  3839.3345   1.98363e-17 
  3841.4541   2.07578e-17 
  3843.5742   2.09295e-17 
  3845.6946   1.52961e-17 
  3847.8152   1.47675e-17 
  3849.9363    1.6298e-17 
  3852.0576     2.054e-17 
  3854.1792   1.79249e-17 
   3856.301   2.19525e-17 
  3858.4233   1.97982e-17 
  3860.5459   1.70901e-17 
  3862.6687   1.90623e-17 
  3864.7917    1.5396e-17 
  3866.9153   1.84671e-17 
  3869.0391   1.99108e-17 
  3871.1631   1.73696e-17 
  3873.2876   1.97336e-17 
  3875.4121   1.68017e-17 
  3877.5371   2.04767e-17 
  3879.6624   1.93767e-17 
  3881.7878   1.67858e-17 
  3883.9138   2.27815e-17 
    3886.04   2.27071e-17 
  3888.1665   1.89274e-17 
  3890.2932   1.74233e-17 
  3892.4204    2.0322e-17 
  3894.5476   2.08056e-17 
  3896.6753   2.15606e-17 
  3898.8032   2.40733e-17 
  3900.9314   1.95044e-17 
  3903.0601   1.57262e-17 
   3905.189   1.78083e-17 
  3907.3181   1.43161e-17 
  3909.4475   1.54928e-17 
  3911.5771   1.92914e-17 
  3913.7073   1.72049e-17 
  3915.8374   1.79889e-17 
   3917.968   1.86424e-17 
  3920.0989   1.80544e-17 
    3922.23   1.58744e-17 
  3924.3616   1.74796e-17 
  3926.4932   2.02456e-17 
  3928.6252   1.44707e-17 
  3930.7576   1.73297e-17 
  3932.8901   1.70332e-17 
  3935.0229   2.02823e-17 
  3937.1562   1.77018e-17 
  3939.2896   1.99878e-17 
  3941.4233   1.74643e-17 
  3943.5574   1.50215e-17 
  3945.6917   1.73694e-17 
  3947.8262   1.82159e-17 
  3949.9609   1.84222e-17 
  3952.0962   1.58974e-17 
  3954.2314   1.79135e-17 
  3956.3672   1.63938e-17 
  3958.5032   1.65585e-17 
  3960.6394   1.95644e-17 
  3962.7759   1.75623e-17 
  3964.9126   1.92066e-17 
  3967.0496   2.03104e-17 
   3969.187   1.49551e-17 
  3971.3245   2.02217e-17 
  3973.4624    1.5512e-17 
  3975.6006   2.03694e-17 
  3977.7388   1.75569e-17 
  3979.8774   1.72601e-17 
  3982.0164   1.72585e-17 
  3984.1555   2.12464e-17 
  3986.2952   1.89182e-17 
  3988.4348   2.06002e-17 
  3990.5747   1.56055e-17 
  3992.7151   1.90469e-17 
  3994.8557   1.86791e-17 
  3996.9963   1.53041e-17 
  3999.1375   1.80221e-17 
  4001.2788   1.59009e-17 
  4003.4204   2.10045e-17 
  4005.5623   1.62764e-17 
  4007.7043   1.63809e-17 
  4009.8467   1.50355e-17 
  4011.9893    1.7872e-17 
  4014.1321   1.40992e-17 
  4016.2754   1.79093e-17 
  4018.4187   1.68937e-17 
  4020.5623    1.9344e-17 
  4022.7063   1.88254e-17 
  4024.8503     1.544e-17 
  4026.9949   1.63297e-17 
  4029.1394   1.92011e-17 
  4031.2844   1.36153e-17 
  4033.4294   1.84632e-17 
   4035.575   1.88688e-17 
  4037.7207   1.63473e-17 
  4039.8665   1.73251e-17 
  4042.0127   1.66291e-17 
  4044.1592   1.72065e-17 
  4046.3059   1.73034e-17 
  4048.4526   1.84771e-17 
  4050.5999   1.80844e-17 
  4052.7473   1.98622e-17 
   4054.895   1.87516e-17 
   4057.043   1.62614e-17 
  4059.1909   1.71263e-17 
  4061.3394   1.86034e-17 
   4063.488   1.90077e-17 
   4065.637    1.4407e-17 
  4067.7859   1.99468e-17 
  4069.9353   1.67851e-17 
   4072.085   1.95868e-17 
  4074.2349   1.56902e-17 
   4076.385   1.58177e-17 
  4078.5352   1.58897e-17 
  4080.6858   2.03034e-17 
  4082.8367   1.69656e-17 
  4084.9875    1.3307e-17 
  4087.1389   1.48273e-17 
  4089.2903   1.66014e-17 
  4091.4421   1.96516e-17 
   4093.594    1.5214e-17 
  4095.7463   1.79158e-17 
  4097.8989   1.99819e-17 
  4100.0513   1.60324e-17 
  4102.2041   1.68011e-17 
  4104.3574     1.952e-17 
  4106.5107   2.13908e-17 
  4108.6646   1.80754e-17 
  4110.8184   1.80408e-17 
  4112.9722   1.90522e-17 
  4115.1265   1.88718e-17 
  4117.2808   2.16203e-17 
   4119.436   1.82401e-17 
  4121.5908   1.87331e-17 
  4123.7461   1.93947e-17 
  4125.9014   2.07859e-17 
  4128.0571   1.93208e-17 
  4130.2129   1.68548e-17 
  4132.3691   2.04474e-17 
  4134.5254   2.03259e-17 
  4136.6816   1.84299e-17 
  4138.8384    1.8917e-17 
  4140.9956   2.17071e-17 
  4143.1528   1.90442e-17 
  4145.3101   1.85119e-17 
  4147.4678   2.07587e-17 
  4149.6255   2.12712e-17 
  4151.7837   1.81649e-17 
  4153.9419   1.84946e-17 
  4156.1001   1.85889e-17 
  4158.2588   1.85269e-17 
   4160.418   1.98315e-17 
  4162.5771   1.92029e-17 
  4164.7363   1.74026e-17 
   4166.896   1.90007e-17 
  4169.0557   1.74533e-17 
  4171.2158   2.13121e-17 
   4173.376   1.98821e-17 
  4175.5361   1.97856e-17 
  4177.6968   1.67001e-17 
  4179.8579   2.29705e-17 
  4182.0186   2.06603e-17 
  4184.1797   1.81192e-17 
  4186.3413   1.81773e-17 
  4188.5029    1.6806e-17 
   4190.665   1.72413e-17 
  4192.8271   1.58131e-17 
  4194.9893   1.89367e-17 
  4197.1519   1.85202e-17 
  4199.3145   1.97151e-17 
  4201.4775   2.02742e-17 
  4203.6401   1.83223e-17 
  4205.8037   1.61272e-17 
  4207.9673   2.08479e-17 
  4210.1309    1.7932e-17 
  4212.2949   1.99578e-17 
  4214.4585   1.71782e-17 
   4216.623   1.74503e-17 
  4218.7876   1.80482e-17 
  4220.9521   1.93652e-17 
  4223.1172   1.54611e-17 
  4225.2822   1.50542e-17 
  4227.4473   1.70629e-17 
  4229.6128     1.776e-17 
  4231.7783   1.67362e-17 
  4233.9443   1.85871e-17 
  4236.1104   1.82142e-17 
  4238.2769   1.30801e-17 
  4240.4429   2.20275e-17 
  4242.6099   1.49681e-17 
  4244.7764    1.8094e-17 
  4246.9434   1.98895e-17 
  4249.1108   1.84015e-17 
  4251.2783   1.67103e-17 
  4253.4458   1.48063e-17 
  4255.6133   1.57224e-17 
  4257.7812   2.04717e-17 
  4259.9497   1.62965e-17 
  4262.1177   1.96749e-17 
  4264.2861   1.64742e-17 
  4266.4551    1.9459e-17 
   4268.624   1.55727e-17 
   4270.793   1.77243e-17 
  4272.9624   1.92459e-17 
  4275.1318    1.7412e-17 
  4277.3013   1.94967e-17 
  4279.4712    1.9281e-17 
  4281.6411    2.0848e-17 
   4283.811   1.92816e-17 
  4285.9814    1.7907e-17 
  4288.1519   1.80182e-17 
  4290.3228   1.91907e-17 
  4292.4937   1.63989e-17 
  4294.6646   1.76576e-17 
  4296.8359   1.79529e-17 
  4299.0073   1.80124e-17 
  4301.1787   1.97412e-17 
  4303.3506   1.98483e-17 
  4305.5225   1.71521e-17 
  4307.6943   1.77055e-17 
  4309.8667   1.81139e-17 
  4312.0391   1.91729e-17 
  4314.2119    1.8624e-17 
  4316.3848   1.86294e-17 
  4318.5576   1.88382e-17 
  4320.7305   2.05629e-17 
  4322.9038   1.88743e-17 
  4325.0776   1.99142e-17 
   4327.251    1.7989e-17 
  4329.4248   2.02431e-17 
  4331.5991   1.91845e-17 
  4333.7729   1.69679e-17 
  4335.9473   1.83253e-17 
  4338.1221   2.10192e-17 
  4340.2964   2.00061e-17 
  4342.4712   1.87658e-17 
  4344.6465   1.70549e-17 
  4346.8213   2.00026e-17 
  4348.9966   1.66386e-17 
  4351.1724   1.84046e-17 
  4353.3477   1.86595e-17 
  4355.5234   2.08478e-17 
  4357.6997   1.88297e-17 
  4359.8755   2.03321e-17 
  4362.0518   1.73748e-17 
  4364.2285   1.77996e-17 
  4366.4048   1.95727e-17 
  4368.5815    2.1462e-17 
  4370.7588   2.07535e-17 
  4372.9355   2.10537e-17 
  4375.1128   1.85503e-17 
    4377.29   2.08174e-17 
  4379.4678   2.12725e-17 
  4381.6455   1.77042e-17 
  4383.8232   2.15217e-17 
  4386.0015   1.87565e-17 
  4388.1792   1.77707e-17 
  4390.3579   1.80575e-17 
  4392.5361   1.69835e-17 
  4394.7148   2.08008e-17 
  4396.8936   1.99323e-17 
  4399.0723   2.06079e-17 
  4401.2515   1.89729e-17 
  4403.4307   1.69639e-17 
  4405.6099   1.69552e-17 
  4407.7896   1.61011e-17 
  4409.9692   1.67555e-17 
  4412.1489   1.89541e-17 
  4414.3291    1.8777e-17 
  4416.5093   1.75852e-17 
  4418.6895    2.1653e-17 
  4420.8696    1.9635e-17 
  4423.0503   1.89673e-17 
   4425.231   2.08282e-17 
  4427.4116   1.93551e-17 
  4429.5928   1.76446e-17 
  4431.7739   1.84873e-17 
  4433.9551   2.23529e-17 
  4436.1362    1.9337e-17 
  4438.3179   2.26767e-17 
  4440.4995   2.09125e-17 
  4442.6816   1.89318e-17 
  4444.8633   2.07599e-17 
  4447.0454   1.65256e-17 
  4449.2275   2.05736e-17 
  4451.4102   1.94266e-17 
  4453.5923   1.73564e-17 
  4455.7749   2.00584e-17 
   4457.958   2.11997e-17 
  4460.1406   2.00264e-17 
  4462.3237    1.9016e-17 
  4464.5068   2.21762e-17 
  4466.6904   1.97161e-17 
   4468.874   2.15776e-17 
  4471.0576   2.18267e-17 
  4473.2412   2.06072e-17 
  4475.4248    2.2932e-17 
  4477.6089     2.374e-17 
   4479.793    2.0405e-17 
  4481.9775   1.85822e-17 
  4484.1616   2.12958e-17 
  4486.3462    1.5608e-17 
  4488.5308    2.0355e-17 
  4490.7153   2.17081e-17 
  4492.9004   1.91287e-17 
  4495.0854   2.08375e-17 
  4497.2705    2.0834e-17 
  4499.4556    2.1132e-17 
  4501.6411   1.92345e-17 
  4503.8267   2.02969e-17 
  4506.0122   2.06127e-17 
  4508.1982    1.9692e-17 
  4510.3838   2.13367e-17 
  4512.5698   1.92688e-17 
  4514.7559   2.01248e-17 
  4516.9424   1.98408e-17 
  4519.1289   1.91133e-17 
  4521.3154   2.10084e-17 
   4523.502   1.93667e-17 
  4525.6885   1.92244e-17 
  4527.8755   2.17531e-17 
  4530.0625   1.89548e-17 
  4532.2495   1.86633e-17 
   4534.437    2.0132e-17 
   4536.624   2.04921e-17 
  4538.8115    1.9146e-17 
   4540.999   2.12112e-17 
   4543.187   2.14734e-17 
  4545.3745    2.0173e-17 
  4547.5625   2.00652e-17 
  4549.7505   2.16546e-17 
  4551.9385   2.24841e-17 
   4554.127    1.9725e-17 
  4556.3154   2.20484e-17 
  4558.5039   2.04919e-17 
  4560.6924   1.94019e-17 
  4562.8813    2.2691e-17 
  4565.0698   2.23232e-17 
  4567.2588   2.01447e-17 
  4569.4482   2.01593e-17 
  4571.6372   2.12658e-17 
  4573.8262   2.10261e-17 
  4576.0156   2.35362e-17 
  4578.2051   2.06747e-17 
   4580.395   2.09861e-17 
  4582.5845   2.15784e-17 
  4584.7744   2.28747e-17 
  4586.9644    2.4089e-17 
  4589.1543   2.27826e-17 
  4591.3442   2.16516e-17 
  4593.5347     2.365e-17 
  4595.7251   1.96436e-17 
  4597.9155   1.98039e-17 
   4600.106   2.30081e-17 
  4602.2964   1.91299e-17 
  4604.4873   2.20248e-17 
  4606.6782   2.02364e-17 
  4608.8691   2.05117e-17 
  4611.0601   2.09412e-17 
  4613.2515   2.48411e-17 
  4615.4424    2.3322e-17 
  4617.6338   2.35084e-17 
  4619.8252   2.34244e-17 
  4622.0171   2.09534e-17 
  4624.2085   2.28298e-17 
  4626.4004   2.29446e-17 
  4628.5923   2.35838e-17 
  4630.7842   2.06255e-17 
  4632.9761   2.31742e-17 
   4635.168   2.45295e-17 
  4637.3604   2.25343e-17 
  4639.5527   2.39407e-17 
  4641.7451   2.04927e-17 
  4643.9375    2.3031e-17 
  4646.1304   2.59832e-17 
  4648.3232   2.21352e-17 
  4650.5156   2.17484e-17 
  4652.7085   2.39097e-17 
  4654.9014   2.19637e-17 
  4657.0947   2.46637e-17 
  4659.2876   2.30239e-17 
   4661.481   2.32292e-17 
  4663.6743   1.92877e-17 
  4665.8677   2.27955e-17 
  4668.0615   2.43128e-17 
  4670.2549   2.19307e-17 
  4672.4487    2.4893e-17 
  4674.6426    2.2835e-17 
  4676.8364   2.17443e-17 
  4679.0303   2.34124e-17 
  4681.2241   2.23744e-17 
  4683.4185   2.36256e-17 
  4685.6128   2.36686e-17 
  4687.8071     2.079e-17 
  4690.0015   2.35504e-17 
  4692.1958   2.23397e-17 
  4694.3901   2.10476e-17 
   4696.585   1.93838e-17 
  4698.7798   2.16164e-17 
  4700.9746   2.29124e-17 
  4703.1694   2.47885e-17 
  4705.3643   2.32046e-17 
  4707.5591   2.43676e-17 
  4709.7544   2.33064e-17 
  4711.9497   2.13356e-17 
   4714.145   2.12933e-17 
  4716.3403   2.37886e-17 
  4718.5356    2.2707e-17 
   4720.731   2.35172e-17 
  4722.9268   2.55319e-17 
  4725.1226   2.25787e-17 
  4727.3184   2.34826e-17 
  4729.5142   2.22651e-17 
    4731.71   2.33311e-17 
  4733.9058   2.45917e-17 
  4736.1021    2.4664e-17 
  4738.2979   2.42245e-17 
  4740.4941   2.59756e-17 
  4742.6904   2.47869e-17 
  4744.8867   2.41549e-17 
  4747.0835   2.45057e-17 
  4749.2798    2.6608e-17 
  4751.4761   2.58865e-17 
  4753.6729   2.84746e-17 
  4755.8696   2.53407e-17 
  4758.0664   2.71368e-17 
  4760.2632    2.6441e-17 
    4762.46    2.4913e-17 
  4764.6572   2.62494e-17 
   4766.854    2.4952e-17 
  4769.0513   2.62736e-17 
  4771.2485   2.62343e-17 
  4773.4458   2.50563e-17 
  4775.6431   2.51061e-17 
  4777.8403   2.72653e-17 
  4780.0381   2.60311e-17 
  4782.2354   2.46466e-17 
  4784.4331   2.73435e-17 
  4786.6309   2.53379e-17 
  4788.8286   2.47986e-17 
  4791.0264   2.69678e-17 
  4793.2241   2.78488e-17 
  4795.4219   2.75179e-17 
  4797.6201   3.14179e-17 
  4799.8179   3.12381e-17 
  4802.0161   2.90103e-17 
  4804.2144   2.52093e-17 
  4806.4126   2.71496e-17 
  4808.6108   2.75566e-17 
  4810.8091   2.53312e-17 
  4813.0073   2.31096e-17 
  4815.2056   2.87224e-17 
  4817.4043   2.61826e-17 
   4819.603   2.82382e-17 
  4821.8018   2.51745e-17 
  4824.0005   2.57522e-17 
  4826.1992   2.41044e-17 
  4828.3979   2.63621e-17 
  4830.5967   2.51451e-17 
  4832.7954   2.42666e-17 
  4834.9946   2.42624e-17 
  4837.1934   2.47813e-17 
  4839.3926    2.2645e-17 
  4841.5918   2.78045e-17 
   4843.791   2.65249e-17 
  4845.9902   2.55908e-17 
  4848.1895   2.68903e-17 
  4850.3887   2.59615e-17 
  4852.5884   2.60564e-17 
  4854.7876   2.72771e-17 
  4856.9873   2.66458e-17 
   4859.187   2.53971e-17 
  4861.3862   2.39257e-17 
  4863.5859   2.71616e-17 
  4865.7856   2.47245e-17 
  4867.9858   2.65563e-17 
  4870.1855   2.75092e-17 
  4872.3853   2.67782e-17 
   4874.585   2.71317e-17 
  4876.7852   2.40925e-17 
  4878.9849   2.43613e-17 
  4881.1851   2.40581e-17 
  4883.3853   2.51326e-17 
  4885.5854   2.47257e-17 
  4887.7856   2.96875e-17 
  4889.9858   2.64837e-17 
   4892.186   2.74793e-17 
  4894.3862   2.61823e-17 
  4896.5869   2.78067e-17 
  4898.7871   2.57637e-17 
  4900.9878   2.80196e-17 
   4903.188   2.25647e-17 
  4905.3887    2.7008e-17 
  4907.5894   2.41121e-17 
    4909.79   2.65331e-17 
  4911.9907    2.4002e-17 
  4914.1914   2.28746e-17 
  4916.3921   2.29982e-17 
  4918.5928   2.31112e-17 
  4920.7935    2.3885e-17 
  4922.9946   2.12218e-17 
  4925.1953   2.30396e-17 
  4927.3965   1.82652e-17 
  4929.5972   2.56061e-17 
  4931.7983   2.36566e-17 
  4933.9995   2.34525e-17 
  4936.2007   2.37864e-17 
  4938.4019   1.97265e-17 
   4940.603   2.45431e-17 
  4942.8042   2.55278e-17 
  4945.0054   2.27648e-17 
  4947.2065   2.27331e-17 
  4949.4082   2.40124e-17 
  4951.6094    2.2653e-17 
   4953.811   2.18027e-17 
  4956.0122   2.17159e-17 
  4958.2139   2.23249e-17 
   4960.415   2.28326e-17 
  4962.6167   2.35113e-17 
  4964.8184   2.20866e-17 
    4967.02   2.02085e-17 
  4969.2217   2.27225e-17 
  4971.4233   2.43748e-17 
   4973.625   1.90786e-17 
  4975.8267   2.00086e-17 
  4978.0283   2.18789e-17 
    4980.23   1.87156e-17 
  4982.4316   2.10087e-17 
  4984.6338   2.33053e-17 
  4986.8354   2.41249e-17 
  4989.0376   2.48729e-17 
  4991.2393   2.76105e-17 
  4993.4414   2.23837e-17 
  4995.6431   2.70404e-17 
  4997.8452   2.46805e-17 
  5000.0474   2.14452e-17 
  5002.2495   2.14414e-17 
  5004.4517   2.49124e-17 
  5006.6538    2.2683e-17 
  5008.8555   2.27898e-17 
  5011.0576   2.69995e-17 
  5013.2598   2.33247e-17 
  5015.4624   2.45637e-17 
  5017.6646   2.48443e-17 
  5019.8667   2.18077e-17 
  5022.0688   2.38154e-17 
  5024.2715    2.1214e-17 
  5026.4736   2.68857e-17 
  5028.6758   2.50454e-17 
  5030.8784   2.61753e-17 
  5033.0806   2.47081e-17 
  5035.2832   2.46413e-17 
  5037.4854   2.59449e-17 
   5039.688    3.0069e-17 
  5041.8906   2.62922e-17 
  5044.0928   3.08458e-17 
  5046.2954   2.99543e-17 
   5048.498   2.64767e-17 
  5050.7007   2.87665e-17 
  5052.9033   2.74335e-17 
  5055.1055    2.5486e-17 
  5057.3081   2.74453e-17 
  5059.5107   2.84221e-17 
  5061.7134   3.08599e-17 
   5063.916   2.51308e-17 
  5066.1187    2.7901e-17 
  5068.3213   2.72359e-17 
  5070.5244   2.73409e-17 
  5072.7271    2.9602e-17 
  5074.9297   2.48077e-17 
  5077.1323   2.92316e-17 
   5079.335   3.21227e-17 
  5081.5381   3.42493e-17 
  5083.7407   3.84465e-17 
  5085.9434   3.90424e-17 
  5088.1465   3.32906e-17 
  5090.3491   2.92049e-17 
  5092.5518   2.78613e-17 
  5094.7549   2.70445e-17 
  5096.9575   2.81789e-17 
  5099.1606   3.00156e-17 
  5101.3633   2.88529e-17 
  5103.5664   2.64979e-17 
   5105.769   2.75844e-17 
  5107.9722   2.55681e-17 
  5110.1748   2.86816e-17 
  5112.3779   3.01992e-17 
  5114.5806   2.84444e-17 
  5116.7837    3.1676e-17 
  5118.9868   2.92895e-17 
  5121.1895   2.70072e-17 
  5123.3926   2.67055e-17 
  5125.5957   2.90426e-17 
  5127.7983   2.63457e-17 
  5130.0015   2.78016e-17 
  5132.2046   2.95294e-17 
  5134.4077   2.98571e-17 
  5136.6104   2.86832e-17 
  5138.8135   2.89363e-17 
  5141.0166   2.86179e-17 
  5143.2197   2.66318e-17 
  5145.4224   2.53972e-17 
  5147.6255   2.72356e-17 
  5149.8286    2.7119e-17 
  5152.0317   2.36097e-17 
  5154.2349    2.5611e-17 
  5156.4375   2.68522e-17 
  5158.6406   2.38198e-17 
  5160.8438   2.94308e-17 
  5163.0469   2.52827e-17 
    5165.25   2.51063e-17 
  5167.4531   2.69616e-17 
  5169.6558   2.43843e-17 
  5171.8589   2.30864e-17 
   5174.062   2.51869e-17 
  5176.2651   2.50726e-17 
  5178.4683    2.4902e-17 
  5180.6709   2.26662e-17 
   5182.874   2.26827e-17 
  5185.0771   2.50095e-17 
  5187.2803   2.72859e-17 
  5189.4834   2.15919e-17 
  5191.6865   2.21223e-17 
  5193.8892   2.38957e-17 
  5196.0923   2.20189e-17 
  5198.2954   2.41616e-17 
  5200.4985   2.44692e-17 
  5202.7012   2.31922e-17 
  5204.9043   2.49328e-17 
  5207.1074   2.38778e-17 
  5209.3105   2.58717e-17 
  5211.5132   2.54786e-17 
  5213.7163   2.37969e-17 
  5215.9194   2.53323e-17 
  5218.1221   2.35471e-17 
  5220.3252   2.64781e-17 
  5222.5283    2.3281e-17 
   5224.731   2.52556e-17 
  5226.9341   2.30192e-17 
  5229.1372    2.5458e-17 
  5231.3398   2.25769e-17 
   5233.543   2.70001e-17 
  5235.7461   2.33975e-17 
  5237.9487   2.80515e-17 
  5240.1519   2.73227e-17 
  5242.3545   2.76598e-17 
  5244.5576    2.6227e-17 
  5246.7603   2.60348e-17 
  5248.9634   2.89093e-17 
   5251.166   2.86156e-17 
  5253.3687   2.76754e-17 
  5255.5718    3.1301e-17 
  5257.7744   3.00403e-17 
  5259.9775   2.43462e-17 
  5262.1802   2.76582e-17 
  5264.3828   2.92361e-17 
  5266.5854   2.39708e-17 
  5268.7881   2.71617e-17 
  5270.9912   2.65271e-17 
  5273.1938   2.61801e-17 
  5275.3965   2.67075e-17 
  5277.5991   3.03091e-17 
  5279.8018    2.3589e-17 
  5282.0044   2.84023e-17 
   5284.207    2.9033e-17 
  5286.4097   2.84266e-17 
  5288.6123   2.71805e-17 
  5290.8149      2.93e-17 
  5293.0176    2.2703e-17 
  5295.2202   2.24282e-17 
  5297.4229   2.65112e-17 
  5299.6255   2.56342e-17 
  5301.8276   2.48761e-17 
  5304.0303   2.23969e-17 
  5306.2329    2.5263e-17 
  5308.4351   2.35309e-17 
  5310.6377    2.5992e-17 
  5312.8403   2.35365e-17 
  5315.0425   2.94901e-17 
  5317.2451   2.48636e-17 
  5319.4473   2.34199e-17 
  5321.6499   2.62476e-17 
  5323.8521   2.65829e-17 
  5326.0542    2.5683e-17 
  5328.2568   2.42805e-17 
   5330.459   2.42427e-17 
  5332.6611   2.57487e-17 
  5334.8633   2.58253e-17 
  5337.0654   2.46846e-17 
  5339.2676   2.33789e-17 
  5341.4697   2.19178e-17 
  5343.6719   2.53266e-17 
   5345.874   2.60194e-17 
  5348.0762   2.33224e-17 
  5350.2783   2.57694e-17 
  5352.4805   2.39658e-17 
  5354.6826   2.48729e-17 
  5356.8843   2.78517e-17 
  5359.0864   2.55105e-17 
  5361.2886   2.21283e-17 
  5363.4902   2.51207e-17 
  5365.6924   2.67032e-17 
   5367.894   2.72047e-17 
  5370.0957   2.63242e-17 
  5372.2979    2.4275e-17 
  5374.4995   2.40635e-17 
  5376.7012     2.789e-17 
  5378.9033   2.63705e-17 
   5381.105   2.55421e-17 
  5383.3066   2.27677e-17 
  5385.5083   2.77437e-17 
    5387.71   2.60608e-17 
  5389.9116   2.43576e-17 
  5392.1128    2.6341e-17 
  5394.3145   2.52905e-17 
  5396.5161    2.2202e-17 
  5398.7173   2.77448e-17 
  5400.9189   2.45293e-17 
  5403.1206    2.5372e-17 
  5405.3218   2.86823e-17 
  5407.5234    2.5438e-17 
  5409.7246   2.31474e-17 
  5411.9258   2.37894e-17 
  5414.1274    2.5262e-17 
  5416.3286   2.52285e-17 
  5418.5298   2.43006e-17 
   5420.731   2.44781e-17 
  5422.9321   2.44136e-17 
  5425.1333   2.35591e-17 
   5427.334   2.61305e-17 
  5429.5352   2.46183e-17 
  5431.7363   2.42613e-17 
  5433.9375   2.80998e-17 
  5436.1382   2.32174e-17 
  5438.3394   2.60118e-17 
    5440.54   2.23287e-17 
  5442.7412   3.00159e-17 
  5444.9419   2.40761e-17 
  5447.1426   2.51329e-17 
  5449.3433   2.46065e-17 
  5451.5439   2.55837e-17 
  5453.7446   2.46969e-17 
  5455.9453   2.47251e-17 
   5458.146   2.38106e-17 
  5460.3467   2.49616e-17 
  5462.5474   2.59993e-17 
  5464.7476   2.36904e-17 
  5466.9482   2.26241e-17 
  5469.1489   2.49279e-17 
  5471.3491   2.34257e-17 
  5473.5493    2.4475e-17 
    5475.75   2.54175e-17 
  5477.9502   2.61251e-17 
  5480.1504   2.40172e-17 
  5482.3506   2.18889e-17 
  5484.5508   2.29448e-17 
   5486.751   2.53761e-17 
  5488.9512   2.32785e-17 
  5491.1509   2.28864e-17 
  5493.3511   2.10998e-17 
  5495.5508    2.4652e-17 
   5497.751   2.65271e-17 
  5499.9507   2.43762e-17 
  5502.1509   2.56337e-17 
  5504.3506    2.7845e-17 
  5506.5503   2.35434e-17 
    5508.75   2.54612e-17 
  5510.9497   2.60181e-17 
  5513.1494   2.67323e-17 
  5515.3491   2.85667e-17 
  5517.5488   2.45644e-17 
   5519.748   2.80448e-17 
  5521.9478   2.61474e-17 
   5524.147   2.60155e-17 
  5526.3467   2.60876e-17 
  5528.5459   2.69871e-17 
  5530.7451   2.58338e-17 
  5532.9443   2.56771e-17 
   5535.144     2.736e-17 
  5537.3428   2.48147e-17 
   5539.542   2.61273e-17 
  5541.7412   2.39281e-17 
  5543.9404   2.84234e-17 
  5546.1392   2.92409e-17 
  5548.3384   2.86462e-17 
  5550.5371   2.62864e-17 
  5552.7363   2.23999e-17 
  5554.9351   2.65301e-17 
  5557.1338     2.669e-17 
  5559.3325   2.57516e-17 
  5561.5312   2.65589e-17 
    5563.73   1.96106e-17 
  5565.9287   2.67587e-17 
   5568.127   2.51573e-17 
  5570.3257   2.38372e-17 
  5572.5239   2.57571e-17 
  5574.7222   2.96977e-17 
  5576.9209   2.39851e-17 
  5579.1191   2.20683e-17 
  5581.3174   3.62634e-17 
  5583.5156   2.36939e-17 
  5585.7139   2.25987e-17 
  5587.9121   2.58169e-17 
  5590.1099    2.9094e-17 
  5592.3081   2.45135e-17 
  5594.5059   2.47973e-17 
  5596.7041   2.60879e-17 
  5598.9019   2.67889e-17 
  5601.0996   2.06686e-17 
  5603.2974   2.73955e-17 
  5605.4951   2.52378e-17 
  5607.6929   2.31473e-17 
  5609.8906    2.5424e-17 
  5612.0884   2.56651e-17 
  5614.2856   2.40346e-17 
  5616.4834    2.9645e-17 
  5618.6807   2.47475e-17 
  5620.8779   2.77867e-17 
  5623.0752   2.55668e-17 
  5625.2725   2.35263e-17 
  5627.4702   2.16465e-17 
   5629.667   3.16691e-17 
  5631.8643   2.69357e-17 
  5634.0615   3.05078e-17 
  5636.2583    2.7607e-17 
  5638.4556   2.52662e-17 
  5640.6523   1.80107e-17 
  5642.8491   2.15738e-17 
  5645.0459    2.8875e-17 
  5647.2427   2.14425e-17 
  5649.4395   2.43778e-17 
  5651.6362   2.86917e-17 
  5653.8325   2.05296e-17 
  5656.0293   2.97619e-17 
  5658.2256    2.6463e-17 
  5660.4224   2.31393e-17 
  5662.6187   2.61345e-17 
  5663.3193   2.22438e-17 
  5664.4673   2.51233e-17 
  5665.6152   2.84051e-17 
  5666.7632   2.80176e-17 
  5667.9111   2.20156e-17 
  5669.0591   2.17074e-17 
  5670.2075   2.35411e-17 
  5671.3555   2.43563e-17 
  5672.5039   2.97485e-17 
  5673.6519   2.16512e-17 
  5674.8003   3.08263e-17 
  5675.9482   2.74156e-17 
  5677.0967   3.06998e-17 
  5678.2446   2.62831e-17 
  5679.3931   2.66729e-17 
  5680.5415   2.81885e-17 
  5681.6899    1.9616e-17 
  5682.8384   2.40116e-17 
  5683.9868   2.14097e-17 
  5685.1353   2.49168e-17 
  5686.2837   1.81321e-17 
  5687.4321   2.46316e-17 
  5688.5806   2.25489e-17 
   5689.729   2.06889e-17 
  5690.8779   2.80753e-17 
  5692.0264   2.24865e-17 
  5693.1748   1.86883e-17 
  5694.3237    2.4711e-17 
  5695.4722   2.36571e-17 
  5696.6211   2.73074e-17 
    5697.77   2.22006e-17 
  5698.9185   2.72229e-17 
  5700.0674   2.12548e-17 
  5701.2163   2.07887e-17 
  5702.3652   2.70454e-17 
  5703.5137   1.86561e-17 
  5704.6631   2.21435e-17 
   5705.812   2.13679e-17 
  5706.9609   1.96927e-17 
  5708.1099   2.40269e-17 
  5709.2588   1.96733e-17 
  5710.4077    2.6297e-17 
  5711.5571   2.50392e-17 
  5712.7061   2.36307e-17 
   5713.855   2.22901e-17 
  5715.0044   2.49784e-17 
  5716.1533   2.23508e-17 
  5717.3027   2.05079e-17 
  5718.4517   2.29287e-17 
  5719.6011   1.92999e-17 
  5720.7505   2.24923e-17 
  5721.8999   2.19245e-17 
  5723.0493   2.16911e-17 
  5724.1987   1.84449e-17 
  5725.3481   2.54166e-17 
  5726.4976   2.74362e-17 
   5727.647   1.61669e-17 
  5728.7964   2.94557e-17 
  5729.9458   2.29887e-17 
  5731.0952   2.32272e-17 
  5732.2451   2.19078e-17 
  5733.3945   2.17596e-17 
  5734.5444   2.28385e-17 
  5735.6938    2.0041e-17 
  5736.8438   1.97209e-17 
  5737.9932   3.13865e-17 
  5739.1431   2.49931e-17 
   5740.293   1.71737e-17 
  5741.4429   2.06185e-17 
  5742.5923   2.38526e-17 
  5743.7422   2.00807e-17 
  5744.8921   2.64176e-17 
   5746.042   3.00514e-17 
  5747.1924   3.02462e-17 
  5748.3423   2.37589e-17 
  5749.4922   2.42047e-17 
  5750.6421   2.38375e-17 
  5751.7925    2.5305e-17 
  5752.9424   2.27377e-17 
  5754.0923   2.57085e-17 
  5755.2427   3.13276e-17 
  5756.3926   2.85688e-17 
   5757.543   2.50972e-17 
  5758.6934   2.74546e-17 
  5759.8438   2.50547e-17 
  5760.9941   2.83192e-17 
   5762.144   2.19516e-17 
  5763.2944   2.55043e-17 
  5764.4448   2.30012e-17 
  5765.5952   2.22936e-17 
  5766.7456   2.29851e-17 
  5767.8965   2.24553e-17 
  5769.0469   2.64933e-17 
  5770.1973   1.86732e-17 
  5771.3477   2.67421e-17 
  5772.4985   2.59344e-17 
  5773.6489    3.0441e-17 
  5774.7998   2.48092e-17 
  5775.9507   2.73358e-17 
  5777.1011   2.71162e-17 
   5778.252   1.84394e-17 
  5779.4028   2.44116e-17 
  5780.5537   2.83766e-17 
  5781.7046   2.80526e-17 
   5782.855   2.91174e-17 
  5784.0059   1.82166e-17 
  5785.1572   2.43728e-17 
  5786.3081   2.83788e-17 
   5787.459   2.58664e-17 
  5788.6099   2.57461e-17 
  5789.7612   2.21391e-17 
  5790.9121   2.53035e-17 
   5792.063   2.56881e-17 
  5793.2144   2.71282e-17 
  5794.3657   2.39461e-17 
  5795.5166   2.61976e-17 
   5796.668    2.6657e-17 
  5797.8193    2.1487e-17 
  5798.9707   2.13958e-17 
  5800.1216   2.34799e-17 
  5801.2729   2.58772e-17 
  5802.4243   2.02769e-17 
  5803.5757   2.27875e-17 
  5804.7275   2.34336e-17 
  5805.8789   2.50716e-17 
  5807.0303   2.34616e-17 
  5808.1816   2.76392e-17 
  5809.3335   2.84757e-17 
  5810.4849   2.30019e-17 
  5811.6367   3.41014e-17 
  5812.7881   2.31056e-17 
  5813.9399   2.83761e-17 
  5815.0918   2.99688e-17 
  5816.2432   2.11927e-17 
   5817.395   2.58607e-17 
  5818.5469   2.27793e-17 
  5819.6987   3.17079e-17 
  5820.8506   2.46494e-17 
  5822.0024   2.58437e-17 
  5823.1543   2.72029e-17 
  5824.3066   3.15595e-17 
  5825.4585   2.87736e-17 
  5826.6104   2.43004e-17 
  5827.7627   2.81832e-17 
  5828.9146    2.8545e-17 
  5830.0669    3.0222e-17 
  5831.2188   2.60454e-17 
  5832.3711   2.91475e-17 
  5833.5234   2.92964e-17 
  5834.6753    2.5217e-17 
  5835.8276   2.45846e-17 
    5836.98   2.46755e-17 
  5838.1323   2.25079e-17 
  5839.2847   3.12118e-17 
   5840.437   2.71791e-17 
  5841.5894    2.9537e-17 
  5842.7422   2.98573e-17 
  5843.8945    2.6049e-17 
  5845.0469    2.8624e-17 
  5846.1997   3.04348e-17 
  5847.3521    2.9513e-17 
  5848.5049   2.78254e-17 
  5849.6572   3.02429e-17 
  5850.8101    2.5253e-17 
  5851.9629   2.94918e-17 
  5853.1157   2.79354e-17 
  5854.2681   2.97082e-17 
  5855.4209   3.20297e-17 
  5856.5737   3.01027e-17 
  5857.7266   2.52149e-17 
  5858.8799   3.03218e-17 
  5860.0327   3.26165e-17 
  5861.1855   3.09215e-17 
  5862.3384   2.71845e-17 
  5863.4917   3.18337e-17 
  5864.6445   2.56115e-17 
  5865.7979   3.20759e-17 
  5866.9507   3.47896e-17 
   5868.104   3.00734e-17 
  5869.2573   3.21595e-17 
  5870.4102   2.97172e-17 
  5871.5635   3.09582e-17 
  5872.7168   2.94915e-17 
  5873.8701   3.26574e-17 
  5875.0234   3.06647e-17 
  5876.1768   3.25841e-17 
  5877.3301   3.42033e-17 
  5878.4839   2.97473e-17 
  5879.6372   3.25201e-17 
  5880.7905   3.11397e-17 
  5881.9443   3.43676e-17 
  5883.0977   3.06065e-17 
  5884.2515   3.41203e-17 
  5885.4053   2.53266e-17 
  5886.5586   3.60184e-17 
  5887.7124   2.55546e-17 
  5888.8662   3.45438e-17 
    5890.02   2.83471e-17 
  5891.1738   3.12959e-17 
  5892.3276   2.96923e-17 
  5893.4814   3.40744e-17 
  5894.6353   3.06145e-17 
  5895.7891   3.08006e-17 
  5896.9429   3.27975e-17 
  5898.0972    3.1973e-17 
   5899.251   3.66574e-17 
  5900.4053   3.29468e-17 
  5901.5591    2.9577e-17 
  5902.7134   3.34282e-17 
  5903.8677   3.64674e-17 
  5905.0215   2.80167e-17 
  5906.1758   3.20885e-17 
  5907.3301   2.61018e-17 
  5908.4844   2.93931e-17 
  5909.6387   3.18683e-17 
   5910.793   2.73161e-17 
  5911.9473   2.59667e-17 
  5913.1021   3.81156e-17 
  5914.2563   2.84987e-17 
  5915.4106   3.34056e-17 
  5916.5654   3.47608e-17 
  5917.7197   2.89153e-17 
  5918.8745   3.12551e-17 
  5920.0288   2.59905e-17 
  5921.1836   3.93876e-17 
  5922.3384   3.39779e-17 
  5923.4932   2.76821e-17 
  5924.6479   3.22711e-17 
  5925.8027   3.56064e-17 
  5926.9575   2.82655e-17 
  5928.1123   3.06634e-17 
  5929.2671   3.49994e-17 
  5930.4219   3.14073e-17 
  5931.5767   2.87108e-17 
  5932.7319   3.05554e-17 
  5933.8867   3.15178e-17 
   5935.042   2.92426e-17 
  5936.1968   2.63485e-17 
  5937.3521   2.77139e-17 
  5938.5073   2.88404e-17 
  5939.6621   3.12338e-17 
  5940.8174   3.49161e-17 
  5941.9727   2.99837e-17 
  5943.1279   3.24986e-17 
  5944.2832   2.95888e-17 
  5945.4385   2.70957e-17 
  5946.5942       3.6e-17 
  5947.7495   2.96763e-17 
  5948.9048   2.60458e-17 
  5950.0601   3.10495e-17 
  5951.2158   3.21105e-17 
  5952.3711   2.68682e-17 
  5953.5269   3.52872e-17 
  5954.6826   2.62182e-17 
  5955.8379   2.98897e-17 
  5956.9937   3.17784e-17 
  5958.1494   3.30227e-17 
  5959.3052   3.26795e-17 
  5960.4609   3.34587e-17 
  5961.6167    3.0511e-17 
  5962.7725   3.13575e-17 
  5963.9287   3.28551e-17 
  5965.0845   2.62829e-17 
  5966.2402   3.77524e-17 
   5967.396   3.39443e-17 
  5968.5522   2.66633e-17 
  5969.7085   2.80709e-17 
  5970.8643   2.88295e-17 
  5972.0205   2.73636e-17 
  5973.1768   2.73271e-17 
  5974.3325   3.39222e-17 
  5975.4888   3.02063e-17 
   5976.645   2.85328e-17 
  5977.8013   2.61148e-17 
  5978.9575    3.2822e-17 
  5980.1138   3.56387e-17 
  5981.2705   3.35747e-17 
  5982.4268   2.76345e-17 
   5983.583   3.03452e-17 
  5984.7397   3.28505e-17 
   5985.896   3.13307e-17 
  5987.0527   3.00804e-17 
  5988.2095   2.75107e-17 
  5989.3657   3.44184e-17 
  5990.5225   2.83389e-17 
  5991.6792   2.66972e-17 
  5992.8359   2.90164e-17 
  5993.9927   2.92615e-17 
  5995.1494   2.62628e-17 
  5996.3062   2.94754e-17 
  5997.4629   3.03322e-17 
  5998.6201   3.28795e-17 
  5999.7769    3.2651e-17 
  6000.9336   2.72709e-17 
  6002.0908   3.16034e-17 
  6003.2476   3.24186e-17 
  6004.4048   3.15063e-17 
   6005.562    2.5596e-17 
  6006.7192   3.27444e-17 
   6007.876   2.54085e-17 
  6009.0332   2.78496e-17 
  6010.1904   2.74575e-17 
  6011.3477   3.12499e-17 
  6012.5049   3.11547e-17 
  6013.6621   2.84347e-17 
  6014.8198   2.78386e-17 
  6015.9771   2.58529e-17 
  6017.1343   2.77039e-17 
   6018.292   3.00566e-17 
  6019.4492   3.17684e-17 
  6020.6069   2.27132e-17 
  6021.7642   2.58807e-17 
  6022.9219   2.92075e-17 
  6024.0796   2.59743e-17 
  6025.2373    2.6539e-17 
   6026.395   2.64393e-17 
  6027.5527   2.97292e-17 
  6028.7104   2.65167e-17 
  6029.8682   2.56521e-17 
  6031.0259   2.78594e-17 
  6032.1841   2.67083e-17 
  6033.3418   2.29395e-17 
  6034.4995   2.69852e-17 
  6035.6577    2.8855e-17 
  6036.8159   2.22731e-17 
  6037.9736     2.206e-17 
  6039.1318   2.42364e-17 
    6040.29   2.98305e-17 
  6041.4482   2.55155e-17 
   6042.606    2.7755e-17 
  6043.7642   2.62112e-17 
  6044.9224   2.54667e-17 
  6046.0811   2.35505e-17 
  6047.2393   2.41914e-17 
  6048.3975   2.26599e-17 
  6049.5557   2.98145e-17 
  6050.7144   2.88818e-17 
  6051.8726   2.78762e-17 
  6053.0312   2.66811e-17 
  6054.1899   2.33546e-17 
  6055.3481   2.51927e-17 
  6056.5068    2.3708e-17 
  6057.6655   2.41779e-17 
  6058.8242   2.70465e-17 
  6059.9829   2.54182e-17 
  6061.1416   2.18157e-17 
  6062.3003   2.44136e-17 
   6063.459   2.38405e-17 
  6064.6177   2.26088e-17 
  6065.7769   2.48786e-17 
  6066.9355   2.51016e-17 
  6068.0947   2.19847e-17 
  6069.2534   2.34945e-17 
  6070.4126   2.21847e-17 
  6071.5713   2.30318e-17 
  6072.7305    1.9083e-17 
  6073.8896   2.49719e-17 
  6075.0488   2.09382e-17 
   6076.208   2.51186e-17 
  6077.3672   2.52748e-17 
  6078.5264   2.50132e-17 
  6079.6855   2.58898e-17 
  6080.8447    2.3442e-17 
  6082.0044   2.21489e-17 
  6083.1636   2.03539e-17 
  6084.3232   2.43049e-17 
  6085.4824   2.08334e-17 
  6086.6421   2.33212e-17 
  6087.8013   1.96162e-17 
  6088.9609   2.21346e-17 
  6090.1206   2.31117e-17 
  6091.2803   2.38523e-17 
  6092.4399   2.13544e-17 
  6093.5996   1.98922e-17 
  6094.7593   2.43106e-17 
  6095.9189   1.74369e-17 
  6097.0786   2.67496e-17 
  6098.2383   2.09698e-17 
  6099.3984   2.25513e-17 
  6100.5581   2.16036e-17 
  6101.7183   2.57127e-17 
  6102.8779   2.24949e-17 
  6104.0381   2.38659e-17 
  6105.1982   2.14685e-17 
  6106.3584   2.42128e-17 
  6107.5181   2.02253e-17 
  6108.6782   2.34161e-17 
  6109.8384   2.45507e-17 
   6110.999   2.03602e-17 
  6112.1592   2.79331e-17 
  6113.3193   2.73557e-17 
  6114.4795   2.57159e-17 
  6115.6401   2.38178e-17 
  6116.8003   2.44219e-17 
  6117.9609   2.70057e-17 
  6119.1211   2.76337e-17 
  6120.2817   2.17792e-17 
  6121.4424   2.24415e-17 
  6122.6025   2.87364e-17 
  6123.7632   2.77122e-17 
  6124.9238   2.59933e-17 
  6126.0845   2.63083e-17 
  6127.2451   2.44213e-17 
  6128.4058   2.41746e-17 
  6129.5669   2.33069e-17 
  6130.7275   2.44955e-17 
  6131.8882   2.62733e-17 
  6133.0493   2.64223e-17 
    6134.21   2.18888e-17 
  6135.3711   2.81086e-17 
  6136.5322   2.26227e-17 
  6137.6929   2.53052e-17 
   6138.854   1.87361e-17 
  6140.0151   2.72243e-17 
  6141.1763   2.77451e-17 
  6142.3374   2.64313e-17 
  6143.4985   2.12053e-17 
  6144.6597   2.57342e-17 
  6145.8208   2.62594e-17 
  6146.9824    2.7132e-17 
  6148.1436   2.15374e-17 
  6149.3047   2.29107e-17 
  6150.4663   2.15507e-17 
  6151.6279   2.45878e-17 
  6152.7891   2.78859e-17 
  6153.9507   2.16406e-17 
  6155.1123   1.98903e-17 
  6156.2739   2.16004e-17 
  6157.4351   2.06008e-17 
  6158.5967   2.15405e-17 
  6159.7588   2.43624e-17 
  6160.9204    2.5172e-17 
   6162.082   2.64836e-17 
  6163.2437   3.07005e-17 
  6164.4058   2.69874e-17 
  6165.5674   3.34009e-17 
  6166.7295   2.34591e-17 
  6167.8911   2.54266e-17 
  6169.0532   2.78303e-17 
  6170.2153   2.37256e-17 
   6171.377   2.49086e-17 
  6172.5391     2.431e-17 
  6173.7012   2.53715e-17 
  6174.8633   2.59422e-17 
  6176.0254   2.44899e-17 
  6177.1875   2.64132e-17 
  6178.3501   2.35634e-17 
  6179.5122   2.54417e-17 
  6180.6743   1.95514e-17 
  6181.8369   2.59291e-17 
   6182.999   2.77976e-17 
  6184.1616   2.24366e-17 
  6185.3242   2.37267e-17 
  6186.4863   2.61604e-17 
  6187.6489   2.44607e-17 
  6188.8115   2.39648e-17 
  6189.9741   2.27071e-17 
  6191.1367   2.20427e-17 
  6192.2993   2.97083e-17 
  6193.4619   2.59901e-17 
  6194.6245   2.29834e-17 
  6195.7876   1.95167e-17 
  6196.9502   2.46277e-17 
  6198.1128   2.48777e-17 
  6199.2759   2.28335e-17 
  6200.4385   2.90475e-17 
  6201.6016   2.67343e-17 
  6202.7646   2.44369e-17 
  6203.9277   2.67031e-17 
  6205.0908   1.83709e-17 
  6206.2539   2.31686e-17 
   6207.417   2.08068e-17 
  6208.5801   2.39187e-17 
  6209.7432   2.43621e-17 
  6210.9062   2.45647e-17 
  6212.0693   2.13826e-17 
  6213.2329    2.3864e-17 
   6214.396   1.90241e-17 
  6215.5596   2.90993e-17 
  6216.7227    2.6891e-17 
  6217.8862   2.86836e-17 
  6219.0498   2.51752e-17 
  6220.2129   2.95236e-17 
  6221.3765   2.69438e-17 
    6222.54   2.86509e-17 
  6223.7036   2.29166e-17 
  6224.8672   2.24167e-17 
  6226.0308    2.4461e-17 
  6227.1948   2.86249e-17 
  6228.3584   2.30505e-17 
   6229.522   2.54397e-17 
   6230.686   2.54388e-17 
  6231.8496   1.98307e-17 
  6233.0137   2.59957e-17 
  6234.1777   2.65492e-17 
  6235.3413   2.37764e-17 
  6236.5054    2.0994e-17 
  6237.6694    2.3792e-17 
  6238.8335   2.77451e-17 
  6239.9976   2.94411e-17 
  6241.1616   2.42996e-17 
  6242.3257     2.713e-17 
  6243.4902   2.64524e-17 
  6244.6543   2.46265e-17 
  6245.8184   2.67123e-17 
  6246.9829    2.9753e-17 
   6248.147   2.48109e-17 
  6249.3115   2.85074e-17 
  6250.4756   2.36921e-17 
  6251.6401   2.44899e-17 
  6252.8047   2.81118e-17 
  6253.9692   2.70966e-17 
  6255.1338    2.9123e-17 
  6256.2983   2.64302e-17 
  6257.4629   1.98429e-17 
  6258.6274   2.26576e-17 
   6259.792   2.70042e-17 
   6260.957   2.14411e-17 
  6262.1216    2.5905e-17 
  6263.2861   1.95284e-17 
  6264.4512   2.66461e-17 
  6265.6162   2.72024e-17 
  6266.7808   2.64789e-17 
  6267.9458   2.40575e-17 
  6269.1108   2.80085e-17 
  6270.2759   2.75411e-17 
  6271.4409   2.59555e-17 
  6272.6055     2.911e-17 
   6273.771   2.55202e-17 
   6274.936   2.02118e-17 
  6276.1011   2.52198e-17 
  6277.2661   2.28127e-17 
  6278.4316   2.04992e-17 
  6279.5967   2.09559e-17 
  6280.7622    2.6264e-17 
  6281.9272   2.14803e-17 
  6283.0928   2.15276e-17 
  6284.2583   2.78764e-17 
  6285.4238   2.46807e-17 
  6286.5889   2.55682e-17 
  6287.7544   2.36316e-17 
  6288.9199   2.39001e-17 
  6290.0859   2.20147e-17 
  6291.2515   2.01203e-17 
   6292.417   2.98658e-17 
  6293.5825   2.45351e-17 
  6294.7485   2.53568e-17 
  6295.9141   2.80113e-17 
  6297.0796   2.77822e-17 
  6298.2456   2.61437e-17 
  6299.4116   2.51867e-17 
  6300.5776   2.51477e-17 
  6301.7432   2.72196e-17 
  6302.9092     1.448e-17 
  6304.0752    2.8454e-17 
  6305.2412   2.54943e-17 
  6306.4072   2.52247e-17 
  6307.5732   2.31241e-17 
  6308.7397   2.13097e-17 
  6309.9058   2.26298e-17 
  6311.0718   2.68391e-17 
  6312.2383   2.26996e-17 
  6313.4043   2.66598e-17 
  6314.5708   2.83976e-17 
  6315.7373   2.44821e-17 
  6316.9033   2.12881e-17 
  6318.0698   2.34209e-17 
  6319.2363   2.30191e-17 
  6320.4028   2.49089e-17 
  6321.5693    2.2761e-17 
  6322.7358   2.45263e-17 
  6323.9023   2.32403e-17 
  6325.0688   2.88847e-17 
  6326.2358   2.40299e-17 
  6327.4023   2.45906e-17 
  6328.5693   2.43619e-17 
  6329.7358    2.5048e-17 
  6330.9028   2.48338e-17 
  6332.0693   2.06626e-17 
  6333.2363   2.45519e-17 
  6334.4033    2.3168e-17 
  6335.5703   2.77576e-17 
  6336.7373   2.34493e-17 
  6337.9043   2.63985e-17 
  6339.0713   2.81513e-17 
  6340.2383    2.5986e-17 
  6341.4053   2.03415e-17 
  6342.5723    2.0313e-17 
  6343.7397   2.20444e-17 
  6344.9067   2.68316e-17 
  6346.0742   2.42889e-17 
  6347.2412   2.85289e-17 
  6348.4087   2.14798e-17 
  6349.5762   2.53182e-17 
  6350.7432    2.5003e-17 
  6351.9106   2.34931e-17 
  6353.0781   2.29609e-17 
  6354.2456   2.78763e-17 
  6355.4131   2.26262e-17 
  6356.5806   2.96245e-17 
  6357.7485   2.58303e-17 
   6358.916   2.54902e-17 
  6360.0835   2.40246e-17 
  6361.2515   2.49458e-17 
  6362.4189    2.5765e-17 
  6363.5869   2.49645e-17 
  6364.7544   3.01607e-17 
  6365.9224   2.89712e-17 
  6367.0903   2.83337e-17 
  6368.2583   2.28828e-17 
  6369.4263   2.49599e-17 
  6370.5942   3.13043e-17 
  6371.7622   2.43088e-17 
  6372.9302   2.84267e-17 
  6374.0981   2.73453e-17 
  6375.2661   2.24902e-17 
  6376.4346   2.74146e-17 
  6377.6025   2.36585e-17 
   6378.771   2.50671e-17 
   6379.939   2.96672e-17 
  6381.1074   2.30835e-17 
  6382.2754   2.45877e-17 
  6383.4438   2.97305e-17 
  6384.6123    2.4573e-17 
  6385.7808   2.69721e-17 
  6386.9492   2.53896e-17 
  6388.1177   2.15185e-17 
  6389.2861   2.89407e-17 
  6390.4546   2.61882e-17 
  6391.6235   2.40074e-17 
   6392.792     2.147e-17 
  6393.9609    2.6209e-17 
  6395.1294   2.71673e-17 
  6396.2983   2.47707e-17 
  6397.4668   2.74545e-17 
  6398.6357   2.55276e-17 
  6399.8042   2.61377e-17 
  6400.9731   2.42202e-17 
  6402.1421   2.45895e-17 
   6403.311   2.17368e-17 
    6404.48   2.67078e-17 
  6405.6489   2.19482e-17 
  6406.8179   2.18368e-17 
  6407.9873   2.66467e-17 
  6409.1562   2.07813e-17 
  6410.3252   2.45352e-17 
  6411.4946   2.57848e-17 
  6412.6636   2.48877e-17 
   6413.833    3.1002e-17 
  6415.0024   2.57769e-17 
  6416.1714   2.61747e-17 
  6417.3408   2.16753e-17 
  6418.5103   2.59393e-17 
  6419.6797   2.30406e-17 
  6420.8491   2.23969e-17 
  6422.0186   2.40199e-17 
   6423.188   2.01785e-17 
  6424.3579   2.75358e-17 
  6425.5273   2.58432e-17 
  6426.6968   2.44293e-17 
  6427.8667   2.42131e-17 
  6429.0361   2.09787e-17 
  6430.2061   2.41556e-17 
  6431.3755   2.31034e-17 
  6432.5454    1.9901e-17 
  6433.7153   2.46209e-17 
  6434.8853    2.2449e-17 
  6436.0552   2.22829e-17 
  6437.2251   2.39283e-17 
   6438.395   2.36591e-17 
  6439.5649   2.40155e-17 
  6440.7349   2.78785e-17 
  6441.9048   2.15266e-17 
  6443.0752   2.13666e-17 
  6444.2451   2.53806e-17 
  6445.4155   2.60127e-17 
  6446.5854   2.36136e-17 
  6447.7559   2.44015e-17 
  6448.9263   2.34928e-17 
  6450.0962   2.08213e-17 
  6451.2666   2.53198e-17 
   6452.437   2.47097e-17 
  6453.6074   1.95212e-17 
  6454.7778   2.23693e-17 
  6455.9482   2.26817e-17 
  6457.1191   2.69204e-17 
  6458.2896   2.36321e-17 
    6459.46   2.27946e-17 
  6460.6304   2.30496e-17 
  6461.8013   2.43835e-17 
  6462.9717   2.19107e-17 
  6464.1426   2.04453e-17 
  6465.3135   1.98917e-17 
  6466.4839   2.02343e-17 
  6467.6548    2.3794e-17 
  6468.8257    2.2827e-17 
  6469.9966   2.15467e-17 
  6471.1675   1.84439e-17 
  6472.3384   2.37747e-17 
  6473.5093   2.13266e-17 
  6474.6807   1.95083e-17 
  6475.8516   2.28646e-17 
  6477.0225   2.55086e-17 
  6478.1938   1.63122e-17 
  6479.3647    2.4441e-17 
  6480.5361   2.16987e-17 
   6481.707   2.35407e-17 
  6482.8784   2.10948e-17 
  6484.0498   1.85625e-17 
  6485.2212   2.18405e-17 
  6486.3926   2.33202e-17 
   6487.564   2.57465e-17 
  6488.7354   2.07922e-17 
  6489.9067   2.13519e-17 
  6491.0781   1.99117e-17 
  6492.2495   2.20295e-17 
  6493.4214   2.07497e-17 
  6494.5928   2.02438e-17 
  6495.7642   2.14869e-17 
   6496.936    1.9045e-17 
  6498.1079   1.85327e-17 
  6499.2793   1.62099e-17 
  6500.4512    2.0149e-17 
   6501.623   2.17877e-17 
  6502.7949   2.04295e-17 
  6503.9668    2.1687e-17 
  6505.1387   1.54948e-17 
  6506.3105   2.00585e-17 
  6507.4824   2.06181e-17 
  6508.6543   1.99071e-17 
  6509.8262   1.82469e-17 
  6510.9985   2.22308e-17 
  6512.1704   2.26738e-17 
  6513.3428   1.93684e-17 
  6514.5146   2.03915e-17 
   6515.687    2.0223e-17 
  6516.8594   1.78798e-17 
  6518.0317   1.99225e-17 
  6519.2036   1.99997e-17 
   6520.376    2.3879e-17 
  6521.5483   2.36055e-17 
  6522.7207   2.03277e-17 
  6523.8931   1.89548e-17 
  6525.0659   1.98335e-17 
  6526.2383   2.03563e-17 
  6527.4106   1.76787e-17 
  6528.5835   2.24605e-17 
  6529.7559   1.94887e-17 
  6530.9287   2.51733e-17 
  6532.1011   2.21886e-17 
  6533.2739   1.94366e-17 
  6534.4463   2.40692e-17 
  6535.6191   2.17841e-17 
   6536.792   2.34583e-17 
  6537.9648    2.0807e-17 
  6539.1377   2.34556e-17 
  6540.3105   1.85389e-17 
  6541.4834   1.94634e-17 
  6542.6567   1.96565e-17 
  6543.8296   2.61256e-17 
  6545.0024   2.21321e-17 
  6546.1753     2.352e-17 
  6547.3486   2.27725e-17 
  6548.5215   2.06303e-17 
  6549.6948   2.16562e-17 
  6550.8682   2.23562e-17 
  6552.0415   1.72943e-17 
  6553.2144   2.24416e-17 
  6554.3877   2.40427e-17 
   6555.561   1.97443e-17 
  6556.7344   2.09244e-17 
  6557.9077   2.08858e-17 
  6559.0815   1.93464e-17 
  6560.2549   2.09098e-17 
  6561.4282   2.02911e-17 
  6562.6016   1.73505e-17 
  6563.7754   2.24811e-17 
  6564.9487   2.52743e-17 
  6566.1226   2.09104e-17 
  6567.2959    2.0783e-17 
  6568.4697   2.04164e-17 
  6569.6436    2.2159e-17 
  6570.8174   2.23466e-17 
  6571.9912   2.41782e-17 
   6573.165   2.00691e-17 
  6574.3389    1.9374e-17 
  6575.5127   2.74844e-17 
  6576.6865   2.23565e-17 
  6577.8604   2.05742e-17 
  6579.0342   2.49182e-17 
  6580.2085   2.28008e-17 
  6581.3823   2.27982e-17 
  6582.5566   1.97551e-17 
  6583.7305   1.88428e-17 
  6584.9048   2.20568e-17 
  6586.0791    2.0856e-17 
  6587.2529   1.97043e-17 
  6588.4272   2.28801e-17 
  6589.6016   2.50793e-17 
  6590.7759   1.80952e-17 
  6591.9502   2.51038e-17 
  6593.1245   2.22315e-17 
  6594.2988   1.84838e-17 
  6595.4736   2.15989e-17 
  6596.6479   2.10977e-17 
  6597.8223   2.16909e-17 
  6598.9971   1.78884e-17 
  6600.1714   2.15467e-17 
  6601.3462   1.90193e-17 
   6602.521   2.09153e-17 
  6603.6953   2.36262e-17 
  6604.8701   2.23727e-17 
  6606.0449   2.44009e-17 
  6607.2197   2.38687e-17 
  6608.3945   2.18868e-17 
  6609.5693   2.37503e-17 
  6610.7441   1.87788e-17 
  6611.9189   2.10899e-17 
  6613.0938   2.07201e-17 
   6614.269   2.23083e-17 
  6615.4438   2.26159e-17 
  6616.6187   1.92957e-17 
  6617.7939   2.53364e-17 
  6618.9692   2.32603e-17 
   6620.144    2.0087e-17 
  6621.3193   1.92026e-17 
  6622.4946    2.5047e-17 
  6623.6694   2.11751e-17 
  6624.8447   2.24243e-17 
    6626.02   2.37764e-17 
  6627.1953   2.12046e-17 
  6628.3706   2.57977e-17 
  6629.5464   2.49614e-17 
  6630.7217   2.40035e-17 
   6631.897   2.63717e-17 
  6633.0723   2.48602e-17 
   6634.248   2.61496e-17 
  6635.4233   2.48857e-17 
  6636.5991   2.68127e-17 
  6637.7749   2.36231e-17 
  6638.9502   2.56384e-17 
   6640.126   1.82565e-17 
  6641.3018   2.13068e-17 
  6642.4775   2.12263e-17 
  6643.6533   2.08685e-17 
  6644.8291   2.22325e-17 
  6646.0049   2.01146e-17 
  6647.1807   2.08379e-17 
  6648.3564   2.04019e-17 
  6649.5327   2.06962e-17 
  6650.7085   2.22681e-17 
  6651.8843   2.01744e-17 
  6653.0605   1.86087e-17 
  6654.2363   2.25131e-17 
  6655.4126   2.69283e-17 
  6656.5889   2.08405e-17 
  6657.7646   2.47796e-17 
  6658.9409   2.24053e-17 
  6660.1172   2.31642e-17 
  6661.2935   2.12648e-17 
  6662.4697   2.34815e-17 
   6663.646   2.23776e-17 
  6664.8223   1.90332e-17 
  6665.9985   2.28131e-17 
  6667.1753   2.09746e-17 
  6668.3516   2.02367e-17 
  6669.5278   2.22218e-17 
  6670.7046   2.33199e-17 
  6671.8809   2.01719e-17 
  6673.0576   2.53912e-17 
  6674.2344   2.52304e-17 
  6675.4106   2.32367e-17 
  6676.5874   2.60226e-17 
  6677.7642   2.57228e-17 
  6678.9409   2.53952e-17 
  6680.1177   2.13859e-17 
  6681.2944   1.94279e-17 
  6682.4712   2.56068e-17 
  6683.6479   2.58998e-17 
  6684.8247   2.42415e-17 
   6686.002   2.12065e-17 
  6687.1787   2.22684e-17 
  6688.3555   2.08634e-17 
  6689.5327   2.00626e-17 
  6690.7095    2.4944e-17 
  6691.8867   2.74719e-17 
   6693.064   2.06826e-17 
  6694.2412   2.46157e-17 
   6695.418   2.43231e-17 
  6696.5952   2.56992e-17 
  6697.7725   2.36097e-17 
  6698.9497   2.09457e-17 
   6700.127   2.24575e-17 
  6701.3047    2.3779e-17 
  6702.4819   2.36679e-17 
  6703.6592    2.7352e-17 
  6704.8364   2.51386e-17 
  6706.0142   2.26463e-17 
  6707.1914     2.021e-17 
  6708.3691    2.0951e-17 
  6709.5464     2.679e-17 
  6710.7241   2.54295e-17 
  6711.9019     2.293e-17 
  6713.0791   2.30709e-17 
  6714.2568    2.2783e-17 
  6715.4346   2.09993e-17 
  6716.6123    2.2631e-17 
    6717.79   2.54604e-17 
  6718.9678    2.6402e-17 
   6720.146   2.46296e-17 
  6721.3237   2.53634e-17 
  6722.5015   2.54486e-17 
  6723.6792   2.18257e-17 
  6724.8574   2.63489e-17 
  6726.0352   2.48926e-17 
  6727.2134   2.59039e-17 
  6728.3911   2.65945e-17 
  6729.5693   2.61974e-17 
  6730.7476    2.8229e-17 
  6731.9258   2.57866e-17 
   6733.104   2.44444e-17 
  6734.2822   2.14818e-17 
    6735.46   2.35967e-17 
  6736.6387   2.31874e-17 
  6737.8169    2.6758e-17 
  6738.9951   2.54413e-17 
  6740.1733   2.32129e-17 
  6741.3516   2.42513e-17 
  6742.5303   2.32214e-17 
  6743.7085   2.58293e-17 
  6744.8872   2.92561e-17 
  6746.0654   2.23218e-17 
  6747.2441   2.54266e-17 
  6748.4229    2.3095e-17 
  6749.6011   2.65982e-17 
  6750.7798    2.2908e-17 
  6751.9585   2.41877e-17 
  6753.1372   2.60021e-17 
  6754.3159   2.50809e-17 
  6755.4946   2.31237e-17 
  6756.6733   2.23258e-17 
  6757.8521   2.48317e-17 
  6759.0312   2.69567e-17 
    6760.21   2.08069e-17 
  6761.3887   2.82134e-17 
  6762.5679   2.66401e-17 
  6763.7466    2.7408e-17 
  6764.9258   2.57422e-17 
  6766.1045   2.60848e-17 
  6767.2837   2.68579e-17 
  6768.4629   2.65935e-17 
  6769.6421   2.96131e-17 
  6770.8213    2.5795e-17 
  6772.0005   2.42425e-17 
  6773.1797   2.71467e-17 
  6774.3589   2.60686e-17 
  6775.5381   2.37302e-17 
  6776.7173   2.52679e-17 
  6777.8965   2.21392e-17 
  6779.0762   2.58845e-17 
  6780.2554   2.29556e-17 
  6781.4346    2.6226e-17 
  6782.6143   2.50864e-17 
  6783.7935   2.39574e-17 
  6784.9731   2.39071e-17 
  6786.1528   2.81838e-17 
  6787.3325   2.51098e-17 
  6788.5117   2.40236e-17 
  6789.6914   2.48923e-17 
  6790.8711   2.53151e-17 
  6792.0508   2.51859e-17 
  6793.2305   2.29096e-17 
  6794.4102    2.7158e-17 
  6795.5903   2.68827e-17 
    6796.77   2.86251e-17 
  6797.9497   2.39526e-17 
  6799.1294   2.16075e-17 
  6800.3096   2.09854e-17 
  6801.4893     2.556e-17 
  6802.6694    2.2239e-17 
  6803.8496   2.71717e-17 
  6805.0293    2.4688e-17 
  6806.2095   2.86296e-17 
  6807.3896   2.44267e-17 
  6808.5698   2.47369e-17 
    6809.75   2.75783e-17 
  6810.9302   2.47969e-17 
  6812.1104    2.8472e-17 
  6813.2905   2.57868e-17 
  6814.4707   2.24246e-17 
  6815.6509   2.76742e-17 
  6816.8315   2.40674e-17 
  6818.0117   2.51809e-17 
  6819.1919   2.36993e-17 
  6820.3726   2.41839e-17 
  6821.5527   2.67134e-17 
  6822.7334   2.85282e-17 
  6823.9136   2.57469e-17 
  6825.0942   2.70601e-17 
  6826.2749   3.13522e-17 
  6827.4556    3.2534e-17 
  6828.6362   3.04668e-17 
  6829.8169    3.0817e-17 
  6830.9976   3.43201e-17 
  6832.1782   3.31856e-17 
  6833.3589   3.01129e-17 
  6834.5396   3.03741e-17 
  6835.7202   2.52859e-17 
  6836.9014   2.42511e-17 
   6838.082   2.89075e-17 
  6839.2632   2.73403e-17 
  6840.4438   2.85609e-17 
   6841.625    2.9707e-17 
  6842.8057   2.58617e-17 
  6843.9868   2.28919e-17 
   6845.168    2.3751e-17 
  6846.3491   2.66054e-17 
  6847.5298   2.47198e-17 
  6848.7109   2.39696e-17 
  6849.8921   2.41569e-17 
  6851.0732   2.30397e-17 
  6852.2544    2.5016e-17 
   6853.436    2.4859e-17 
  6854.6172   2.54714e-17 
  6855.7983   2.54252e-17 
  6856.9795   2.76263e-17 
  6858.1611   2.22686e-17 
  6859.3423   2.82454e-17 
  6860.5239   2.78157e-17 
  6861.7051   2.11699e-17 
  6862.8867   2.49026e-17 
  6864.0684   2.69812e-17 
    6865.25   2.77995e-17 
  6866.4316   2.62157e-17 
  6867.6128   2.09233e-17 
  6868.7944   1.74516e-17 
  6869.9761   1.93577e-17 
  6871.1577   2.76584e-17 
  6872.3398   2.89262e-17 
  6873.5215    2.3965e-17 
  6874.7031   2.49893e-17 
  6875.8848   2.48541e-17 
  6877.0669   2.63942e-17 
  6878.2485   2.46161e-17 
  6879.4302    2.3266e-17 
  6880.6123   2.70427e-17 
  6881.7944   2.26774e-17 
  6882.9761   2.25559e-17 
  6884.1582    2.6979e-17 
  6885.3403   2.49738e-17 
  6886.5225   2.54361e-17 
  6887.7046   2.28967e-17 
  6888.8867   2.01391e-17 
  6890.0684   2.33447e-17 
   6891.251   3.24218e-17 
  6892.4331   2.73273e-17 
  6893.6152   2.50962e-17 
  6894.7974   2.87513e-17 
  6895.9795    2.2587e-17 
  6897.1621   2.25159e-17 
  6898.3442   2.32634e-17 
  6899.5269   2.39723e-17 
   6900.709    2.1773e-17 
  6901.8916    2.3916e-17 
  6903.0742   2.50116e-17 
  6904.2563   2.41806e-17 
   6905.439   2.25889e-17 
  6906.6216   2.58514e-17 
  6907.8042   2.65136e-17 
  6908.9868   2.48019e-17 
  6910.1694   2.30711e-17 
  6911.3521   2.44664e-17 
  6912.5347   2.56975e-17 
  6913.7173    2.4738e-17 
  6914.8999   2.47595e-17 
   6916.083   2.17778e-17 
  6917.2656   2.39207e-17 
  6918.4487   2.49699e-17 
  6919.6313   2.67919e-17 
   6920.814   2.29201e-17 
  6921.9971   2.25706e-17 
  6923.1802   2.71957e-17 
  6924.3628   2.49997e-17 
  6925.5459   2.28666e-17 
   6926.729   2.39021e-17 
  6927.9121   2.64699e-17 
  6929.0952   2.72293e-17 
  6930.2783   2.41936e-17 
  6931.4614   2.29948e-17 
  6932.6445   2.24937e-17 
  6933.8276   2.48985e-17 
  6935.0112   2.56451e-17 
  6936.1943   2.71651e-17 
  6937.3774   2.61379e-17 
   6938.561   2.62059e-17 
  6939.7441    2.4543e-17 
  6940.9277   2.58041e-17 
  6942.1108   2.41158e-17 
  6943.2944    2.3358e-17 
   6944.478   2.29681e-17 
  6945.6611   2.31063e-17 
  6946.8447   2.64644e-17 
  6948.0283   2.15114e-17 
  6949.2119    2.6793e-17 
  6950.3955   2.50542e-17 
  6951.5791   2.89984e-17 
  6952.7627   2.46937e-17 
  6953.9463   2.57189e-17 
  6955.1299   2.54171e-17 
  6956.3135   2.38233e-17 
  6957.4976   2.42307e-17 
  6958.6812   2.40228e-17 
  6959.8652   2.85281e-17 
  6961.0488   2.59143e-17 
  6962.2329   2.50692e-17 
  6963.4165   2.65723e-17 
  6964.6006   2.53699e-17 
  6965.7847   2.64715e-17 
  6966.9683   2.56146e-17 
  6968.1523   2.82448e-17 
  6969.3364   2.30572e-17 
  6970.5205   2.50495e-17 
  6971.7046     2.236e-17 
  6972.8887   2.70395e-17 
  6974.0728   2.28088e-17 
  6975.2573   2.84763e-17 
  6976.4414   2.46721e-17 
  6977.6255   2.56865e-17 
  6978.8096   2.51364e-17 
  6979.9941   2.64657e-17 
  6981.1782   2.72807e-17 
  6982.3628   2.77265e-17 
  6983.5469   2.53388e-17 
  6984.7314   2.65824e-17 
   6985.916   2.60604e-17 
  6987.1001   2.76779e-17 
  6988.2847   2.00113e-17 
  6989.4692   2.35953e-17 
  6990.6538   2.43884e-17 
  6991.8384   2.61809e-17 
  6993.0229   2.20798e-17 
  6994.2075    2.5658e-17 
  6995.3921    2.5147e-17 
  6996.5767   2.74448e-17 
  6997.7612   2.68373e-17 
  6998.9463   2.62452e-17 
  7000.1309   2.36161e-17 
  7001.3154   2.53203e-17 
  7002.5005    2.3353e-17 
  7003.6851   2.56806e-17 
  7004.8701   2.57485e-17 
  7006.0547   2.66471e-17 
  7007.2397   2.67975e-17 
  7008.4248   2.65283e-17 
  7009.6099    2.3755e-17 
  7010.7949   2.85081e-17 
  7011.9795   2.86062e-17 
   7013.165   2.89299e-17 
  7014.3496   2.61233e-17 
  7015.5347   2.49971e-17 
  7016.7202   2.60192e-17 
  7017.9053   2.54106e-17 
  7019.0903   2.38107e-17 
  7020.2754   2.68032e-17 
  7021.4609   2.58661e-17 
   7022.646   2.56579e-17 
  7023.8315   2.74767e-17 
  7025.0166   2.58265e-17 
  7026.2017   2.67204e-17 
  7027.3872   2.81497e-17 
  7028.5728   2.58858e-17 
  7029.7583    3.0184e-17 
  7030.9434   2.79302e-17 
  7032.1289   2.37727e-17 
  7033.3145   2.52223e-17 
     7034.5   2.59834e-17 
  7035.6855   2.73255e-17 
  7036.8711    2.3928e-17 
  7038.0566   2.41819e-17 
  7039.2422   2.34199e-17 
  7040.4282   2.74241e-17 
  7041.6138   2.41434e-17 
  7042.7993   2.70684e-17 
  7043.9849   2.42777e-17 
  7045.1709   2.70098e-17 
  7046.3564   2.47222e-17 
  7047.5425   2.78073e-17 
  7048.7285   2.67878e-17 
  7049.9141   2.27704e-17 
  7051.1001   2.51843e-17 
  7052.2861   2.55044e-17 
  7053.4717   2.42727e-17 
  7054.6577   2.37239e-17 
  7055.8438    2.4126e-17 
  7057.0298   2.35549e-17 
  7058.2158   2.50886e-17 
  7059.4019   2.70604e-17 
  7060.5879   2.36481e-17 
  7061.7744   2.51863e-17 
  7062.9604   2.33343e-17 
  7064.1465   2.58374e-17 
   7065.333   2.68498e-17 
   7066.519   2.86793e-17 
  7067.7051   2.48881e-17 
  7068.8916   2.89972e-17 
  7070.0776   2.50972e-17 
  7071.2642   2.59373e-17 
  7072.4507   2.54934e-17 
  7073.6367   2.68495e-17 
  7074.8232   2.41889e-17 
  7076.0098   2.42067e-17 
  7077.1963   2.50055e-17 
  7078.3828   2.39897e-17 
  7079.5693   2.70974e-17 
  7080.7559   2.67372e-17 
  7081.9424   2.51478e-17 
  7083.1289   2.42891e-17 
  7084.3154   2.33764e-17 
  7085.5024   2.29961e-17 
   7086.689   2.53453e-17 
  7087.8755   2.46835e-17 
  7089.0625   2.36098e-17 
   7090.249    2.3301e-17 
   7091.436   2.66536e-17 
  7092.6226     2.423e-17 
  7093.8096   2.31364e-17 
  7094.9961   2.48794e-17 
  7096.1831   2.45128e-17 
  7097.3701   2.47344e-17 
  7098.5571   2.22047e-17 
  7099.7441   2.63241e-17 
  7100.9307     2.517e-17 
  7102.1177   2.40489e-17 
  7103.3047   2.78893e-17 
  7104.4922   2.37424e-17 
  7105.6792   2.73304e-17 
  7106.8662   2.55154e-17 
  7108.0532    2.2192e-17 
  7109.2407   2.68795e-17 
  7110.4277   2.56787e-17 
  7111.6147   2.63009e-17 
  7112.8022   2.56883e-17 
  7113.9893    2.3172e-17 
  7115.1768   2.31393e-17 
  7116.3638   2.58428e-17 
  7117.5513   2.67856e-17 
  7118.7388   2.53352e-17 
  7119.9258   2.40204e-17 
  7121.1133   2.64375e-17 
  7122.3008   2.15588e-17 
  7123.4883    2.3535e-17 
  7124.6758    2.7121e-17 
  7125.8633   2.45424e-17 
  7127.0508   2.51344e-17 
  7128.2383   2.52636e-17 
  7129.4258   2.84838e-17 
  7130.6138   2.25754e-17 
  7131.8013   2.37119e-17 
  7132.9888   2.93923e-17 
  7134.1768    2.4988e-17 
  7135.3643   2.66497e-17 
  7136.5522    2.4046e-17 
  7137.7397    2.3603e-17 
  7138.9277   2.24469e-17 
  7140.1152   2.46741e-17 
  7141.3032   2.37048e-17 
  7142.4912   2.40023e-17 
  7143.6792   2.48883e-17 
  7144.8667   2.26029e-17 
  7146.0547   2.20781e-17 
  7147.2427   2.66953e-17 
  7148.4307   2.12079e-17 
  7149.6187   2.52418e-17 
  7150.8066   2.44735e-17 
  7151.9951   2.57817e-17 
  7153.1831   2.31831e-17 
  7154.3711   2.43575e-17 
  7155.5591   2.45901e-17 
  7156.7476   2.28956e-17 
  7157.9355    2.7481e-17 
   7159.124   2.46832e-17 
   7160.312   2.51471e-17 
  7161.5005   2.51862e-17 
  7162.6885     2.752e-17 
   7163.877   2.44332e-17 
  7165.0654   2.36542e-17 
  7166.2534   2.19372e-17 
  7167.4419   2.71569e-17 
  7168.6304   2.26439e-17 
  7169.8188   2.48747e-17 
  7171.0073   2.46407e-17 
  7172.1958   2.87097e-17 
  7173.3843   2.23982e-17 
  7174.5728   2.68198e-17 
  7175.7612    2.7206e-17 
  7176.9497   2.34384e-17 
  7178.1382   2.60884e-17 
  7179.3271   2.24863e-17 
  7180.5156   2.39625e-17 
  7181.7046   2.65264e-17 
  7182.8931   2.65459e-17 
   7184.082   2.53037e-17 
  7185.2705   2.15445e-17 
  7186.4595   2.69649e-17 
  7187.6479   2.58959e-17 
  7188.8369   2.65677e-17 
  7190.0259   2.61523e-17 
  7191.2148   2.40189e-17 
  7192.4033   2.21662e-17 
  7193.5923   2.10592e-17 
  7194.7812   2.35089e-17 
  7195.9702   2.74182e-17 
  7197.1592   2.28584e-17 
  7198.3481   2.71057e-17 
  7199.5371   2.13409e-17 
  7200.7266   2.32221e-17 
  7201.9155   2.54792e-17 
  7203.1045   2.34284e-17 
  7204.2935   2.61199e-17 
  7205.4829   2.28415e-17 
  7206.6719   2.72156e-17 
  7207.8613   2.34972e-17 
  7209.0503   2.60605e-17 
  7210.2397   2.45111e-17 
  7211.4292   2.23538e-17 
  7212.6182   2.53551e-17 
  7213.8076   2.40163e-17 
  7214.9971   2.64397e-17 
  7216.1865   2.49401e-17 
  7217.3755   2.58654e-17 
  7218.5649   2.48389e-17 
  7219.7544   2.27443e-17 
  7220.9438   2.33564e-17 
  7222.1333   2.44103e-17 
  7223.3232   2.14399e-17 
  7224.5127   2.47022e-17 
  7225.7021   2.26698e-17 
  7226.8916   2.55754e-17 
  7228.0815   2.50432e-17 
   7229.271   2.25908e-17 
  7230.4604   2.55362e-17 
  7231.6504   2.40096e-17 
  7232.8398    2.4792e-17 
  7234.0298   2.20951e-17 
  7235.2192   1.97004e-17 
  7236.4092   2.64519e-17 
  7237.5991   1.84968e-17 
  7238.7886   2.15304e-17 
  7239.9785   1.99027e-17 
  7241.1685   1.87336e-17 
  7242.3584   1.88466e-17 
  7243.5483    2.7292e-17 
  7244.7383   2.22151e-17 
  7245.9282   2.22902e-17 
  7247.1182   2.03374e-17 
  7248.3081    2.4751e-17 
   7249.498   1.79217e-17 
   7250.688    2.5063e-17 
  7251.8784   2.23294e-17 
  7253.0684   2.77267e-17 
  7254.2583   2.10665e-17 
  7255.4487   2.64901e-17 
  7256.6387   2.42804e-17 
  7257.8291    2.7197e-17 
   7259.019   2.52337e-17 
  7260.2095   2.43916e-17 
  7261.3994   2.39473e-17 
  7262.5898   2.11013e-17 
  7263.7803   2.33123e-17 
  7264.9707   2.57339e-17 
  7266.1606    2.0866e-17 
  7267.3511   2.20148e-17 
  7268.5415   2.22248e-17 
  7269.7319    2.3155e-17 
  7270.9224   2.51047e-17 
  7272.1128   2.47815e-17 
  7273.3032   2.55418e-17 
  7274.4937   2.21685e-17 
  7275.6846   2.88007e-17 
   7276.875   2.29662e-17 
  7278.0654   2.33556e-17 
  7279.2559   2.12001e-17 
  7280.4468   2.12397e-17 
  7281.6372   2.42678e-17 
  7282.8281   2.47322e-17 
  7284.0186   2.36456e-17 
  7285.2095   2.27032e-17 
  7286.3999   2.36289e-17 
  7287.5908   2.61948e-17 
  7288.7817   2.43653e-17 
  7289.9722   2.46527e-17 
  7291.1631   2.16255e-17 
   7292.354   2.71325e-17 
  7293.5449   2.06931e-17 
  7294.7358   2.49827e-17 
  7295.9268   2.05421e-17 
  7297.1177   2.54265e-17 
  7298.3086   2.33103e-17 
  7299.4995   2.40714e-17 
  7300.6904   2.03091e-17 
  7301.8818   2.47611e-17 
  7303.0728    2.2018e-17 
  7304.2637   2.08267e-17 
  7305.4546    2.3369e-17 
   7306.646   2.26868e-17 
  7307.8369   2.19817e-17 
  7309.0283   2.30985e-17 
  7310.2192   2.27851e-17 
  7311.4106   1.99889e-17 
  7312.6016    2.4375e-17 
   7313.793   2.70371e-17 
  7314.9844   2.29294e-17 
  7316.1758   3.00964e-17 
  7317.3667   2.42681e-17 
  7318.5581   2.59321e-17 
  7319.7495   1.97403e-17 
  7320.9409   2.08464e-17 
  7322.1323   2.23895e-17 
  7323.3237   2.45933e-17 
  7324.5151   2.36602e-17 
  7325.7065   2.41157e-17 
  7326.8984   1.85311e-17 
  7328.0898   2.39353e-17 
  7329.2812   1.59119e-17 
  7330.4727   2.28697e-17 
  7331.6641   2.59067e-17 
   7332.856   2.73288e-17 
  7334.0474   2.32355e-17 
  7335.2393    2.4829e-17 
  7336.4307   2.74715e-17 
  7337.6226   1.79263e-17 
   7338.814   2.33585e-17 
  7340.0059   2.42331e-17 
  7341.1978   2.33608e-17 
  7342.3892   2.12613e-17 
  7343.5811    2.1569e-17 
  7344.7729   2.32086e-17 
  7345.9648   2.23825e-17 
  7347.1567   2.24599e-17 
  7348.3486   2.32795e-17 
  7349.5405   2.25446e-17 
  7350.7324   2.20745e-17 
  7351.9243   2.15675e-17 
  7353.1162    2.2927e-17 
  7354.3081    2.0415e-17 
  7355.5005   2.11287e-17 
  7356.6924   1.79354e-17 
  7357.8843    1.8691e-17 
  7359.0762   2.43519e-17 
  7360.2686   2.28187e-17 
  7361.4604   2.50946e-17 
  7362.6528    2.5977e-17 
  7363.8447   2.16121e-17 
  7365.0371   2.75738e-17 
   7366.229   2.40869e-17 
  7367.4214   2.22496e-17 
  7368.6138   2.62201e-17 
  7369.8057   1.88148e-17 
   7370.998   2.61909e-17 
  7372.1904   2.46485e-17 
  7373.3828   2.38345e-17 
  7374.5752   2.24484e-17 
  7375.7676   2.28962e-17 
    7376.96   2.29718e-17 
  7378.1523   2.27799e-17 
  7379.3447   2.32425e-17 
  7380.5371   2.09065e-17 
  7381.7295   2.21792e-17 
  7382.9219   2.35675e-17 
  7384.1147   2.13501e-17 
  7385.3071   2.10439e-17 
  7386.4995   2.30299e-17 
  7387.6924   2.04447e-17 
  7388.8848   2.11852e-17 
  7390.0776   2.09053e-17 
    7391.27   2.16821e-17 
  7392.4629    2.1774e-17 
  7393.6553   2.22533e-17 
  7394.8481   2.04522e-17 
   7396.041   2.34665e-17 
  7397.2334   2.20473e-17 
  7398.4263   2.15104e-17 
  7399.6191   2.09518e-17 
   7400.812   1.82878e-17 
  7402.0049   2.18062e-17 
  7403.1978   2.50024e-17 
  7404.3906   2.34043e-17 
  7405.5835   2.49529e-17 
  7406.7764   1.85944e-17 
  7407.9692    2.1199e-17 
  7409.1621   2.51293e-17 
   7410.355   2.22353e-17 
  7411.5483   2.59409e-17 
  7412.7412   2.05021e-17 
  7413.9341   2.30303e-17 
   7415.127   2.36931e-17 
  7416.3203   2.37508e-17 
  7417.5132   2.16394e-17 
  7418.7065   1.82097e-17 
  7419.8994   2.13467e-17 
  7421.0928   1.90858e-17 
  7422.2856   2.09948e-17 
   7423.479   2.04868e-17 
  7424.6724   2.25396e-17 
  7425.8652   1.76889e-17 
  7427.0586   2.12799e-17 
   7428.252   2.46371e-17 
  7429.4453   1.96017e-17 
  7430.6387   2.13822e-17 
   7431.832   1.93739e-17 
  7433.0254   2.18659e-17 
  7434.2188   2.19759e-17 
  7435.4121   2.52691e-17 
  7436.6055    1.9825e-17 
  7437.7988   1.90915e-17 
  7438.9922   1.90093e-17 
  7440.1855   1.88088e-17 
  7441.3794   1.99521e-17 
  7442.5728   1.83985e-17 
  7443.7661   1.92064e-17 
    7444.96   1.84545e-17 
  7446.1533   2.11915e-17 
  7447.3467   2.05917e-17 
  7448.5405   2.35883e-17 
  7449.7344   2.38795e-17 
  7450.9277   2.16111e-17 
  7452.1216   2.27396e-17 
  7453.3154   2.44215e-17 
  7454.5088   2.11551e-17 
  7455.7026   2.19657e-17 
  7456.8965   2.09323e-17 
  7458.0903   2.09296e-17 
  7459.2837   2.16479e-17 
  7460.4775   2.32026e-17 
  7461.6714   2.21388e-17 
  7462.8652   2.14799e-17 
  7464.0591   2.06267e-17 
  7465.2529   2.03737e-17 
  7466.4468   2.24867e-17 
  7467.6411   2.33066e-17 
   7468.835   2.41404e-17 
  7470.0288   2.12976e-17 
  7471.2227   2.19356e-17 
   7472.417   2.45722e-17 
  7473.6108   2.04928e-17 
  7474.8047   2.32584e-17 
   7475.999   2.09052e-17 
  7477.1929   2.26324e-17 
  7478.3872   2.11996e-17 
  7479.5811    2.1265e-17 
  7480.7754    2.3971e-17 
  7481.9697   2.41321e-17 
  7483.1636   1.95787e-17 
  7484.3579   2.10388e-17 
  7485.5522   2.25675e-17 
  7486.7461   2.04405e-17 
  7487.9404   2.05278e-17 
  7489.1348    2.2267e-17 
  7490.3291   2.08915e-17 
  7491.5234   1.93573e-17 
  7492.7178   2.36298e-17 
  7493.9121   2.06712e-17 
  7495.1064   2.05936e-17 
  7496.3008   2.24996e-17 
  7497.4951   2.09104e-17 
  7498.6895   2.34461e-17 
  7499.8843   2.29513e-17 
  7501.0786   2.02437e-17 
  7502.2729   2.30049e-17 
  7503.4673   2.07718e-17 
  7504.6621   2.06548e-17 
  7505.8564   2.02978e-17 
  7507.0513   2.23862e-17 
  7508.2456   2.27209e-17 
  7509.4404   2.26932e-17 
  7510.6348   1.96577e-17 
  7511.8296    2.2604e-17 
  7513.0244   2.01812e-17 
  7514.2188    2.1026e-17 
  7515.4136   1.99096e-17 
  7516.6084     2.353e-17 
  7517.8027    2.2676e-17 
  7518.9976   2.29291e-17 
  7520.1924   2.02754e-17 
  7521.3872   2.05267e-17 
   7522.582   2.51242e-17 
  7523.7769    2.2844e-17 
  7524.9717   2.13872e-17 
  7526.1665   2.34174e-17 
  7527.3613   2.09292e-17 
  7528.5562   2.36854e-17 
   7529.751   2.13471e-17 
  7530.9463   2.22898e-17 
  7532.1411   2.22959e-17 
  7533.3359    1.7777e-17 
  7534.5308    1.9211e-17 
  7535.7261   1.93679e-17 
  7536.9209   2.07649e-17 
  7538.1162    1.9186e-17 
   7539.311   2.26732e-17 
  7540.5059   2.33872e-17 
  7541.7012   2.17935e-17 
  7542.8965    2.2227e-17 
  7544.0913   2.18593e-17 
  7545.2866   1.94159e-17 
  7546.4819    2.5683e-17 
  7547.6768   2.22098e-17 
  7548.8721   2.37265e-17 
  7550.0674   2.15454e-17 
  7551.2627   2.12032e-17 
   7552.458   1.97471e-17 
  7553.6533   1.98243e-17 
  7554.8486    2.2065e-17 
  7556.0435   1.82044e-17 
  7557.2388   2.34635e-17 
  7558.4346   2.20204e-17 
  7559.6299   2.08953e-17 
  7560.8252   2.23378e-17 
  7562.0205   2.18037e-17 
  7563.2158   2.29641e-17 
  7564.4111   2.32537e-17 
  7565.6069   2.28394e-17 
  7566.8022   2.17028e-17 
  7567.9976   2.23882e-17 
  7569.1934   2.05821e-17 
  7570.3887   1.87232e-17 
  7571.5845   1.85988e-17 
  7572.7798   2.12654e-17 
  7573.9756   1.89571e-17 
  7575.1709   2.19807e-17 
  7576.3667   2.13199e-17 
  7577.5625   2.22957e-17 
  7578.7578    2.2295e-17 
  7579.9536   2.24656e-17 
  7581.1494   2.37146e-17 
  7582.3447   2.26119e-17 
  7583.5405   2.15595e-17 
  7584.7363   2.28835e-17 
  7585.9321   1.85966e-17 
  7587.1279   2.01831e-17 
  7588.3237   2.06078e-17 
  7589.5195   2.06521e-17 
  7590.7153   2.19805e-17 
  7591.9111   2.03151e-17 
  7593.1069   2.07031e-17 
  7594.3027   2.39672e-17 
  7595.4985   2.68502e-17 
  7596.6948   2.62493e-17 
  7597.8906   2.34194e-17 
  7599.0864   1.69213e-17 
  7600.2827   2.20826e-17 
  7601.4785    1.2999e-17 
  7602.6743   1.51098e-17 
  7603.8706   2.27217e-17 
  7605.0664   2.90086e-17 
  7606.2627     1.888e-17 
  7607.4585    2.0763e-17 
  7608.6548   1.95536e-17 
  7609.8506   2.37314e-17 
  7611.0469   1.62032e-17 
  7612.2432   1.88194e-17 
   7613.439   1.57198e-17 
  7614.6353   2.15524e-17 
  7615.8315   2.01432e-17 
  7617.0278   1.79317e-17 
  7618.2241   1.99824e-17 
  7619.4199   1.99168e-17 
  7620.6162   1.77427e-17 
  7621.8125   1.99168e-17 
  7623.0088   2.14834e-17 
  7624.2051   2.28407e-17 
  7625.4014   2.40704e-17 
  7626.5977   2.15219e-17 
  7627.7944   1.96678e-17 
  7628.9907   2.24659e-17 
   7630.187   2.00359e-17 
  7631.3833   1.90487e-17 
  7632.5796   1.96332e-17 
  7633.7764   1.79301e-17 
  7634.9727   1.89141e-17 
  7636.1689   2.40951e-17 
  7637.3657   2.08873e-17 
   7638.562    1.9811e-17 
  7639.7588    2.4235e-17 
  7640.9551   2.05045e-17 
  7642.1519   2.08161e-17 
  7643.3481   1.75623e-17 
  7644.5449   2.04507e-17 
  7645.7412   1.94898e-17 
   7646.938   2.16668e-17 
  7648.1348   1.96988e-17 
  7649.3315   2.05973e-17 
  7650.5278   1.77293e-17 
  7651.7246     2.015e-17 
  7652.9214   2.14996e-17 
  7654.1182   2.11634e-17 
  7655.3149   2.01683e-17 
  7656.5117   1.87974e-17 
  7657.7085   2.33515e-17 
  7658.9048    2.0237e-17 
  7660.1016   2.43268e-17 
  7661.2988   2.08888e-17 
  7662.4956   1.75886e-17 
  7663.6924   1.77737e-17 
  7664.8892   2.30507e-17 
  7666.0859     1.934e-17 
  7667.2827   2.15832e-17 
    7668.48   2.01605e-17 
  7669.6768   2.43302e-17 
  7670.8735   1.87916e-17 
  7672.0708   1.82554e-17 
  7673.2676   1.86794e-17 
  7674.4648   2.17497e-17 
  7675.6616   2.00274e-17 
  7676.8584   2.00031e-17 
  7678.0557   1.85508e-17 
  7679.2529   1.99663e-17 
  7680.4497     1.621e-17 
   7681.647   2.08959e-17 
  7682.8438    1.8383e-17 
   7684.041   1.95528e-17 
  7685.2383    1.8921e-17 
  7686.4351   1.76267e-17 
  7687.6323   2.15777e-17 
  7688.8296   2.08942e-17 
  7690.0269    1.8785e-17 
  7691.2241   1.83973e-17 
  7692.4214   2.17647e-17 
  7693.6187   2.09985e-17 
  7694.8159   2.13148e-17 
  7696.0132   2.16017e-17 
  7697.2104   1.74619e-17 
  7698.4077   2.16701e-17 
   7699.605   2.07672e-17 
  7700.8022    2.1021e-17 
  7701.9995   2.28125e-17 
  7703.1968   1.98589e-17 
  7704.3945   2.10687e-17 
  7705.5918   2.07161e-17 
  7706.7891    1.9353e-17 
  7707.9868   2.02665e-17 
  7709.1841   1.84079e-17 
  7710.3813   1.84924e-17 
  7711.5791   1.80521e-17 
  7712.7764   2.42126e-17 
  7713.9741   1.89815e-17 
  7715.1714    1.6264e-17 
  7716.3691   2.36545e-17 
  7717.5664   2.49039e-17 
  7718.7642   1.69408e-17 
  7719.9614   1.91738e-17 
  7721.1592   2.51172e-17 
  7722.3569   2.14585e-17 
  7723.5547   1.84123e-17 
   7724.752   2.78394e-17 
  7725.9497   1.87217e-17 
  7727.1475   2.33169e-17 
  7728.3452   2.12764e-17 
   7729.543   2.36999e-17 
  7730.7407   2.06491e-17 
   7731.938   1.99802e-17 
  7733.1362   1.88418e-17 
  7734.3335   1.96725e-17 
  7735.5317   1.98804e-17 
  7736.7295   1.92037e-17 
  7737.9272   1.98553e-17 
   7739.125    2.0716e-17 
  7740.3228   2.31291e-17 
  7741.5205   1.96097e-17 
  7742.7183   1.82849e-17 
  7743.9165    2.1992e-17 
  7745.1143   1.91379e-17 
   7746.312   1.96105e-17 
  7747.5098    1.7442e-17 
   7748.708   2.04256e-17 
  7749.9058   2.51475e-17 
   7751.104   1.86693e-17 
  7752.3018   1.99264e-17 
     7753.5   2.02074e-17 
  7754.6978   2.19273e-17 
   7755.896   1.99043e-17 
  7757.0938   2.34262e-17 
   7758.292   2.32178e-17 
  7759.4902   2.46865e-17 
   7760.688    2.0344e-17 
  7761.8862   1.87012e-17 
  7763.0845    2.0967e-17 
  7764.2822   1.77349e-17 
  7765.4805   1.91676e-17 
  7766.6787   1.77941e-17 
   7767.877   2.31004e-17 
  7769.0752   1.85859e-17 
  7770.2734    1.9021e-17 
  7771.4717   2.43149e-17 
  7772.6699   1.92703e-17 
  7773.8677   1.93208e-17 
  7775.0664   1.94426e-17 
  7776.2646   2.05458e-17 
  7777.4629   2.29486e-17 
  7778.6611   1.87809e-17 
  7779.8594   2.33397e-17 
  7781.0576   1.88125e-17 
  7782.2559    1.7987e-17 
  7783.4546   1.94041e-17 
  7784.6528   2.00739e-17 
  7785.8511   1.79676e-17 
  7787.0493   2.05955e-17 
   7788.248   2.06948e-17 
  7789.4463   2.15164e-17 
   7790.645   2.10898e-17 
  7791.8433   1.74867e-17 
  7793.0415   2.13306e-17 
  7794.2402   2.10193e-17 
  7795.4385   1.71018e-17 
  7796.6372   1.59073e-17 
  7797.8359   2.33406e-17 
  7799.0342   2.28582e-17 
  7800.2329   1.88216e-17 
  7801.4312    1.8807e-17 
  7802.6299   1.85803e-17 
  7803.8286   1.89478e-17 
  7805.0273   1.93773e-17 
  7806.2256   2.16341e-17 
  7807.4243   2.08341e-17 
   7808.623   2.25987e-17 
  7809.8218   1.51887e-17 
  7811.0205   1.98778e-17 
  7812.2188   2.02371e-17 
  7813.4175   1.87488e-17 
  7814.6162   2.07932e-17 
  7815.8149   2.30442e-17 
  7817.0137   2.07982e-17 
  7818.2124    2.2155e-17 
  7819.4111   1.82235e-17 
  7820.6099   2.16319e-17 
  7821.8091   1.82444e-17 
  7823.0078    2.3545e-17 
  7824.2065   2.02257e-17 
  7825.4053   1.78584e-17 
   7826.604   1.65433e-17 
  7827.8032   1.90757e-17 
   7829.002   2.19711e-17 
  7830.2007   2.04761e-17 
  7831.3999   2.01576e-17 
  7832.5986   1.84924e-17 
  7833.7974   1.85969e-17 
  7834.9966   2.40293e-17 
  7836.1953   1.84555e-17 
  7837.3945   2.07062e-17 
  7838.5933   1.87543e-17 
  7839.7925   1.80998e-17 
  7840.9912   2.20776e-17 
  7842.1904   2.00859e-17 
  7843.3892    2.0837e-17 
  7844.5884   2.02695e-17 
  7845.7876   2.16409e-17 
  7846.9868   2.20078e-17 
  7848.1855   1.96154e-17 
  7849.3848   2.29529e-17 
   7850.584   1.73109e-17 
  7851.7832   1.87808e-17 
  7852.9819   1.80917e-17 
  7854.1812    2.0318e-17 
  7855.3804   2.28421e-17 
  7856.5796   1.98256e-17 
  7857.7788   2.02159e-17 
   7858.978   1.90632e-17 
  7860.1772   2.11289e-17 
  7861.3765   1.67833e-17 
  7862.5757   1.79573e-17 
  7863.7749   1.97565e-17 
  7864.9741   2.27287e-17 
  7866.1733   1.82013e-17 
  7867.3726   2.40635e-17 
  7868.5718   2.08746e-17 
  7869.7715   1.62351e-17 
  7870.9707   2.01268e-17 
  7872.1699    2.0712e-17 
  7873.3691    2.2803e-17 
  7874.5688   1.88593e-17 
  7875.7681   2.23558e-17 
  7876.9673   2.21391e-17 
   7878.167   2.34619e-17 
  7879.3662   2.53837e-17 
  7880.5654   1.66028e-17 
  7881.7651   2.03134e-17 
  7882.9644   2.16974e-17 
  7884.1641   1.87908e-17 
  7885.3633   2.19412e-17 
   7886.563   2.01103e-17 
  7887.7622   2.20119e-17 
  7888.9619   1.89479e-17 
  7890.1616   1.87601e-17 
  7891.3608   2.32308e-17 
  7892.5605   2.01334e-17 
  7893.7603   2.11166e-17 
  7894.9595   2.21056e-17 
  7896.1592   2.00471e-17 
  7897.3589   1.94308e-17 
  7898.5586   1.47581e-17 
  7899.7583   2.00227e-17 
  7900.9575   1.90992e-17 
  7902.1572   1.80803e-17 
  7903.3569    1.9953e-17 
  7904.5566   2.24842e-17 
  7905.7563   1.86396e-17 
  7906.9561   1.45386e-17 
  7908.1558   1.87708e-17 
  7909.3555   2.08129e-17 
  7910.5552   1.99803e-17 
  7911.7549   1.97544e-17 
  7912.9546   2.45854e-17 
  7914.1543   1.70107e-17 
   7915.354   2.09426e-17 
  7916.5542   1.59498e-17 
  7917.7539   1.59068e-17 
  7918.9536   1.64577e-17 
  7920.1533   1.86849e-17 
   7921.353   1.83385e-17 
  7922.5532   1.55567e-17 
  7923.7529   1.95488e-17 
  7924.9526   2.01428e-17 
  7926.1528   1.95168e-17 
  7927.3525   2.10295e-17 
  7928.5527   1.89751e-17 
  7929.7524   1.51403e-17 
  7930.9521   1.68025e-17 
  7932.1523   1.93939e-17 
  7933.3521   1.45946e-17 
  7934.5522   1.52009e-17 
   7935.752   1.79093e-17 
  7936.9521    1.7858e-17 
  7938.1523   1.43203e-17 
  7939.3521   1.78885e-17 
  7940.5522    1.7914e-17 
  7941.7524   1.78673e-17 
  7942.9521   1.91087e-17 
  7944.1523   1.84413e-17 
  7945.3525    1.7909e-17 
  7946.5522   1.39391e-17 
  7947.7524   1.78719e-17 
  7948.9526   1.86784e-17 
  7950.1528   1.86887e-17 
   7951.353   1.60045e-17 
  7952.5527   1.91969e-17 
  7953.7529   1.91039e-17 
  7954.9531   1.72592e-17 
  7956.1533   1.67616e-17 
  7957.3535   1.79299e-17 
  7958.5537   1.97049e-17 
  7959.7539   1.28405e-17 
  7960.9541   1.41834e-17 
  7962.1543   2.07116e-17 
  7963.3545   1.10262e-17 
  7964.5547   1.49522e-17 
  7965.7549   1.59711e-17 
  7966.9551   1.66655e-17 
  7968.1558   2.19606e-17 
   7969.356   1.30226e-17 
  7970.5562    1.5528e-17 
  7971.7563   1.62704e-17 
   7972.957   1.85003e-17 
  7974.1572   1.45674e-17 
  7975.3574   1.45567e-17 
  7976.5576    1.5387e-17 
  7977.7583   1.60407e-17 
  7978.9585   2.06184e-17 
  7980.1587   1.78765e-17 
  7981.3594   1.58301e-17 
  7982.5596   1.90623e-17 
  7983.7603   1.88081e-17 
  7984.9604   1.80181e-17 
  7986.1611   1.89498e-17 
  7987.3613   1.65903e-17 
   7988.562   2.06563e-17 
  7989.7622   1.55676e-17 
  7990.9629   1.83142e-17 
  7992.1631   1.75615e-17 
  7993.3638   1.50118e-17 
  7994.5645   1.34551e-17 
  7995.7646   1.53874e-17 
  7996.9653   2.13413e-17 
   7998.166   1.56619e-17 
  7999.3662   1.68183e-17 
  8000.5669   1.77121e-17 
  8001.7676    1.6783e-17 
  8002.9683   1.69489e-17 
  8004.1685   1.84653e-17 
  8005.3691   1.61914e-17 
  8006.5698    1.8238e-17 
  8007.7705   1.40797e-17 
  8008.9712   1.77294e-17 
  8010.1719   2.19225e-17 
  8011.3726   1.68843e-17 
  8012.5732   1.51412e-17 
  8013.7739    1.6317e-17 
  8014.9746   1.75492e-17 
  8016.1753   2.23133e-17 
   8017.376   1.65311e-17 
  8018.5767   1.73469e-17 
  8019.7773   1.30043e-17 
   8020.978   1.79529e-17 
  8022.1787   1.69512e-17 
  8023.3794   1.93086e-17 
  8024.5801   2.18447e-17 
  8025.7808   1.72683e-17 
  8026.9819   1.84899e-17 
  8028.1826   1.85748e-17 
  8029.3833   1.98973e-17 
   8030.584   1.94456e-17 
  8031.7852    1.8147e-17 
  8032.9858   1.41028e-17 
  8034.1865   1.69473e-17 
  8035.3877     1.802e-17 
  8036.5884   1.86507e-17 
  8037.7891   1.49429e-17 
  8038.9902   1.61651e-17 
  8040.1909   1.83868e-17 
  8041.3921   1.59148e-17 
  8042.5928   1.49029e-17 
  8043.7935   1.70756e-17 
  8044.9946   1.77919e-17 
  8046.1958   1.71198e-17 
  8047.3965   2.06432e-17 
  8048.5977   1.92561e-17 
  8049.7983   1.57853e-17 
  8050.9995   1.48372e-17 
  8052.2002   1.53922e-17 
  8053.4014   1.88368e-17 
  8054.6025   1.72669e-17 
  8055.8032   1.88485e-17 
  8057.0044   1.54026e-17 
  8058.2056   1.53437e-17 
  8059.4067   1.65741e-17 
  8060.6074   2.16736e-17 
  8061.8086   1.51181e-17 
  8063.0098   1.83977e-17 
  8064.2109   1.63171e-17 
  8065.4116   1.65183e-17 
  8066.6128   1.75349e-17 
   8067.814   1.87871e-17 
  8069.0151   1.74989e-17 
  8070.2163   1.87208e-17 
  8071.4175   1.78073e-17 
  8072.6187   1.79221e-17 
  8073.8198   1.77797e-17 
   8075.021   2.00405e-17 
  8076.2217   1.82988e-17 
  8077.4233   1.90722e-17 
  8078.6245   1.84308e-17 
  8079.8257   1.90889e-17 
  8081.0269   1.61843e-17 
   8082.228   1.61151e-17 
  8083.4292    1.7513e-17 
  8084.6304   2.10932e-17 
  8085.8315   1.67813e-17 
  8087.0327   1.86502e-17 
  8088.2339   1.53238e-17 
  8089.4351   1.96909e-17 
  8090.6367   1.61894e-17 
  8091.8379   1.82522e-17 
  8093.0391   1.85592e-17 
  8094.2407   1.94025e-17 
  8095.4419   1.99498e-17 
  8096.6431   2.04231e-17 
  8097.8442   1.65838e-17 
  8099.0459   2.09138e-17 
  8100.2471   1.89989e-17 
  8101.4482   1.92866e-17 
  8102.6499   2.06611e-17 
  8103.8511   1.62496e-17 
  8105.0527   1.77182e-17 
  8106.2539   1.93479e-17 
  8107.4551   1.80398e-17 
  8108.6567   2.11693e-17 
  8109.8579    1.5976e-17 
  8111.0596    1.9391e-17 
  8112.2607   1.70754e-17 
  8113.4624   1.83101e-17 
  8114.6636   2.14526e-17 
  8115.8652   1.89563e-17 
  8117.0669    1.9327e-17 
  8118.2681   2.02305e-17 
  8119.4697   1.53588e-17 
  8120.6709    1.6571e-17 
  8121.8726   1.87949e-17 
  8123.0742   2.06764e-17 
  8124.2754     2.147e-17 
  8125.4771   1.67694e-17 
  8126.6787   1.90335e-17 
  8127.8804   1.97726e-17 
  8129.0815   2.05131e-17 
  8130.2832   2.04653e-17 
  8131.4849   1.59809e-17 
  8132.6865   1.58554e-17 
  8133.8882   2.02975e-17 
  8135.0898   1.85187e-17 
   8136.291   1.81388e-17 
  8137.4927   1.91653e-17 
  8138.6943    1.7395e-17 
   8139.896   1.93466e-17 
  8141.0977   1.81027e-17 
  8142.2993   1.99257e-17 
   8143.501   1.83915e-17 
  8144.7026   1.72091e-17 
  8145.9043   1.88659e-17 
   8147.106   1.68103e-17 
  8148.3076   1.85931e-17 
  8149.5093   1.92679e-17 
  8150.7109   1.88801e-17 
  8151.9126   1.94327e-17 
  8153.1143   1.74221e-17 
  8154.3159   1.59621e-17 
  8155.5176   1.82764e-17 
  8156.7192   1.95129e-17 
  8157.9209   1.94526e-17 
  8159.1226   2.03967e-17 
  8160.3247   2.02211e-17 
  8161.5264   1.90959e-17 
   8162.728   1.81764e-17 
  8163.9297   1.89545e-17 
  8165.1313   1.69136e-17 
  8166.3335   1.56621e-17 
  8167.5352   1.75125e-17 
  8168.7368   1.94263e-17 
  8169.9385   1.77867e-17 
  8171.1406   1.83917e-17 
  8172.3423   1.83313e-17 
  8173.5439   1.75896e-17 
  8174.7461   2.01205e-17 
  8175.9478   1.79588e-17 
  8177.1494   1.79579e-17 
  8178.3516   1.80779e-17 
  8179.5532    1.5002e-17 
  8180.7554   1.79626e-17 
   8181.957   2.09879e-17 
  8183.1587    1.8001e-17 
  8184.3608   1.92688e-17 
  8185.5625   1.75085e-17 
  8186.7646   1.66642e-17 
  8187.9663   1.77478e-17 
  8189.1685   1.75999e-17 
  8190.3706   1.96536e-17 
  8191.5723   1.58972e-17 
  8192.7744    1.7027e-17 
  8193.9766   1.59794e-17 
  8195.1777   1.53552e-17 
  8196.3799   1.29842e-17 
   8197.582    1.7605e-17 
  8198.7842   1.54353e-17 
  8199.9863    1.6843e-17 
  8201.1885   1.94402e-17 
  8202.3896   1.62289e-17 
  8203.5918   1.86779e-17 
  8204.7939   2.16232e-17 
  8205.9961   1.53243e-17 
  8207.1982   1.70135e-17 
  8208.4004   1.74893e-17 
  8209.6016   1.57559e-17 
  8210.8037   1.65745e-17 
  8212.0059   1.67289e-17 
   8213.208   1.72956e-17 
  8214.4102   1.58081e-17 
  8215.6123   1.96458e-17 
  8216.8145   1.65029e-17 
  8218.0166   1.34001e-17 
  8219.2188   2.13944e-17 
  8220.4209   1.80403e-17 
   8221.623   1.79095e-17 
  8222.8252   1.49732e-17 
  8224.0273   1.57438e-17 
  8225.2285   1.45189e-17 
  8226.4307   1.53277e-17 
  8227.6328   1.33877e-17 
   8228.835   1.59202e-17 
  8230.0371   1.47783e-17 
  8231.2393   1.54699e-17 
  8232.4414   1.51746e-17 
  8233.6436   1.50035e-17 
  8234.8457   1.50701e-17 
  8236.0479   1.97354e-17 
    8237.25    2.0922e-17 
  8238.4521   1.56897e-17 
  8239.6553   1.68268e-17 
  8240.8574   1.71698e-17 
  8242.0596   1.92547e-17 
  8243.2617   1.49253e-17 
  8244.4639   1.78133e-17 
   8245.666   2.03194e-17 
  8246.8682   1.94753e-17 
  8248.0703   1.90896e-17 
  8249.2725    1.9448e-17 
  8250.4746   1.86836e-17 
  8251.6768    1.8783e-17 
  8252.8789   1.84534e-17 
  8254.0811   1.80006e-17 
  8255.2842   1.80874e-17 
  8256.4863    1.5642e-17 
  8257.6885   1.93984e-17 
  8258.8906   1.86374e-17 
  8260.0928   1.85877e-17 
  8261.2949   1.94293e-17 
  8262.4971   1.95228e-17 
  8263.7002   1.84761e-17 
  8264.9023   1.94015e-17 
  8266.1045   1.69204e-17 
  8267.3066   1.83344e-17 
  8268.5088   1.60656e-17 
  8269.7109   1.92973e-17 
  8270.9141   1.57661e-17 
  8272.1162   1.81886e-17 
  8273.3184   2.00786e-17 
  8274.5205   1.57689e-17 
  8275.7227   1.65391e-17 
  8276.9258   1.76451e-17 
  8278.1279   1.86102e-17 
  8279.3301   2.13924e-17 
  8280.5322   1.72187e-17 
  8281.7354   1.27328e-17 
  8282.9375   2.39244e-17 
  8284.1396   1.67481e-17 
  8285.3418   2.20571e-17 
  8286.5449   1.32725e-17 
  8287.7471   1.42963e-17 
  8288.9492   2.23435e-17 
  8290.1523   1.88966e-17 
  8291.3545     1.816e-17 
  8292.5566   1.47884e-17 
  8293.7588    1.7708e-17 
  8294.9619   2.13009e-17 
  8296.1641   1.54874e-17 
  8297.3662   2.16737e-17 
  8298.5693    2.1136e-17 
  8299.7715   2.13092e-17 
  8300.9736   2.38278e-17 
  8302.1768   1.68763e-17 
  8303.3789   2.13087e-17 
  8304.5811   2.01114e-17 
  8305.7842   1.88053e-17 
  8306.9863   2.05484e-17 
  8308.1885   1.60465e-17 
  8309.3916   1.99222e-17 
  8310.5938    1.6603e-17 
  8311.7959   1.53475e-17 
   8312.999   1.57043e-17 
  8314.2012   1.90678e-17 
  8315.4043   1.68559e-17 
  8316.6064   2.18546e-17 
  8317.8086   2.31287e-17 
  8319.0117   2.84031e-17 
  8320.2139   2.65312e-17 
   8321.417   2.73038e-17 
  8322.6191   2.37857e-17 
  8323.8213   2.38957e-17 
  8325.0244   2.39361e-17 
  8326.2266   2.52953e-17 
  8327.4297   2.32067e-17 
  8328.6318   2.19755e-17 
   8329.835   1.95327e-17 
  8331.0371   2.28735e-17 
  8332.2393   2.12614e-17 
  8333.4424   2.05912e-17 
  8334.6445   2.04255e-17 
  8335.8477   2.56118e-17 
  8337.0498   2.12042e-17 
  8338.2529   2.12651e-17 
  8339.4551   2.16215e-17 
  8340.6582   2.16506e-17 
  8341.8604   2.30156e-17 
  8343.0635   2.72845e-17 
  8344.2656   1.96777e-17 
  8345.4688   2.55784e-17 
  8346.6709   2.02151e-17 
   8347.874   1.84539e-17 
  8349.0762   1.94144e-17 
  8350.2793   1.95356e-17 
  8351.4814   2.42559e-17 
  8352.6846    2.0789e-17 
  8353.8867   2.04954e-17 
  8355.0898   2.20714e-17 
   8356.292   2.00366e-17 
  8357.4951   2.01683e-17 
  8358.6982   2.12019e-17 
  8359.9004   2.16144e-17 
  8361.1035   2.08752e-17 
  8362.3057   2.10962e-17 
  8363.5088    1.9778e-17 
  8364.7109   1.93485e-17 
  8365.9141   2.07717e-17 
  8367.1172   1.82389e-17 
  8368.3193   1.93408e-17 
  8369.5225   2.14231e-17 
  8370.7246   1.85386e-17 
  8371.9277   1.79282e-17 
  8373.1299   1.92949e-17 
   8374.333   1.77938e-17 
  8375.5361   2.36412e-17 
  8376.7383   1.64805e-17 
  8377.9414   2.02743e-17 
  8379.1436   1.98151e-17 
  8380.3467   1.65285e-17 
  8381.5498   2.24791e-17 
   8382.752   1.72504e-17 
  8383.9551   2.29135e-17 
  8385.1572   2.10425e-17 
  8386.3604   1.96997e-17 
  8387.5635   2.07472e-17 
  8388.7656   1.75692e-17 
  8389.9688   1.97607e-17 
  8391.1719   2.02111e-17 
   8392.374   1.81733e-17 
  8393.5771     1.841e-17 
  8394.7803   1.93437e-17 
  8395.9824   1.79575e-17 
  8397.1855   2.10252e-17 
  8398.3887   1.99864e-17 
  8399.5908   1.37551e-17 
  8400.7939   1.98594e-17 
  8401.9971   2.13795e-17 
  8403.1992   2.16108e-17 
  8404.4023   1.74868e-17 
  8405.6055   2.04317e-17 
  8406.8076   1.72615e-17 
  8408.0107   1.69761e-17 
  8409.2139   1.65286e-17 
   8410.416   2.38517e-17 
  8411.6191   2.07506e-17 
  8412.8223   2.12905e-17 
  8414.0254    2.5099e-17 
  8415.2275   1.49772e-17 
  8416.4307   1.97562e-17 
  8417.6338   1.80342e-17 
  8418.8359   1.78509e-17 
  8420.0391   1.94259e-17 
  8421.2422   1.86633e-17 
  8422.4453   1.94554e-17 
  8423.6475   1.98943e-17 
  8424.8506   1.84807e-17 
  8426.0537   2.47868e-17 
  8427.2568   2.28848e-17 
   8428.459   1.79087e-17 
  8429.6621   1.89107e-17 
  8430.8652   1.99668e-17 
  8432.0684   1.55697e-17 
  8433.2705   1.86711e-17 
  8434.4736   1.80509e-17 
  8435.6768   2.03688e-17 
  8436.8799   1.65233e-17 
   8438.082   1.69358e-17 
  8439.2852   1.96613e-17 
  8440.4883   1.87232e-17 
  8441.6914   1.82801e-17 
  8442.8936   1.80277e-17 
  8444.0967   2.12833e-17 
  8445.2998   1.66634e-17 
  8446.5029   1.93041e-17 
  8447.7051   1.89102e-17 
  8448.9082   1.78935e-17 
  8450.1113   1.80078e-17 
  8451.3145   1.70563e-17 
  8452.5176   1.74852e-17 
  8453.7197   1.72737e-17 
  8454.9229   1.38969e-17 
   8456.126   1.73372e-17 
  8457.3291   1.69176e-17 
  8458.5322   1.55284e-17 
  8459.7344   2.07277e-17 
  8460.9375   1.84686e-17 
  8462.1406   1.48082e-17 
  8463.3438   1.50556e-17 
  8464.5469   1.87149e-17 
   8465.749   1.43852e-17 
  8466.9521    1.5239e-17 
  8468.1553   2.63303e-17 
  8469.3584   1.72934e-17 
  8470.5615   1.77148e-17 
  8471.7646   2.06331e-17 
  8472.9668   2.00636e-17 
  8474.1699   1.72663e-17 
   8475.373   1.83022e-17 
  8476.5762   2.03591e-17 
  8477.7793   1.92142e-17 
  8478.9824   1.66293e-17 
  8480.1846   1.74864e-17 
  8481.3877   1.73624e-17 
  8482.5908   1.88432e-17 
  8483.7939   1.81207e-17 
  8484.9971   1.69236e-17 
  8486.2002   1.52715e-17 
  8487.4023   1.87605e-17 
  8488.6055   1.73901e-17 
  8489.8086    1.4694e-17 
  8491.0117   1.93538e-17 
  8492.2148   1.75461e-17 
   8493.418   1.96508e-17 
  8494.6201   1.58578e-17 
  8495.8232   1.75499e-17 
  8497.0264   1.87683e-17 
  8498.2295   2.09269e-17 
  8499.4326   1.74381e-17 
  8500.6357   2.14185e-17 
  8501.8389   1.83561e-17 
   8503.042   1.80627e-17 
  8504.2441    2.3615e-17 
  8505.4473    1.4384e-17 
  8506.6504   1.65571e-17 
  8507.8535   1.74144e-17 
  8509.0566   1.62736e-17 
  8510.2598   1.83298e-17 
  8511.4629   1.87339e-17 
   8512.666    1.8247e-17 
  8513.8682   1.85771e-17 
  8515.0713    1.7122e-17 
  8516.2744   1.74242e-17 
  8517.4775   1.73872e-17 
  8518.6807   1.69164e-17 
  8519.8838   1.78422e-17 
  8521.0869   1.67367e-17 
    8522.29   1.83405e-17 
  8523.4922   1.70288e-17 
  8524.6953   1.57352e-17 
  8525.8984   1.79131e-17 
  8527.1016    1.9875e-17 
  8528.3047   1.56777e-17 
  8529.5078   1.61412e-17 
  8530.7109   1.63841e-17 
  8531.9141   1.67719e-17 
  8533.1172   1.68186e-17 
  8534.3193   1.64087e-17 
  8535.5225   1.79296e-17 
  8536.7256   1.64813e-17 
  8537.9287   1.57133e-17 
  8539.1318   1.69516e-17 
   8540.335   1.37177e-17 
  8541.5381   1.60781e-17 
  8542.7412    1.7776e-17 
  8543.9443   1.87289e-17 
  8545.1475   1.46169e-17 
  8546.3496   1.68474e-17 
  8547.5527   1.43812e-17 
  8548.7559   1.64563e-17 
   8549.959   1.40012e-17 
  8551.1621   1.59557e-17 
  8552.3652   1.86038e-17 
  8553.5684   1.69206e-17 
  8554.7715   1.65555e-17 
  8555.9746   1.66274e-17 
  8557.1777   1.64838e-17 
  8558.3799   1.68674e-17 
   8559.583   1.73988e-17 
  8560.7861   1.93752e-17 
  8561.9893   1.69488e-17 
  8563.1924   2.01114e-17 
  8564.3955   1.80598e-17 
  8565.5986   1.59397e-17 
  8566.8018   1.58315e-17 
  8568.0049   1.73342e-17 
   8569.208   1.58987e-17 
  8570.4102   1.91964e-17 
  8571.6133   1.61214e-17 
  8572.8164   1.53053e-17 
  8574.0195   1.70396e-17 
  8575.2227   1.83262e-17 
  8576.4258   1.59365e-17 
  8577.6289   1.78192e-17 
   8578.832   1.77167e-17 
  8580.0352   1.53543e-17 
  8581.2383   1.71793e-17 
  8582.4404   1.65128e-17 
  8583.6436   1.77423e-17 
  8584.8467    1.9867e-17 
  8586.0498   1.57328e-17 
  8587.2529   1.72871e-17 
  8588.4561   1.64546e-17 
  8589.6592   1.90778e-17 
  8590.8623   1.44881e-17 
  8592.0654    1.7308e-17 
  8593.2686   1.64581e-17 
  8594.4717   1.63512e-17 
  8595.6738   1.78101e-17 
   8596.877   1.62714e-17 
  8598.0801   1.52368e-17 
  8599.2832   1.53072e-17 
  8600.4863   1.79295e-17 
  8601.6895   1.63492e-17 
  8602.8926    2.0218e-17 
  8604.0957   1.79723e-17 
  8605.2988   1.26594e-17 
   8606.501   1.97838e-17 
  8607.7041   1.95189e-17 
  8608.9072   1.51561e-17 
  8610.1104   1.53837e-17 
  8611.3135   1.89847e-17 
  8612.5166   1.95442e-17 
  8613.7197   1.75679e-17 
  8614.9229   1.97051e-17 
   8616.126   1.61585e-17 
  8617.3281   1.31399e-17 
  8618.5312    1.5759e-17 
  8619.7344   1.99208e-17 
  8620.9375   1.95938e-17 
  8622.1406   1.63302e-17 
  8623.3438   1.20646e-17 
  8624.5469   2.09798e-17 
    8625.75   1.32517e-17 
  8626.9531   1.55747e-17 
  8628.1553   1.40119e-17 
  8629.3584   1.52653e-17 
  8630.5615   1.69545e-17 
  8631.7646    1.3517e-17 
  8632.9678   2.20938e-17 
  8634.1709   2.14756e-17 
   8635.374   1.76137e-17 
  8636.5771   1.81702e-17 
  8637.7793   1.68192e-17 
  8638.9824    1.3844e-17 
  8640.1855   1.92154e-17 
  8641.3887   1.71862e-17 
  8642.5918   1.64055e-17 
  8643.7949   1.63875e-17 
   8644.998   1.81574e-17 
  8646.2012   1.46846e-17 
  8647.4033   1.61634e-17 
  8648.6064   1.52764e-17 
  8649.8096   1.84103e-17 
  8651.0127   2.34611e-17 
  8652.2158     1.674e-17 
  8653.4189   1.82954e-17 
  8654.6221   2.03515e-17 
  8655.8242    1.1797e-17 
  8657.0273   1.56332e-17 
  8658.2305   1.80165e-17 
  8659.4336   1.57959e-17 
  8660.6367   1.34264e-17 
  8661.8398   1.55778e-17 
   8663.042   2.03576e-17 
  8664.2451   1.75974e-17 
  8665.4482   1.82847e-17 
  8666.6514   1.39836e-17 
  8667.8545   1.45807e-17 
  8669.0576   1.74186e-17 
  8670.2598   1.56105e-17 
  8671.4629   1.87182e-17 
   8672.666    1.5557e-17 
  8673.8691   1.58705e-17 
  8675.0723   1.73387e-17 
  8676.2744   1.86354e-17 
  8677.4775    1.6927e-17 
  8678.6807    1.8511e-17 
  8679.8838   1.57084e-17 
  8681.0869   1.78816e-17 
    8682.29   1.84182e-17 
  8683.4922   1.89439e-17 
  8684.6953   1.89205e-17 
  8685.8984   1.91745e-17 
  8687.1016   1.75394e-17 
  8688.3047   1.30636e-17 
  8689.5068   1.47856e-17 
    8690.71   1.66322e-17 
  8691.9131   1.71442e-17 
  8693.1162   1.37433e-17 
  8694.3193   1.68618e-17 
  8695.5215   1.71799e-17 
  8696.7246   1.88763e-17 
  8697.9277   1.50996e-17 
  8699.1309   1.69069e-17 
   8700.334   1.78822e-17 
  8701.5361   1.66817e-17 
  8702.7393   1.83576e-17 
  8703.9424   1.69534e-17 
  8705.1455   1.61532e-17 
  8706.3477   1.41344e-17 
  8707.5508   1.48027e-17 
  8708.7539   1.85321e-17 
   8709.957   1.66089e-17 
  8711.1592   1.63693e-17 
  8712.3623   1.35783e-17 
  8713.5654   1.75484e-17 
  8714.7686   1.82032e-17 
  8715.9707   1.52274e-17 
  8717.1738   1.64115e-17 
   8718.377   1.44614e-17 
  8719.5801   1.39231e-17 
  8720.7822   1.74552e-17 
  8721.9854   1.91422e-17 
  8723.1885   1.85304e-17 
  8724.3906   1.46098e-17 
  8725.5938   1.44282e-17 
  8726.7969   1.65215e-17 
     8728.0   2.09258e-17 
  8729.2021   1.55436e-17 
  8730.4053   1.46238e-17 
  8731.6084   1.55432e-17 
  8732.8105   1.82894e-17 
  8734.0137   1.56946e-17 
  8735.2168    1.5016e-17 
  8736.4199   1.70669e-17 
  8737.6221   1.53762e-17 
  8738.8252   1.61781e-17 
  8740.0283   1.52744e-17 
  8741.2305   1.42143e-17 
  8742.4336   1.31626e-17 
  8743.6367   1.33732e-17 
  8744.8389   1.50961e-17 
   8746.042   1.51088e-17 
  8747.2451   1.40312e-17 
  8748.4473   1.74193e-17 
  8749.6504   1.50188e-17 
  8750.8535   1.42132e-17 
  8752.0557   1.46353e-17 
  8753.2588   1.80559e-17 
  8754.4619   1.66269e-17 
  8755.6641   1.48242e-17 
  8756.8672    1.6836e-17 
  8758.0693   1.77277e-17 
  8759.2725   1.59193e-17 
  8760.4756   1.43964e-17 
  8761.6777   2.15346e-17 
  8762.8809   1.15011e-17 
   8764.084   1.67991e-17 
  8765.2861   1.24174e-17 
  8766.4893   2.30978e-17 
  8767.6924   1.54582e-17 
  8768.8945   1.82785e-17 
  8770.0977   1.75577e-17 
  8771.2998   1.35843e-17 
  8772.5029   1.52294e-17 
  8773.7051   1.82153e-17 
  8774.9082   1.69688e-17 
  8776.1113   1.28537e-17 
  8777.3135   1.35063e-17 
  8778.5166   1.35967e-17 
  8779.7188   2.06897e-17 
  8780.9219   1.53965e-17 
   8782.124    1.4789e-17 
  8783.3271   1.58668e-17 
  8784.5303   1.60577e-17 
  8785.7324   1.58013e-17 
  8786.9355   1.34562e-17 
  8788.1377   1.52704e-17 
  8789.3408    2.0259e-17 
   8790.543   1.76773e-17 
  8791.7461   1.72981e-17 
  8792.9482   1.14308e-17 
  8794.1514   1.67701e-17 
  8795.3535   1.75615e-17 
  8796.5566   1.41403e-17 
  8797.7588   1.73497e-17 
  8798.9619   1.60559e-17 
  8800.1641   1.56298e-17 
  8801.3672   1.80151e-17 
  8802.5693   1.79158e-17 
  8803.7725   1.69811e-17 
  8804.9746   1.71041e-17 
  8806.1777    1.5028e-17 
  8807.3799   1.92106e-17 
   8808.583   1.53924e-17 
  8809.7852   1.56491e-17 
  8810.9883   1.75124e-17 
  8812.1904   1.63088e-17 
  8813.3936   1.62732e-17 
  8814.5957   1.76567e-17 
  8815.7979   1.87736e-17 
   8817.001   1.65881e-17 
  8818.2031   1.40131e-17 
  8819.4062   1.68533e-17 
  8820.6084    1.4372e-17 
  8821.8115   1.97522e-17 
  8823.0137   1.71035e-17 
  8824.2158   1.45162e-17 
  8825.4189    1.4054e-17 
  8826.6211   1.13485e-17 
  8827.8242   1.19933e-17 
  8829.0264   1.92241e-17 
  8830.2285    1.8511e-17 
  8831.4316   1.44301e-17 
  8832.6338    1.9479e-17 
  8833.8369   1.31895e-17 
  8835.0391   1.77326e-17 
  8836.2412   1.76918e-17 
  8837.4443   1.55808e-17 
  8838.6465   1.62494e-17 
  8839.8486   1.87696e-17 
  8841.0518   1.35993e-17 
  8842.2539   1.33614e-17 
  8843.4561   1.52897e-17 
  8844.6592   1.87205e-17 
  8845.8613   1.65974e-17 
  8847.0635   1.88114e-17 
  8848.2666   1.73561e-17 
  8849.4688   1.60096e-17 
  8850.6709   1.68403e-17 
   8851.873   1.74872e-17 
  8853.0762   1.75349e-17 
  8854.2783   1.57489e-17 
  8855.4805   1.87607e-17 
  8856.6836   1.64673e-17 
  8857.8857   1.61578e-17 
  8859.0879   1.59746e-17 
    8860.29   1.63025e-17 
  8861.4932   1.65822e-17 
  8862.6953   1.77904e-17 
  8863.8975   1.54319e-17 
  8865.0996    1.2509e-17 
  8866.3027   1.36718e-17 
  8867.5049   1.43777e-17 
   8868.707   9.06987e-18 
  8869.9092   1.72481e-17 
  8871.1113   1.62784e-17 
  8872.3145   1.75829e-17 
  8873.5166   1.64544e-17 
  8874.7188   1.57632e-17 
  8875.9209   1.46273e-17 
   8877.123   1.49517e-17 
  8878.3262    1.9227e-17 
  8879.5283    1.4834e-17 
  8880.7305   1.77172e-17 
  8881.9326   1.78828e-17 
  8883.1348   1.30464e-17 
  8884.3369   2.10939e-17 
  8885.5391   2.32488e-17 
  8886.7422   1.27575e-17 
  8887.9443   1.66292e-17 
  8889.1465   1.45014e-17 
  8890.3486   1.68117e-17 
  8891.5508   1.74808e-17 
  8892.7529   1.58732e-17 
  8893.9551   1.45522e-17 
  8895.1572   1.67463e-17 
  8896.3594   1.67446e-17 
  8897.5625   1.76214e-17 
  8898.7646   1.65098e-17 
  8899.9668   1.47985e-17 
  8901.1689   1.85217e-17 
  8902.3711   1.34138e-17 
  8903.5732   1.97424e-17 
  8904.7754   1.64674e-17 
  8905.9775   1.90642e-17 
  8907.1797   1.53483e-17 
  8908.3818   1.61376e-17 
   8909.584   1.46443e-17 
  8910.7861   1.54139e-17 
  8911.9883   1.46142e-17 
  8913.1904   1.52232e-17 
  8914.3926   1.49189e-17 
  8915.5947   1.44447e-17 
  8916.7969   2.33378e-17 
   8917.999   1.52698e-17 
  8919.2012   1.45625e-17 
  8920.4033   2.59771e-17 
  8921.6055   1.77411e-17 
  8922.8076   2.59105e-17 
  8924.0098   1.02776e-17 
  8925.2119   1.76979e-17 
  8926.4141   1.23483e-17 
  8927.6152   1.59112e-17 
  8928.8174   1.57274e-17 
  8930.0195   1.44887e-17 
  8931.2217   1.51906e-17 
  8932.4238   1.36999e-17 
   8933.626   1.50177e-17 
  8934.8281   1.62253e-17 
  8936.0303   1.57982e-17 
  8937.2324    1.3427e-17 
  8938.4336   1.61679e-17 
  8939.6357   1.49353e-17 
  8940.8379    1.4778e-17 
    8942.04   2.01469e-17 
  8943.2422   1.77295e-17 
  8944.4443   1.49596e-17 
  8945.6455   1.98858e-17 
  8946.8477   1.43943e-17 
  8948.0498   1.67996e-17 
   8949.252   2.22364e-17 
  8950.4541   2.68567e-17 
  8951.6553   3.01413e-17 
  8952.8574   3.14096e-17 
  8954.0596   2.85923e-17 
  8955.2617     2.702e-17 
  8956.4629   2.06172e-17 
   8957.665   1.19045e-17 
  8958.8672    2.0633e-17 
  8960.0693   1.88156e-17 
  8961.2705   1.26504e-17 
  8962.4727   1.40136e-17 
  8963.6748    1.5319e-17 
   8964.877   1.56844e-17 
  8966.0781    1.4339e-17 
  8967.2803   1.73694e-17 
  8968.4824   1.43858e-17 
  8969.6836   1.66939e-17 
  8970.8857   1.82724e-17 
  8972.0879   1.48287e-17 
  8973.2891   1.42241e-17 
  8974.4912   1.35914e-17 
  8975.6934   1.66312e-17 
  8976.8945   1.56841e-17 
  8978.0967   1.60664e-17 
  8979.2979   1.68456e-17 
     8980.5   1.97532e-17 
  8981.7021   1.51595e-17 
  8982.9033   1.66844e-17 
  8984.1055   1.34938e-17 
  8985.3066   1.72009e-17 
  8986.5088    1.5293e-17 
    8987.71   1.74812e-17 
  8988.9121   2.01404e-17 
  8990.1143   1.57993e-17 
  8991.3154   1.71902e-17 
  8992.5176   1.58564e-17 
  8993.7188   1.57162e-17 
  8994.9209   1.49488e-17 
  8996.1221   1.62817e-17 
  8997.3242   1.35832e-17 
  8998.5254   1.24262e-17 
  8999.7275   1.87098e-17 
  9000.9287   1.46532e-17 
  9002.1309   1.44454e-17 
   9003.332   1.34593e-17 
  9004.5332   1.19026e-17 
  9005.7354   1.01506e-17 
  9006.9365   1.73929e-17 
  9008.1387    1.3137e-17 
  9009.3398   1.46575e-17 
   9010.542   1.60273e-17 
  9011.7432   1.61502e-17 
  9012.9443    1.3936e-17 
  9014.1465   1.56766e-17 
  9015.3477   1.50934e-17 
  9016.5488   1.52682e-17 
   9017.751   1.57978e-17 
  9018.9521   1.74933e-17 
  9020.1533   1.46734e-17 
  9021.3555   1.43983e-17 
  9022.5566   1.74853e-17 
  9023.7578   1.57343e-17 
    9024.96   1.58171e-17 
  9026.1611   1.59461e-17 
  9027.3623   1.51155e-17 
  9028.5645   1.31304e-17 
  9029.7656   1.76842e-17 
  9030.9668   1.48998e-17 
   9032.168   1.36242e-17 
  9033.3701   1.53501e-17 
  9034.5713   1.52226e-17 
  9035.7725   1.52697e-17 
  9036.9736   1.45462e-17 
  9038.1758   1.62866e-17 
   9039.377   1.28973e-17 
  9040.5781   1.37745e-17 
  9041.7793   1.54663e-17 
  9042.9805   1.52826e-17 
  9044.1826   1.33625e-17 
  9045.3838   1.26356e-17 
   9046.585   1.49524e-17 
  9047.7861   1.56424e-17 
  9048.9873   1.58822e-17 
  9050.1885   1.57989e-17 
  9051.3896   1.81148e-17 
  9052.5908   1.83705e-17 
   9053.793   1.53855e-17 
  9054.9941   1.53943e-17 
  9056.1953    1.2425e-17 
  9057.3965   1.38913e-17 
  9058.5977   1.35448e-17 
  9059.7988   1.81237e-17 
     9061.0   1.51683e-17 
  9062.2012   1.46107e-17 
  9063.4023   1.72258e-17 
  9064.6035   1.87719e-17 
  9065.8047   1.69832e-17 
  9067.0059   1.47857e-17 
   9068.207   1.15511e-17 
  9069.4082   1.42017e-17 
  9070.6094   1.62679e-17 
  9071.8105   1.57838e-17 
  9073.0117   1.54064e-17 
  9074.2129   1.41036e-17 
  9075.4141   1.36715e-17 
  9076.6152   1.30136e-17 
  9077.8164   1.37707e-17 
  9079.0176   1.63275e-17 
  9080.2178   1.24118e-17 
  9081.4189   1.52558e-17 
  9082.6201   1.53157e-17 
  9083.8213    1.1727e-17 
  9085.0225   1.35453e-17 
  9086.2236   1.30519e-17 
  9087.4248   1.88794e-17 
   9088.625   1.48809e-17 
  9089.8262   1.64052e-17 
  9091.0273   1.54059e-17 
  9092.2285   1.37613e-17 
  9093.4297   1.08437e-17 
  9094.6299   1.53395e-17 
  9095.8311   1.44081e-17 
  9097.0322   1.43102e-17 
  9098.2334   1.46903e-17 
  9099.4346   1.41891e-17 
  9100.6348   1.34115e-17 
  9101.8359   1.30129e-17 
  9103.0371   1.42374e-17 
  9104.2373   1.15642e-17 
  9105.4385   1.43228e-17 
  9106.6396   1.71883e-17 
  9107.8398     1.321e-17 
   9109.041   1.35316e-17 
  9110.2422   1.41265e-17 
  9111.4424   1.53913e-17 
  9112.6436   1.32297e-17 
  9113.8447   1.47155e-17 
  9115.0449   1.54386e-17 
  9116.2461   1.30394e-17 
  9117.4463   1.51099e-17 
  9118.6475   1.55089e-17 
  9119.8486     1.507e-17 
  9121.0488   1.16094e-17 
    9122.25   1.37266e-17 
  9123.4502     1.654e-17 
  9124.6514   1.41712e-17 
  9125.8516   1.47352e-17 
  9127.0527   1.67723e-17 
  9128.2529   1.54593e-17 
  9129.4541   1.34222e-17 
  9130.6543   1.59591e-17 
  9131.8555   1.39418e-17 
  9133.0557   1.43537e-17 
  9134.2568   1.56075e-17 
   9135.457   1.48468e-17 
  9136.6582    1.5098e-17 
  9137.8584   1.27926e-17 
  9139.0586   1.46679e-17 
  9140.2598   1.50104e-17 
    9141.46   1.48689e-17 
  9142.6611   1.42858e-17 
  9143.8613    1.3352e-17 
  9145.0615   1.52785e-17 
  9146.2627   1.41142e-17 
  9147.4629   1.61584e-17 
  9148.6631   1.45495e-17 
  9149.8643   1.61147e-17 
  9151.0645    1.4622e-17 
  9152.2646   1.45411e-17 
  9153.4658   1.40246e-17 
   9154.666   1.54076e-17 
  9155.8662   1.21042e-17 
  9157.0664   1.47308e-17 
  9158.2676   1.33094e-17 
  9159.4678   1.36809e-17 
   9160.668   1.44809e-17 
  9161.8682   1.65894e-17 
  9163.0684   1.28766e-17 
  9164.2695   1.57412e-17 
  9165.4697   1.55815e-17 
  9166.6699   1.56693e-17 
  9167.8701   1.57119e-17 
  9169.0703    1.5982e-17 
  9170.2705   1.64383e-17 
  9171.4717   1.40842e-17 
  9172.6719    1.5282e-17 
  9173.8721   1.37863e-17 
  9175.0723   1.51213e-17 
  9176.2725   1.44585e-17 
  9177.4727   1.41971e-17 
  9178.6729   1.69054e-17 
   9179.873   1.47323e-17 
  9181.0732    1.6357e-17 
  9182.2734   1.69131e-17 
  9183.4736   1.82476e-17 
  9184.6738   1.71763e-17 
   9185.874   1.49103e-17 
  9187.0742   1.41876e-17 
  9188.2744   1.36284e-17 
  9189.4746   1.26453e-17 
  9190.6748   1.39847e-17 
   9191.875   1.63657e-17 
  9193.0752   1.52782e-17 
  9194.2754   1.35462e-17 
  9195.4756   1.51413e-17 
  9196.6748    1.2444e-17 
   9197.875   1.60184e-17 
  9199.0752   1.49772e-17 
  9200.2754   1.51293e-17 
  9201.4756   1.38342e-17 
  9202.6758   1.43352e-17 
   9203.876   1.70196e-17 
  9205.0752   1.58237e-17 
  9206.2754   1.55003e-17 
  9207.4756   1.39383e-17 
  9208.6758   1.65407e-17 
   9209.875   1.45985e-17 
  9211.0752    1.4898e-17 
  9212.2754   1.57183e-17 
  9213.4756   1.59994e-17 
  9214.6748   1.60248e-17 
   9215.875   1.62936e-17 
  9217.0752   1.52404e-17 
  9218.2744   1.57182e-17 
  9219.4746   1.30859e-17 
  9220.6748   1.18703e-17 
   9221.874   1.48835e-17 
  9223.0742   1.48554e-17 
  9224.2744   1.43605e-17 
  9225.4736   1.60941e-17 
  9226.6738   1.35678e-17 
   9227.873   1.42779e-17 
  9229.0732   1.50066e-17 
  9230.2734   1.44405e-17 
  9231.4727   1.53012e-17 
  9232.6729   1.72903e-17 
  9233.8721   1.61368e-17 
  9235.0723   1.38357e-17 
  9236.2715   1.45292e-17 
  9237.4717   1.35314e-17 
  9238.6709   1.55042e-17 
  9239.8711   1.13986e-17 
  9241.0703   1.49087e-17 
  9242.2695    1.3954e-17 
  9243.4697   1.61398e-17 
  9244.6689   1.43585e-17 
  9245.8691   1.12721e-17 
  9247.0684    1.3346e-17 
  9248.2676   1.53374e-17 
  9249.4678   1.18711e-17 
   9250.667    1.5259e-17 
  9251.8672   1.30782e-17 
  9253.0664   1.62074e-17 
  9254.2656   1.41384e-17 
  9255.4648   1.59766e-17 
   9256.665   1.37545e-17 
  9257.8643   1.26054e-17 
  9259.0635   1.55893e-17 
  9260.2637   1.38208e-17 
  9261.4629    1.4935e-17 
  9262.6621   1.27945e-17 
  9263.8613   1.27784e-17 
  9265.0605   1.22845e-17 
  9266.2607   1.67563e-17 
    9267.46    1.7982e-17 
  9268.6592   1.64694e-17 
  9269.8584   1.53755e-17 
  9271.0576   1.44259e-17 
  9272.2568     1.328e-17 
  9273.4561   1.48727e-17 
  9274.6562   1.29005e-17 
  9275.8555   1.36378e-17 
  9277.0547   1.78803e-17 
  9278.2539   1.66685e-17 
  9279.4531   1.43501e-17 
  9280.6523   1.15544e-17 
  9281.8516   1.21478e-17 
  9283.0508   1.32707e-17 
    9284.25   1.24352e-17 
  9285.4492   1.50874e-17 
  9286.6484   1.45501e-17 
  9287.8477   1.35007e-17 
  9289.0469    1.4524e-17 
  9290.2461   1.33508e-17 
  9291.4453   1.28233e-17 
  9292.6445   1.49728e-17 
  9293.8438   1.64888e-17 
   9295.042   1.48107e-17 
  9296.2412   1.67678e-17 
  9297.4404   1.42762e-17 
  9298.6396   1.47101e-17 
  9299.8389   1.44877e-17 
  9301.0381   1.44678e-17 
  9302.2363   1.56055e-17 
  9303.4355   1.42507e-17 
  9304.6348   1.98181e-17 
   9305.834    2.5216e-17 
  9307.0322   1.85214e-17 
  9308.2314   1.54713e-17 
  9309.4307   1.36801e-17 
  9310.6299   2.06556e-17 
  9311.8281   1.21723e-17 
  9313.0273   7.11442e-18 
  9314.2266   1.46806e-17 
  9315.4248   1.76799e-17 
   9316.624   1.64041e-17 
  9317.8232   1.14423e-17 
  9319.0215   1.38147e-17 
  9320.2207   9.89954e-18 
  9321.4199   1.96505e-17 
  9322.6182   1.09372e-17 
  9323.8174   1.22831e-17 
  9325.0156   2.10895e-17 
  9326.2148   2.09325e-17 
  9327.4131   1.36402e-17 
  9328.6123   1.49506e-17 
  9329.8105   1.57471e-17 
  9331.0098   9.94745e-18 
   9332.208    1.2257e-17 
  9333.4072   1.26163e-17 
  9334.6055   1.02174e-17 
  9335.8047   1.44191e-17 
  9337.0029   1.89785e-17 
  9338.2012   1.18176e-17 
  9339.4004   1.41603e-17 
  9340.5986   1.22637e-17 
  9341.7979   1.66392e-17 
  9342.9961   1.95701e-17 
  9344.1943   1.15575e-17 
  9345.3936   1.48796e-17 
  9346.5918   1.59996e-17 
    9347.79    1.7445e-17 
  9348.9883   1.40331e-17 
  9350.1875   9.40042e-18 
  9351.3857   1.72387e-17 
   9352.584   1.54152e-17 
  9353.7822   1.64614e-17 
  9354.9814   1.31208e-17 
  9356.1797   1.46602e-17 
  9357.3779    1.4643e-17 
  9358.5762   1.66827e-17 
  9359.7744   1.28817e-17 
  9360.9736   8.76999e-18 
  9362.1719   1.40428e-17 
  9363.3701   1.50349e-17 
  9364.5684    1.2039e-17 
  9365.7666    1.4166e-17 
  9366.9648   1.46739e-17 
  9368.1631   1.38461e-17 
  9369.3613   1.49061e-17 
  9370.5596   1.39002e-17 
  9371.7578   1.30752e-17 
  9372.9561    1.8002e-17 
  9374.1543   1.78816e-17 
  9375.3525   2.56156e-17 
  9376.5508   3.59448e-17 
   9377.749   1.64538e-17 
  9378.9473   8.71039e-18 
  9380.1455   4.27614e-18 
  9381.3438   1.11273e-17 
   9382.542   9.50879e-18 
  9383.7402   1.39856e-17 
  9384.9375   9.39633e-18 
  9386.1357    1.5562e-17 
   9387.334   1.25503e-17 
  9388.5322   1.64686e-17 
  9389.7305   1.20671e-17 
  9390.9287   1.31216e-17 
   9392.126   1.57121e-17 
  9393.3242   1.50857e-17 
  9394.5225   1.17916e-17 
  9395.7207   1.82169e-17 
   9396.918   1.50443e-17 
  9398.1162   1.18251e-17 
  9399.3145   1.40392e-17 
  9400.5117   1.73586e-17 
    9401.71   1.85242e-17 
  9402.9082   1.66546e-17 
  9404.1055   8.85244e-18 
  9405.3037   1.01232e-17 
   9406.501   1.20585e-17 
  9407.6992   1.42611e-17 
  9408.8975   1.54274e-17 
  9410.0947   1.29774e-17 
   9411.293   1.59486e-17 
  9412.4902   1.29456e-17 
  9413.6885   1.35135e-17 
  9414.8857   1.27401e-17 
   9416.084   1.62776e-17 
  9417.2812   1.46868e-17 
  9418.4795   1.44107e-17 
  9419.6768   2.24447e-17 
   9420.875   2.08941e-17 
  9422.0723   1.25024e-17 
  9423.2695   1.55216e-17 
  9424.4678    1.5149e-17 
   9425.665   1.42429e-17 
  9426.8623   1.54611e-17 
  9428.0605   1.41062e-17 
  9429.2578   1.62564e-17 
  9430.4551   1.46402e-17 
  9431.6533   1.44962e-17 
  9432.8506   1.32832e-17 
  9434.0479   1.65245e-17 
  9435.2451   1.58883e-17 
  9436.4434   1.41037e-17 
  9437.6406   3.12846e-17 
  9438.8379   1.60901e-17 
  9440.0352   1.72176e-17 
  9441.2324   9.13658e-18 
  9442.4307    1.7589e-17 
  9443.6279   1.08843e-17 
  9444.8252   1.43285e-17 
  9446.0225   1.12212e-17 
  9447.2197   1.55356e-17 
   9448.417   1.37548e-17 
  9449.6143   1.76592e-17 
  9450.8115   1.53154e-17 
  9452.0088   1.34047e-17 
  9453.2061   1.37529e-17 
  9454.4033   1.74999e-17 
  9455.6006   1.15248e-17 
  9456.7979    2.0606e-17 
  9457.9951   1.04928e-17 
  9459.1924   1.99663e-17 
  9460.3896   2.15517e-17 
  9461.5869   1.47408e-17 
  9462.7842   8.49394e-18 
  9463.9814   1.62417e-17 
  9465.1787   1.82895e-17 
   9466.376   1.37243e-17 
  9467.5723   1.38805e-17 
  9468.7695   1.47846e-17 
  9469.9668   1.26297e-17 
  9471.1641   1.40827e-17 
  9472.3613   1.60007e-17 
  9473.5576   1.61789e-17 
  9474.7549   1.11402e-17 
  9475.9521   2.36707e-17 
  9477.1494   8.70291e-18 
  9478.3457   1.25288e-17 
   9479.543   2.17409e-17 
  9480.7402   1.68113e-17 
  9481.9365   1.45849e-17 
  9483.1338   1.24691e-17 
  9484.3311   1.49573e-17 
  9485.5273   1.38744e-17 
  9486.7246   1.44847e-17 
  9487.9209   1.75554e-17 
  9489.1182   1.48295e-17 
  9490.3145   1.71696e-17 
  9491.5117   1.41303e-17 
   9492.708   1.49391e-17 
  9493.9053   1.24014e-17 
  9495.1016   1.30533e-17 
  9496.2988   1.30806e-17 
  9497.4951   1.33072e-17 
  9498.6924   1.66332e-17 
  9499.8887   1.73296e-17 
  9501.0859   9.88995e-18 
  9502.2822   1.39884e-17 
  9503.4785   1.27621e-17 
  9504.6758   1.89136e-17 
  9505.8721    1.2539e-17 
  9507.0684   1.07333e-17 
  9508.2656   1.45167e-17 
  9509.4619    1.4684e-17 
  9510.6582   1.43875e-17 
  9511.8545   1.58535e-17 
  9513.0518   1.60615e-17 
   9514.248   1.38523e-17 
  9515.4443   1.36412e-17 
  9516.6406   2.86103e-17 
  9517.8369   1.86853e-17 
  9519.0342   1.16989e-17 
  9520.2305   1.25351e-17 
  9521.4268    1.5737e-17 
   9522.623   1.58629e-17 
  9523.8193    9.9524e-18 
  9525.0156   1.11191e-17 
  9526.2119   1.76421e-17 
  9527.4082   1.68406e-17 
  9528.6045   1.61811e-17 
  9529.8008   1.31327e-17 
  9530.9971   1.63939e-17 
  9532.1934   1.36942e-17 
  9533.3896   1.08769e-17 
  9534.5859    1.6016e-17 
  9535.7822   1.75778e-17 
  9536.9785    1.2847e-17 
  9538.1748   1.22406e-17 
  9539.3711   1.28685e-17 
  9540.5674   1.88803e-17 
  9541.7637   1.65578e-17 
    9542.96   1.12831e-17 
  9544.1553   1.72854e-17 
  9545.3516   1.30766e-17 
  9546.5479   1.38426e-17 
  9547.7441   1.24157e-17 
  9548.9395   1.24669e-17 
  9550.1357   1.49405e-17 
   9551.332    1.6692e-17 
  9552.5283   8.74469e-18 
  9553.7236   1.42484e-17 
  9554.9199   1.53491e-17 
  9556.1162   5.07208e-18 
  9557.3115   1.24154e-17 
  9558.5078   1.33764e-17 
  9559.7041   1.51523e-17 
  9560.8994   1.63834e-17 
  9562.0957   1.41637e-17 
   9563.291   1.35121e-17 
  9564.4873   1.68002e-17 
  9565.6826   1.46788e-17 
  9566.8789    1.8915e-17 
  9568.0742   1.33644e-17 
  9569.2705   1.69412e-17 
  9570.4658   1.48114e-17 
  9571.6621   1.01822e-17 
  9572.8574   1.27075e-17 
  9574.0537   1.37943e-17 
   9575.249   1.49411e-17 
  9576.4443    1.5465e-17 
  9577.6406    1.4225e-17 
  9578.8359   1.58326e-17 
  9580.0312   1.26982e-17 
  9581.2275   1.31009e-17 
  9582.4229   1.54835e-17 
  9583.6182   1.22807e-17 
  9584.8145   1.70391e-17 
  9586.0098    1.1011e-17 
  9587.2051   1.26558e-17 
  9588.4004   1.42293e-17 
  9589.5967    1.6926e-17 
   9590.792   1.46533e-17 
  9591.9873   1.49513e-17 
  9593.1826   1.41431e-17 
  9594.3779    1.3226e-17 
  9595.5732   1.36184e-17 
  9596.7686   1.47968e-17 
  9597.9639   1.78708e-17 
  9599.1602   1.44302e-17 
  9600.3555    1.4433e-17 
  9601.5508   1.61924e-17 
  9602.7461   1.46344e-17 
  9603.9414   1.42386e-17 
  9605.1367   1.50812e-17 
   9606.332   1.26702e-17 
  9607.5273   1.43166e-17 
  9608.7217   2.05449e-17 
   9609.917   1.21346e-17 
  9611.1123   1.44358e-17 
  9612.3076   1.19634e-17 
  9613.5029   1.23446e-17 
  9614.6982   1.49869e-17 
  9615.8936   1.03023e-17 
  9617.0889   1.42336e-17 
  9618.2832   1.62726e-17 
  9619.4785   1.15582e-17 
  9620.6738   1.67485e-17 
  9621.8691   1.85252e-17 
  9623.0635   1.16208e-17 
  9624.2588   1.18587e-17 
  9625.4541   1.46733e-17 
  9626.6484   1.37889e-17 
  9627.8438   7.96636e-18 
  9629.0391   1.23225e-17 
  9630.2334   1.24568e-17 
  9631.4287      1.31e-17 
   9632.624   1.23677e-17 
  9633.8184   1.27629e-17 
  9635.0137   1.53572e-17 
   9636.208    1.2118e-17 
  9637.4033   1.26764e-17 
  9638.5977   1.21763e-17 
   9639.793   1.33029e-17 
  9640.9873   1.20149e-17 
  9642.1826   1.31642e-17 
   9643.377   1.31941e-17 
  9644.5723   1.29997e-17 
  9645.7666   1.19751e-17 
  9646.9609   1.51139e-17 
  9648.1562   1.02911e-17 
  9649.3506   1.19623e-17 
  9650.5449   1.22454e-17 
  9651.7402   1.16988e-17 
  9652.9346   9.04012e-18 
  9654.1289    1.6007e-17 
  9655.3242   1.43494e-17 
  9656.5186    1.3252e-17 
  9657.7129   1.48723e-17 
  9658.9072   1.23519e-17 
  9660.1016   1.17943e-17 
  9661.2969   1.25952e-17 
  9662.4912   1.33118e-17 
  9663.6855   1.15472e-17 
  9664.8799   1.07933e-17 
  9666.0742    8.9842e-18 
  9667.2686   1.40249e-17 
  9668.4629   9.51861e-18 
  9669.6572   1.55715e-17 
  9670.8516   1.19091e-17 
  9672.0469   9.32471e-18 
  9673.2402   9.72067e-18 
  9674.4355   1.08444e-17 
  9675.6299   1.18639e-17 
  9676.8232    1.1637e-17 
  9678.0176   1.55839e-17 
  9679.2119   1.10844e-17 
  9680.4062   8.75261e-18 
  9681.6006   1.06872e-17 
  9682.7949   1.59501e-17 
  9683.9893   1.07744e-17 
  9685.1836   8.77842e-18 
   9686.377   1.72342e-17 
  9687.5713   1.26525e-17 
  9688.7656   1.31047e-17 
    9689.96   1.33005e-17 
  9691.1543   1.18607e-17 
  9692.3477   1.22402e-17 
   9693.542    1.3832e-17 
  9694.7363   1.17513e-17 
  9695.9297   1.28312e-17 
   9697.124   9.02444e-18 
  9698.3184   1.37892e-17 
  9699.5117   1.78293e-17 
  9700.7061   9.18411e-18 
  9701.8994   1.53635e-17 
  9703.0938   6.24346e-18 
  9704.2881   9.61962e-18 
  9705.4814   1.21567e-17 
  9706.6758   1.30349e-17 
  9707.8691    1.7105e-17 
  9709.0635   1.31477e-17 
  9710.2568   1.27742e-17 
  9711.4512   1.58299e-17 
  9712.6445    1.2624e-17 
  9713.8379   1.39967e-17 
  9715.0322   1.06525e-17 
  9716.2256   1.47811e-17 
  9717.4199   1.45777e-17 
  9718.6133   1.68846e-17 
  9719.8066   8.59971e-18 
   9721.001   1.79399e-17 
  9722.1943   1.72715e-17 
  9723.3877   8.31885e-18 
  9724.5811   1.00062e-17 
  9725.7754   1.46545e-17 
  9726.9688   1.44025e-17 
  9728.1621   1.47826e-17 
  9729.3555   1.25481e-17 
  9730.5488   1.33894e-17 
  9731.7432   1.23396e-17 
  9732.9365   1.03067e-17 
  9734.1299   9.92746e-18 
  9735.3232   1.89205e-17 
  9736.5166   1.52971e-17 
    9737.71   1.32203e-17 
  9738.9033   1.41487e-17 
  9740.0967   1.56578e-17 
    9741.29   1.31509e-17 
  9742.4834   9.54455e-18 
  9743.6768   1.04536e-17 
  9744.8701   1.31569e-17 
  9746.0635   1.53981e-17 
  9747.2568   1.58279e-17 
  9748.4502   1.05239e-17 
  9749.6436   9.22577e-18 
  9750.8369   1.24435e-17 
  9752.0293   1.30424e-17 
  9753.2227   1.01134e-17 
   9754.416   1.24698e-17 
  9755.6094   1.21043e-17 
  9756.8027   1.12677e-17 
  9757.9951    1.1836e-17 
  9759.1885   1.02879e-17 
  9760.3818   1.43764e-17 
  9761.5752   1.23126e-17 
  9762.7676     1.322e-17 
  9763.9609   9.51357e-18 
  9765.1543    1.2686e-17 
  9766.3467   1.64585e-17 
    9767.54    1.4348e-17 
  9768.7324   1.33708e-17 
  9769.9258   1.49781e-17 
  9771.1191   9.40265e-18 
  9772.3115    1.3416e-17 
  9773.5049   1.09237e-17 
  9774.6973   1.38794e-17 
  9775.8906   1.17739e-17 
   9777.083   1.38819e-17 
  9778.2764   1.23736e-17 
  9779.4688   1.57994e-17 
  9780.6621   1.15689e-17 
  9781.8545   1.08349e-17 
  9783.0469   1.16544e-17 
  9784.2402   1.23664e-17 
  9785.4326   1.29796e-17 
   9786.625    1.1155e-17 
  9787.8184   1.61064e-17 
  9789.0107   1.00225e-17 
  9790.2031   2.18751e-17 
  9791.3965   1.76903e-17 
  9792.5889   1.22072e-17 
  9793.7812   9.67391e-18 
  9794.9736   1.16456e-17 
   9796.166   1.10815e-17 
  9797.3594   1.30836e-17 
  9798.5518   7.28101e-18 
  9799.7441   8.80379e-18 
  9800.9365   1.00459e-17 
  9802.1289   1.74921e-17 
  9803.3213   1.17742e-17 
  9804.5137   1.08926e-17 
  9805.7061   1.33346e-17 
  9806.8984   8.51713e-18 
  9808.0908    1.3851e-17 
  9809.2842   1.55562e-17 
  9810.4756   1.30063e-17 
   9811.668   1.28941e-17 
  9812.8604   1.17728e-17 
  9814.0527   1.94587e-17 
  9815.2451   1.51957e-17 
  9816.4375   9.89695e-18 
  9817.6299    1.4558e-17 
  9818.8223   1.42483e-17 
  9820.0146    1.4653e-17 
  9821.2061   1.47671e-17 
  9822.3984   1.45605e-17 
  9823.5908   1.64385e-17 
  9824.7832   1.27866e-17 
  9825.9756   1.19341e-17 
   9827.167   1.46442e-17 
  9828.3594   1.01866e-17 
  9829.5518   1.41672e-17 
  9830.7432   1.10047e-17 
  9831.9355   1.06823e-17 
  9833.1279   1.25738e-17 
  9834.3193    1.2348e-17 
  9835.5117   1.21602e-17 
  9836.7041   1.28089e-17 
  9837.8955   1.32175e-17 
  9839.0879   1.62823e-17 
  9840.2793   1.26744e-17 
  9841.4717   9.65831e-18 
  9842.6631   1.54958e-17 
  9843.8555   8.57268e-18 
  9845.0469   1.39736e-17 
  9846.2393   1.78481e-17 
  9847.4307   1.39735e-17 
  9848.6221   1.48811e-17 
  9849.8145   1.49077e-17 
  9851.0059   5.79188e-18 
  9852.1982   9.21593e-18 
  9853.3896   1.62346e-17 
  9854.5811   1.35425e-17 
  9855.7734   1.30035e-17 
  9856.9648   1.05142e-17 
  9858.1562   1.92369e-17 
  9859.3477   1.23059e-17 
    9860.54   1.56519e-17 
  9861.7314   1.26974e-17 
  9862.9229   1.48166e-17 
  9864.1143   1.44911e-17 
  9865.3057   1.18658e-17 
  9866.4971   1.49799e-17 
  9867.6895   1.50113e-17 
  9868.8809   2.15515e-17 
  9870.0723   2.16699e-17 
  9871.2637   1.23976e-17 
  9872.4551   1.11756e-17 
  9873.6465    1.5584e-17 
  9874.8379   6.03859e-18 
  9876.0293   9.04398e-18 
  9877.2207   1.20903e-17 
  9878.4121   1.11884e-17 
  9879.6035   1.14228e-17 
  9880.7949   1.06001e-17 
  9881.9863   1.56801e-17 
  9883.1777   7.40279e-18 
  9884.3682   1.28483e-17 
  9885.5596   7.98746e-18 
   9886.751   1.43723e-17 
  9887.9424   1.15285e-17 
  9889.1338   1.41659e-17 
  9890.3252   1.45148e-17 
  9891.5156   1.25395e-17 
   9892.707   1.25549e-17 
  9893.8984   1.11579e-17 
  9895.0898   1.43012e-17 
  9896.2803   7.86173e-18 
  9897.4717   1.54542e-17 
  9898.6631    1.1692e-17 
  9899.8535   1.20562e-17 
  9901.0449   1.11783e-17 
  9902.2363   1.29988e-17 
  9903.4268   1.63797e-17 
  9904.6182   1.40585e-17 
  9905.8086   1.73916e-17 
     9907.0   1.28964e-17 
  9908.1904   1.32675e-17 
  9909.3818   8.74335e-18 
  9910.5723   1.50561e-17 
  9911.7637   1.86929e-17 
  9912.9541   1.64234e-17 
  9914.1455   6.56054e-18 
  9915.3359   1.74198e-17 
  9916.5264   1.54716e-17 
  9917.7178   7.82022e-18 
  9918.9082   1.65226e-17 
  9920.0996   1.56683e-17 
    9921.29   1.46105e-17 
  9922.4805   9.68385e-18 
  9923.6719   9.65206e-18 
  9924.8623   9.52189e-18 
  9926.0527    1.2589e-17 
  9927.2432   1.31782e-17 
  9928.4346   1.20371e-17 
   9929.625    1.1845e-17 
  9930.8154   9.14258e-18 
  9932.0059   1.05086e-17 
  9933.1963    1.2222e-17 
  9934.3867   1.30428e-17 
  9935.5771   1.22909e-17 
  9936.7686   1.20377e-17 
   9937.959   9.48828e-18 
  9939.1494   1.79705e-17 
  9940.3398   1.41866e-17 
  9941.5303   6.09028e-18 
  9942.7207    1.0227e-17 
  9943.9111  -4.24493e-19 
  9945.1016   2.71819e-17 
   9946.292   9.36001e-18 
  9947.4824   9.10034e-18 
  9948.6729   6.42925e-18 
  9949.8633   1.28282e-17 
  9951.0527   8.81527e-18 
  9952.2432   1.22911e-17 
  9953.4336   1.56917e-17 
   9954.624   1.39661e-17 
  9955.8145    1.0315e-17 
  9957.0049   7.64031e-18 
  9958.1943   2.75656e-21 
  9959.3848   1.92925e-17 
  9960.5752   8.46553e-18 
  9961.7656   6.51335e-18 
  9962.9551   1.48315e-17 
  9964.1455   9.83449e-18 
  9965.3359   1.43963e-17 
  9966.5254    1.0745e-17 
  9967.7158   1.06304e-17 
  9968.9062   1.07127e-17 
  9970.0957   9.32926e-18 
  9971.2861   1.67615e-17 
  9972.4756   1.09559e-17 
   9973.666   1.61491e-17 
  9974.8564   6.57252e-18 
  9976.0459   1.39621e-17 
  9977.2363   1.76298e-17 
  9978.4258   9.77293e-18 
  9979.6152   1.37271e-17 
  9980.8057   9.57844e-18 
  9981.9951   7.29447e-18 
  9983.1855   1.20152e-17 
   9984.375   1.41713e-17 
  9985.5654   9.44816e-18 
  9986.7549   1.63796e-17 
  9987.9443   1.16867e-17 
  9989.1348   7.54515e-18 
  9990.3242   7.75469e-18 
  9991.5137   1.31379e-17 
  9992.7041   1.06425e-17 
  9993.8936   1.18878e-17 
   9995.083   1.30827e-17 
  9996.2725   1.12534e-17 
  9997.4629   9.51636e-18 
  9998.6523   1.46828e-17 
  9999.8418   1.23982e-17 
  10001.031   1.45004e-17 
  10002.221   9.11244e-18 
  10003.411   1.59376e-17 
    10004.6    1.2093e-17 
   10005.79   1.12898e-17 
  10006.979   1.26907e-17 
  10008.169   1.02218e-17 
  10009.358   1.61046e-17 
  10010.548   2.27545e-17 
  10011.737   2.81865e-18 
  10012.927   1.93535e-17 
  10014.116   3.18094e-17 
  10015.305   1.04161e-17 
  10016.495  -2.65852e-18 
  10017.684   1.67334e-18 
  10018.874   1.80777e-17 
  10020.063   1.67037e-17 
  10021.252   1.60701e-17 
  10022.442   1.18902e-17 
  10023.631   2.00082e-17 
   10024.82   1.69344e-17 
  10026.009   1.79874e-17 
  10027.199    1.5341e-17 
  10028.388   1.80095e-17 
  10029.577   1.14325e-17 
  10030.766    3.9229e-18 
  10031.955   1.29811e-17 
  10033.145   1.21712e-17 
  10034.334   1.07025e-17 
  10035.523   8.84181e-18 
  10036.712   9.33262e-18 
  10037.901   1.42248e-17 
   10039.09   1.73127e-17 
  10040.279   9.99871e-18 
  10041.468   1.31279e-17 
  10042.657   8.48078e-18 
  10043.846   6.36838e-18 
  10045.035   1.63671e-17 
  10046.224   1.29375e-17 
  10047.413   1.10506e-17 
  10048.602   1.10059e-17 
  10049.791   1.23095e-17 
   10050.98   1.14965e-17 
  10052.169   1.14595e-17 
  10053.358   1.30112e-17 
  10054.547   1.59053e-17 
  10055.736   1.15672e-17 
  10056.925   1.56669e-17 
  10058.113   1.11503e-17 
  10059.302   1.13033e-17 
  10060.491   1.56158e-17 
   10061.68   1.64395e-17 
  10062.869   1.08953e-17 
  10064.057   7.88899e-18 
  10065.246   1.32444e-17 
  10066.435    1.7535e-17 
  10067.623   7.94782e-18 
  10068.812    8.0076e-18 
  10070.001   8.02712e-18 
  10071.189   1.62274e-17 
  10072.378   1.63404e-17 
  10073.567   6.22311e-18 
  10074.755   1.19467e-17 
  10075.944   1.54115e-17 
  10077.132   1.56027e-17 
  10078.321   1.12354e-17 
   10079.51   2.02554e-17 
  10080.698   1.46241e-17 
  10081.887   7.48027e-18 
  10083.075   8.94509e-18 
  10084.264   9.80637e-18 
  10085.452   1.81015e-17 
  10086.641   1.04217e-17 
  10087.829   8.37852e-18 
  10089.017   1.39139e-17 
  10090.206   1.30544e-17 
  10091.394   1.41161e-17 
  10092.583   1.24221e-17 
  10093.771   1.38976e-17 
  10094.959   1.63506e-17 
  10096.148   1.31102e-17 
  10097.336   1.01366e-17 
  10098.524   4.76594e-18 
  10099.712   1.30705e-17 
  10100.901   1.12876e-17 
  10102.089   9.01908e-18 
  10103.277   5.81117e-18 
  10104.465   5.64625e-18 
  10105.654   1.76517e-17 
  10106.842   1.70988e-17 
   10108.03   1.79953e-17 
  10109.218    1.2165e-17 
  10110.406   1.30337e-17 
  10111.594    1.4999e-17 
  10112.782   1.38387e-17 
  10113.971   1.04226e-17 
  10115.159   8.61836e-18 
  10116.347   1.08546e-17 
  10117.535   1.37158e-17 
  10118.723   9.59757e-18 
  10119.911   8.76325e-18 
  10121.099   8.32202e-18 
  10122.287  -7.82531e-20 
  10123.475   8.88683e-18 
  10124.663   1.04685e-18 
  10125.851  -5.65414e-18 
  10127.039  -1.07994e-18 
  10128.226   6.83241e-19 
  10129.414   6.76889e-18 
  10130.602   1.02803e-17 
   10131.79   1.35199e-17 
  10132.978   1.10991e-17 
  10134.166   9.93889e-18 
  10135.354    6.6352e-18 
  10136.541   8.90906e-18 
  10137.729   1.06293e-17 
  10138.917   1.02438e-17 
  10140.105   9.62169e-18 
  10141.292   1.21541e-17 
   10142.48   1.01234e-17 
  10143.668   9.99754e-18 
  10144.856   1.67759e-17 
  10146.043   1.20908e-17 
  10147.231   8.82524e-18 
  10148.419   9.97659e-18 
  10149.606   1.63545e-17 
  10150.794   1.68112e-17 
  10151.982   4.42316e-18 
  10153.169   3.74943e-18 
  10154.357    8.4473e-18 
  10155.544   1.86597e-17 
  10156.732   1.67953e-17 
  10157.919   3.29484e-18 
  10159.107   1.84735e-17 
  10160.294   1.30492e-17 
  10161.482   5.87982e-18 
  10162.669   1.02518e-17 
  10163.857   1.07415e-17 
  10165.044   1.83343e-17 
  10166.232   8.05078e-18 
  10167.419   2.44668e-17 
  10168.607   1.31244e-17 
  10169.794   1.38314e-17 
  10170.981   1.35938e-17 
  10172.169   1.21852e-17 
  10173.356   7.62949e-18 
  10174.543   2.01323e-17 
  10175.731   1.46868e-17 
  10176.918   1.28021e-17 
  10178.105   1.75878e-17 
  10179.293   9.39937e-18 
   10180.48   1.62068e-17 
  10181.667    9.6139e-18 
  10182.854   1.38295e-17 
  10184.042  -1.58149e-18 
  10185.229   2.23884e-17 
  10186.416   2.40129e-18 
  10187.603   1.19489e-17 
   10188.79   2.69607e-17 
  10189.978   1.71337e-17 
  10191.165   1.50805e-17 
  10192.352   2.23717e-17 
  10193.539   1.07083e-17 
  10194.726    1.1298e-18 
  10195.913   1.02562e-17 
    10197.1   4.42327e-18 
  10198.287   7.40972e-18 
  10199.474   2.08427e-17 
  10200.661   2.10973e-18 
  10201.849   1.70401e-17 
  10203.036   5.95555e-18 
  10204.223   3.54558e-18 
   10205.41   1.68214e-17 
  10206.596   1.62744e-17 
  10207.783   6.62611e-18 
   10208.97   3.01633e-17 
  10210.157   8.39297e-18 
  10211.344   2.03302e-17 
  10212.531   1.77286e-17 
  10213.718   1.86935e-17 
  10214.905    1.1665e-17 
  10216.092   1.59342e-17 
  10217.279   7.43124e-18 
  10218.465   4.97987e-18 
  10219.652   8.68317e-18 
  10220.839   1.85831e-17 
  10222.026   2.15272e-17 
  10223.213  -7.63362e-18 
  10224.399  -1.07984e-19 
  10225.586   6.34373e-18 
  10226.773   2.69042e-17 
   10227.96    9.3955e-18 
  10229.146   5.47801e-18 
  10230.333  -3.43245e-18 
   10231.52   3.01802e-18 
  10232.707   1.64447e-17 
  10233.893   1.05937e-17 
   10235.08   1.08591e-17 
  10236.267   1.06366e-17 
  10237.453   6.73387e-18 
   10238.64   1.74711e-17 
  10239.826   4.47709e-18 
  10241.013   1.01585e-17 
    10242.2   5.74759e-18 
  10243.386   1.70667e-17 
  10244.573   2.16984e-17 
  10245.759    8.2563e-18 
  10246.946   1.12005e-17 
  10248.132    1.3215e-17 
  10249.319   1.12424e-17 
  10250.505   1.00442e-17 
  10251.692   1.62187e-17 
  10252.878   9.45053e-18 
  10254.065   4.08289e-18 
  10255.251   1.46679e-17 
  10256.438    8.5527e-18 
  10257.624   1.86524e-17 
   10258.81   6.52852e-20 
  10259.997   4.99875e-18 
  10261.183   2.69555e-17 
   10262.37   1.56669e-17 
  10263.556   1.93095e-17 
  10264.742   1.05169e-17 
  10265.929   2.81304e-18 
  10267.115   1.58272e-17 
  10268.301    1.6949e-17 
  10269.488   9.58378e-18 
  10270.674   7.66047e-18 
   10271.86   2.30575e-17 
  10273.046   6.45781e-18 
  10274.233   1.97377e-17 
  10275.419   1.42312e-17 
  10276.605   1.12044e-17 
  10277.791   1.84871e-17 
  10278.978    1.6932e-17 
  10280.164   1.17746e-17 
   10281.35   1.44534e-17 
  10282.536   3.05938e-17 
  10283.722   2.51982e-17 
  10284.909   2.05646e-17 
  10286.095  -1.31875e-17 
  10287.281  -3.14751e-19 
  10288.467   3.90042e-17 
  10289.653    8.5646e-18 
  10290.839   8.43751e-18 
  10292.025  -9.49344e-18 
  10293.211   1.37097e-17 
  10294.397   2.20464e-17 
  10295.583    1.3521e-17 
   10296.77  -2.08309e-18 
  10297.956   3.72534e-18 
  10299.142   8.93341e-18 
  10300.328  -2.51087e-18 
  10301.514   1.96717e-17 
    10302.7  -2.75093e-18 
  10303.886   1.29012e-17 
  10305.072   9.42174e-18 
  10306.258   2.97348e-17 
  10307.443  -5.92503e-18 
