# STATUS =
# OBJECT = 2019pud
# TELESCOPE = Keck1
# INSTRUMENT = LRIS
# DATE-OBS = 2020-10-12 06:17:16.00
# MJD = 59134.262000000104
# EXPTIME = 1800
# AIRMASS = --
# SLIT = --
# DISPERSER = --
# SOURCE = --
# FILTER =
# RESOLUTION =
# FLUX_STANDARD =
# EXTINCTION_CORRECTED = None
# PHOTOMETRY_CALIBRATED =
# TELLURIC_CORRECTED =
# FLUX_UNITS = erg cm(-2) sec(-1) Ang(-1)
# WAVE_UNITS = Angstrom
# QUALITY = High
# MIN_WAVE = 3063.1919
# MAX_WAVE = 10305.634
# COMMENT = --
 Wavelength          Flux 
  3065.1326   2.78994e-17 
  3067.0737   2.16711e-17 
  3069.0154   5.52897e-17 
   3070.958   7.81566e-17 
  3072.9009  -4.67229e-17 
  3074.8447   5.18975e-18 
  3076.7891   3.52817e-17 
  3078.7339    2.5409e-17 
  3080.6794    3.5387e-17 
  3082.6255   7.86771e-17 
  3084.5725  -3.01012e-17 
  3086.5198   9.32908e-18 
   3088.468   1.57432e-17 
  3090.4165   1.99679e-18 
  3092.3657   2.50662e-17 
  3094.3157   4.45722e-18 
  3096.2661  -1.46971e-17 
  3098.2173    5.2816e-18 
  3100.1689  -1.91979e-17 
  3102.1213   3.70804e-17 
  3104.0742  -6.07066e-17 
  3106.0278  -6.28637e-18 
  3107.9819   2.51567e-17 
  3109.9368  -1.89089e-17 
  3111.8921   1.78323e-17 
  3113.8481  -1.45353e-18 
  3115.8047   2.64106e-17 
  3117.7617   1.07365e-17 
  3119.7195  -8.07592e-18 
   3121.678   7.17639e-19 
  3123.6372  -6.43619e-18 
  3125.5967  -1.24694e-18 
  3127.5569   1.31006e-17 
  3129.5176   8.02749e-19 
   3131.479  -3.76596e-18 
  3133.4412   1.01343e-17 
  3135.4038   1.67054e-17 
  3137.3669  -7.09074e-18 
  3139.3308   1.53132e-17 
  3141.2952  -1.03271e-17 
    3143.26    1.1664e-18 
  3145.2256   2.21967e-17 
  3147.1919  -4.71163e-18 
  3149.1584  -6.45663e-18 
   3151.126   1.40554e-18 
  3153.0938   1.88679e-17 
  3155.0623  -4.67654e-18 
  3157.0315    1.0529e-17 
  3159.0012   7.06912e-18 
  3160.9714  -4.61823e-18 
  3162.9424   8.24476e-18 
  3164.9138   2.67888e-18 
  3166.8857  -5.02018e-18 
  3168.8584  -6.93289e-18 
  3170.8315  -6.68595e-18 
  3172.8054   1.66447e-18 
  3174.7798  -1.99654e-18 
  3176.7546  -1.61897e-17 
  3178.7302   9.35298e-18 
  3180.7063  -4.77909e-18 
  3182.6831   7.04784e-18 
  3184.6602   3.76842e-18 
  3186.6382  -1.96918e-18 
  3188.6165   1.33394e-17 
  3190.5955   1.21974e-17 
   3192.575  -5.12494e-18 
  3194.5552    -4.208e-18 
  3196.5359   3.72786e-18 
  3198.5171  -5.15411e-18 
  3200.4988      6.48e-18 
  3202.4812   2.00217e-19 
  3204.4641  -5.20634e-19 
  3206.4478   6.50815e-18 
  3208.4319  -2.71901e-18 
  3210.4165  -2.82828e-18 
  3212.4016   3.82824e-20 
  3214.3875   1.74303e-17 
  3216.3738  -8.65359e-19 
  3218.3606  -1.06707e-17 
  3220.3481  -5.47012e-18 
  3222.3362   8.39829e-18 
  3224.3247   8.16804e-18 
  3226.3137   1.37929e-17 
  3228.3035   5.20381e-18 
  3230.2937   1.71376e-18 
  3232.2847   5.24233e-18 
  3234.2759   4.49459e-18 
  3236.2678   2.81346e-18 
  3238.2603   2.46096e-18 
  3240.2534   4.26981e-18 
  3242.2468  -5.32878e-18 
   3244.241   3.71254e-18 
  3246.2356  -1.00608e-17 
  3248.2307  -5.33374e-19 
  3250.2266   5.11394e-19 
  3252.2229    1.7402e-18 
  3254.2197   8.77171e-18 
   3256.217   1.17879e-18 
  3258.2151  -1.16065e-17 
  3260.2134   2.35812e-18 
  3262.2126  -1.60073e-18 
  3264.2122   -6.8842e-18 
  3266.2122  -2.19586e-18 
  3268.2129  -1.81547e-18 
  3270.2141   9.12762e-18 
  3272.2158  -3.67277e-18 
   3274.218   8.33707e-18 
  3276.2207   2.86177e-18 
  3278.2241  -6.64933e-18 
   3280.228   -1.4352e-17 
  3282.2324   1.52768e-18 
  3284.2373   7.64557e-18 
  3286.2429   1.15808e-17 
  3288.2488   1.00072e-17 
  3290.2554   4.18245e-18 
  3292.2622  -6.44014e-19 
    3294.27   3.36918e-18 
  3296.2781  -3.85655e-18 
  3298.2866  -2.17604e-18 
  3300.2959  -7.06593e-18 
  3302.3054   3.17175e-18 
  3304.3157   7.02085e-18 
  3306.3264   1.00898e-18 
  3308.3376   8.99921e-18 
  3310.3494    6.8438e-19 
  3312.3618   4.14788e-18 
  3314.3745   5.94417e-18 
  3316.3879   1.36193e-17 
  3318.4016   4.25645e-18 
   3320.416   4.40642e-18 
  3322.4309    6.5489e-19 
  3324.4463  -3.79629e-18 
  3326.4624   1.06692e-18 
  3328.4788   1.16528e-17 
  3330.4956   1.58687e-18 
  3332.5132    1.6039e-18 
   3334.531   -4.5608e-19 
  3336.5496   7.19676e-18 
  3338.5686    9.7254e-19 
  3340.5881    1.2459e-18 
  3342.6082   7.61904e-19 
  3344.6287   6.57733e-18 
  3346.6497  -1.76417e-18 
  3348.6711    5.4658e-18 
  3350.6931  -1.56476e-18 
  3352.7158   2.42169e-18 
  3354.7388    2.9081e-18 
  3356.7622   6.75943e-19 
  3358.7864   4.32427e-18 
  3360.8108   3.55906e-18 
  3362.8359   1.55252e-18 
  3364.8613   4.81424e-18 
  3366.8875   2.21669e-18 
  3368.9141   1.44365e-18 
  3370.9409   1.68626e-18 
  3372.9685   1.24959e-18 
  3374.9966   4.04044e-18 
  3377.0251   6.49597e-18 
  3379.0542   1.32288e-18 
  3381.0835    4.9152e-19 
  3383.1135  -1.29518e-19 
   3385.144  -3.53454e-18 
   3387.175   6.81664e-18 
  3389.2065  -3.28468e-18 
  3391.2385   1.69661e-18 
   3393.271  -1.40331e-18 
   3395.304   4.34119e-18 
  3397.3374   7.24931e-18 
  3399.3711  -4.69491e-19 
  3401.4055  -4.77614e-18 
  3403.4404    4.9721e-19 
  3405.4758  -2.14728e-19 
  3407.5117   -2.9372e-18 
  3409.5481  -7.45148e-19 
  3411.5847   1.88422e-18 
  3413.6221  -5.93291e-19 
  3415.6599    1.1215e-18 
   3417.698  -3.39536e-18 
  3419.7368   5.79506e-18 
  3421.7759   4.48716e-18 
  3423.8154   4.96706e-18 
  3425.8557    5.6209e-19 
  3427.8962  -2.96183e-18 
  3429.9373   8.24262e-19 
   3431.979  -6.05253e-19 
   3434.021   3.07375e-18 
  3436.0635  -1.76228e-18 
  3438.1064   -3.6924e-18 
  3440.1499   3.26447e-18 
  3442.1936   3.76106e-18 
   3444.238   2.27826e-18 
   3446.283  -1.03334e-19 
  3448.3281   1.71602e-18 
  3450.3738   4.83124e-18 
  3452.4202   2.49546e-21 
  3454.4668  -1.27548e-18 
  3456.5139   5.61275e-18 
  3458.5615   7.35894e-19 
  3460.6096  -3.27142e-18 
  3462.6582   1.02772e-18 
  3464.7073   1.38125e-18 
  3466.7566  -1.70854e-18 
  3468.8064  -3.67953e-19 
  3470.8569    1.3577e-18 
  3472.9077   -2.7462e-18 
   3474.959  -2.88596e-18 
  3477.0107   6.10295e-18 
   3479.063  -1.64277e-18 
  3481.1155   1.40585e-18 
  3483.1687   3.77853e-18 
  3485.2222   3.91308e-18 
  3487.2761    3.6032e-18 
  3489.3306     7.397e-19 
  3491.3855   4.10487e-18 
  3493.4407  -3.22342e-18 
  3495.4966   7.90832e-19 
  3497.5527   3.04536e-18 
  3499.6094   1.16851e-18 
  3501.6665   1.38639e-19 
  3503.7241    5.4347e-19 
   3505.782   4.97291e-18 
  3507.8406    2.9268e-18 
  3509.8994   3.43844e-18 
  3511.9587   4.37342e-18 
  3514.0183   5.56572e-18 
  3516.0786  -7.90552e-19 
  3518.1392   3.50183e-18 
  3520.2002   4.21635e-18 
  3522.2617   4.26117e-18 
  3524.3237   3.95644e-18 
   3526.386   3.22157e-19 
   3528.449  -3.38981e-19 
  3530.5122   2.34004e-18 
  3532.5759  -2.17764e-18 
  3534.6399   1.42193e-18 
  3536.7046   1.12728e-18 
  3538.7695  -1.03544e-18 
   3540.835    1.4865e-18 
  3542.9006   2.74051e-18 
   3544.967  -3.93552e-18 
  3547.0337   3.08494e-18 
  3549.1008   6.61369e-18 
  3551.1682    7.7567e-18 
  3553.2361   8.35191e-18 
  3555.3047   2.70992e-18 
  3557.3733   2.51126e-18 
  3559.4426   5.56007e-18 
  3561.5122   5.98785e-18 
  3563.5825   4.20406e-19 
  3565.6528   4.66749e-18 
  3567.7239   3.86719e-18 
  3569.7952  -1.83038e-19 
  3571.8667    1.5496e-18 
   3573.939   3.48919e-19 
  3576.0115   7.11684e-19 
  3578.0845     6.408e-19 
   3580.158   1.84878e-19 
  3582.2317    5.0438e-18 
  3584.3059   1.66139e-18 
  3586.3806   2.70316e-18 
  3588.4558  -3.77863e-19 
   3590.531    2.8883e-18 
  3592.6069   1.98953e-18 
  3594.6833  -4.38834e-18 
    3596.76    2.5435e-18 
  3598.8369   2.50345e-18 
  3600.9146   3.47866e-18 
  3602.9924   1.10467e-18 
  3605.0708   3.38879e-18 
  3607.1494  -1.52798e-19 
  3609.2285  -1.39078e-18 
  3611.3081   6.64741e-19 
  3613.3879  -4.91595e-18 
  3615.4683  -1.18417e-18 
  3617.5491   1.59643e-18 
  3619.6301   6.46482e-21 
  3621.7117  -6.02987e-19 
  3623.7937   3.28756e-18 
   3625.876   6.80104e-19 
  3627.9585   2.68704e-18 
  3630.0417   1.80122e-18 
  3632.1252   1.63215e-19 
   3634.209   3.31941e-18 
  3636.2935   2.30239e-18 
  3638.3782  -4.26373e-18 
  3640.4631   -1.3445e-19 
  3642.5486   3.47683e-18 
  3644.6345   8.72391e-18 
  3646.7207   3.68128e-18 
  3648.8074    2.2838e-18 
  3650.8943   5.17033e-18 
  3652.9817   1.38312e-18 
  3655.0696  -1.98196e-18 
  3657.1577   2.72046e-20 
  3659.2463   2.29293e-18 
  3661.3352   3.88997e-18 
  3663.4246   3.28225e-18 
  3665.5142   2.25077e-18 
  3667.6042  -1.96152e-18 
  3669.6948   2.34671e-18 
  3671.7856   1.06553e-18 
   3673.877   7.94939e-19 
  3675.9685   -1.8583e-18 
  3678.0603   3.70663e-18 
  3680.1528   1.40848e-18 
  3682.2456   2.63808e-18 
  3684.3386  -5.89777e-19 
  3686.4321  -1.74361e-18 
  3688.5259   -3.6079e-20 
  3690.6201   8.48497e-19 
  3692.7148   3.88201e-18 
  3694.8098   3.78565e-18 
  3696.9053   3.22226e-18 
   3699.001   2.34562e-18 
  3701.0969   6.95098e-19 
  3703.1934   4.33698e-18 
  3705.2903   5.12908e-18 
  3707.3875    1.2902e-18 
  3709.4851   2.04532e-18 
   3711.583   3.54503e-18 
  3713.6812   4.23019e-18 
  3715.7798   3.70553e-18 
  3717.8789   5.03116e-18 
  3719.9783  -1.32205e-18 
  3722.0779   1.66773e-18 
   3724.178   2.03795e-18 
  3726.2786   7.01125e-18 
  3728.3794   5.42926e-18 
  3730.4805   2.90041e-18 
   3732.582   2.27191e-18 
  3734.6838   1.19793e-18 
  3736.7861   1.68198e-18 
  3738.8889   3.26287e-18 
  3740.9917   1.40724e-18 
  3743.0952   3.28962e-18 
  3745.1987   5.71813e-18 
  3747.3027   1.25822e-18 
   3749.407  -2.92126e-19 
  3751.5117   2.45191e-18 
  3753.6169   1.35307e-18 
  3755.7224  -2.81249e-19 
  3757.8281   1.60633e-18 
  3759.9341   1.49162e-18 
  3762.0408   6.45228e-19 
  3764.1475   2.73935e-18 
  3766.2546  -1.44144e-18 
  3768.3623    1.1439e-18 
    3770.47  -2.65656e-19 
  3772.5781   2.99909e-18 
  3774.6868   4.66381e-18 
  3776.7957   2.14982e-18 
  3778.9048   7.05008e-19 
  3781.0144   4.06769e-18 
  3783.1243   1.99628e-18 
  3785.2346    2.8701e-18 
  3787.3452    3.2201e-18 
  3789.4561   3.26065e-18 
  3791.5674   4.37167e-18 
   3793.679   2.25739e-18 
  3795.7908   4.01122e-18 
  3797.9031   1.90434e-18 
  3800.0156   4.02686e-19 
  3802.1287   1.66826e-19 
  3804.2417  -1.80211e-19 
  3806.3555  -2.31845e-19 
  3808.4692   2.60168e-18 
  3810.5835   3.77135e-19 
  3812.6982   4.79932e-18 
   3814.813   7.83193e-19 
  3816.9282  -1.34989e-19 
  3819.0439   1.42799e-18 
  3821.1599   2.27545e-18 
  3823.2759   1.99729e-18 
  3825.3926   1.59181e-18 
  3827.5095   9.52167e-19 
  3829.6267   4.48535e-18 
  3831.7441  -8.75666e-19 
  3833.8621   1.72073e-18 
    3835.98   4.47194e-18 
  3838.0986  -5.15913e-19 
  3840.2173   3.75611e-18 
  3842.3364    1.8415e-18 
  3844.4561   2.70846e-18 
  3846.5757    1.9749e-18 
  3848.6958   4.92567e-19 
  3850.8162   2.94024e-18 
   3852.937   1.05972e-18 
  3855.0579   3.19674e-18 
  3857.1792   3.13342e-18 
  3859.3008   2.38096e-18 
  3861.4229   5.11014e-18 
  3863.5452    7.1017e-19 
  3865.6677   1.98203e-18 
  3867.7908     2.082e-18 
  3869.9138   1.06499e-18 
  3872.0374   2.10006e-18 
  3874.1611   4.49061e-18 
  3876.2854   2.02252e-18 
  3878.4099    1.4734e-18 
  3880.5344   4.06865e-18 
  3882.6597   1.98974e-18 
  3884.7849   3.97292e-18 
  3886.9106   1.01153e-18 
  3889.0366   4.07361e-18 
  3891.1628   2.73244e-18 
  3893.2893   2.28992e-18 
  3895.4163   8.55977e-19 
  3897.5435   3.05281e-18 
  3899.6709   3.11042e-18 
  3901.7986   2.39194e-18 
  3903.9268    1.7125e-18 
  3906.0552   6.28389e-19 
  3908.1838   2.45793e-18 
  3910.3127   7.19703e-19 
  3912.4421   3.73794e-18 
  3914.5715  -1.09238e-19 
  3916.7014   5.53901e-18 
  3918.8315   1.60678e-18 
  3920.9622    1.8249e-18 
  3923.0928   1.11147e-18 
  3925.2239   4.07833e-18 
   3927.355   4.58157e-18 
  3929.4868   1.01948e-18 
  3931.6187   1.95544e-18 
  3933.7507   5.12824e-19 
  3935.8833   1.85808e-18 
  3938.0161   2.66574e-18 
  3940.1492   2.11619e-18 
  3942.2825   2.97468e-18 
   3944.416   6.03908e-19 
  3946.5498   6.68054e-19 
  3948.6841   2.03767e-18 
  3950.8186   1.83606e-18 
  3952.9534   1.07351e-18 
  3955.0884   4.02253e-19 
  3957.2236   3.15612e-18 
  3959.3591  -1.68855e-19 
  3961.4951   3.56942e-18 
  3963.6313   1.61328e-18 
  3965.7676   -9.2234e-19 
  3967.9043   2.07056e-18 
  3970.0415   2.11581e-18 
  3972.1787   2.14035e-18 
  3974.3162   3.11069e-19 
  3976.4541  -1.79542e-18 
   3978.592   1.94831e-18 
  3980.7305    7.4301e-19 
  3982.8691  -3.22286e-19 
  3985.0081   3.61922e-20 
  3987.1472   1.53538e-18 
  3989.2866   3.69032e-18 
  3991.4263   4.06401e-18 
  3993.5664   2.58905e-18 
  3995.7065   3.60694e-18 
  3997.8472   2.25353e-18 
  3999.9878   4.69055e-18 
  4002.1289  -4.22866e-19 
  4004.2703   4.21846e-18 
  4006.4119   2.92636e-18 
  4008.5537   3.88216e-18 
  4010.6958   2.42454e-18 
  4012.8381  -9.33618e-19 
  4014.9807   2.24709e-18 
  4017.1238   1.64538e-18 
  4019.2668   2.77964e-18 
  4021.4104   7.31236e-18 
   4023.554   3.24268e-18 
   4025.698   1.83805e-18 
   4027.842   4.41895e-18 
  4029.9866   2.70609e-18 
  4032.1313   2.54628e-18 
  4034.2764   2.62374e-18 
  4036.4214   2.24936e-18 
  4038.5669   9.45862e-19 
  4040.7126   1.04326e-18 
  4042.8586   1.04995e-18 
  4045.0049   5.56147e-18 
  4047.1516  -6.23956e-19 
  4049.2981   8.20749e-19 
  4051.4453   8.90954e-19 
  4053.5925   2.44287e-18 
    4055.74   2.08095e-18 
  4057.8877   3.22326e-18 
  4060.0356   1.86296e-18 
  4062.1841   3.41144e-18 
  4064.3325   1.14122e-18 
  4066.4812    1.9974e-18 
  4068.6301   2.99987e-19 
  4070.7793   1.77944e-18 
   4072.929   1.76352e-18 
  4075.0786   2.21133e-18 
  4077.2285   3.59824e-18 
  4079.3789   4.09432e-18 
  4081.5293   2.11319e-18 
  4083.6799   2.21295e-18 
  4085.8308   1.55147e-18 
  4087.9819   4.20986e-18 
  4090.1333  -4.99452e-19 
  4092.2849   1.17421e-18 
   4094.437   2.38292e-18 
  4096.5889  -1.54637e-19 
  4098.7412   3.40053e-18 
   4100.894   8.62976e-19 
  4103.0469   3.29696e-18 
  4105.1997   6.67856e-19 
   4107.353   1.53885e-18 
  4109.5068   3.81646e-18 
  4111.6606   8.45051e-19 
  4113.8145   2.88664e-18 
  4115.9688   5.04327e-18 
   4118.123   2.67693e-19 
  4120.2778   5.74318e-19 
  4122.4326   4.07771e-18 
  4124.5879   1.84446e-18 
  4126.7432  -7.82507e-19 
  4128.8989    2.8702e-18 
  4131.0547   1.31861e-18 
  4133.2109   1.38606e-18 
  4135.3672   1.09377e-18 
  4137.5234    8.2412e-19 
  4139.6802   2.72426e-18 
  4141.8374   5.21888e-18 
  4143.9941   1.25766e-18 
  4146.1519   2.90395e-18 
  4148.3091   2.28042e-18 
  4150.4673   1.35655e-18 
   4152.625   8.85394e-19 
  4154.7837   4.52777e-18 
  4156.9419   3.69071e-18 
  4159.1006   4.37309e-18 
  4161.2598   4.24753e-18 
  4163.4189   8.25136e-19 
  4165.5781   3.15872e-18 
  4167.7378   1.76303e-18 
  4169.8975    1.3445e-18 
  4172.0576   4.27472e-18 
  4174.2178   1.51269e-18 
  4176.3784   1.30929e-18 
  4178.5386  -9.83506e-19 
  4180.6997   5.74989e-19 
  4182.8608   3.44364e-18 
   4185.022   4.75696e-19 
  4187.1836   3.48152e-18 
  4189.3452    3.1312e-18 
  4191.5073    3.2201e-18 
  4193.6694   3.85989e-18 
  4195.8315   3.24598e-18 
  4197.9941   3.88374e-18 
  4200.1567    2.9227e-18 
  4202.3198   2.40863e-18 
  4204.4829   1.51172e-18 
  4206.6465   2.50104e-18 
  4208.8101   5.55983e-18 
  4210.9736   3.14094e-18 
  4213.1377   2.27092e-18 
  4215.3018   2.26852e-18 
  4217.4663   9.64899e-19 
  4219.6309   3.68904e-18 
  4221.7954     1.256e-18 
  4223.9604   4.77283e-18 
  4226.1255   5.57658e-19 
   4228.291   1.99301e-18 
  4230.4565   5.81621e-19 
  4232.6221   3.01204e-18 
  4234.7881   4.34939e-19 
  4236.9546   6.69177e-20 
  4239.1206   4.02411e-18 
  4241.2871   1.68565e-18 
  4243.4541   4.32575e-18 
  4245.6211   3.69744e-18 
  4247.7881   1.11786e-18 
  4249.9556  -2.37003e-19 
   4252.123   5.09599e-19 
  4254.2905   4.56944e-20 
  4256.4585   1.32139e-18 
  4258.6265   1.38788e-18 
  4260.7949  -6.82714e-19 
  4262.9634   4.63726e-18 
  4265.1318   2.33758e-18 
  4267.3008   8.43257e-19 
  4269.4697    3.0634e-18 
  4271.6387   2.92229e-18 
  4273.8081    3.4621e-19 
   4275.978    4.4131e-19 
  4278.1475   3.63775e-18 
  4280.3174   1.18287e-19 
  4282.4878   1.13658e-18 
  4284.6577   1.78304e-18 
  4286.8286   1.58726e-18 
   4288.999    4.3119e-18 
  4291.1699   1.87857e-18 
  4293.3408   3.96514e-18 
  4295.5122   9.71889e-19 
  4297.6836   4.93925e-18 
   4299.855    2.5889e-18 
  4302.0269   1.28032e-19 
  4304.1987   2.40611e-18 
  4306.3706   1.71932e-18 
   4308.543   2.97664e-18 
  4310.7153   2.18056e-18 
  4312.8882   2.66582e-18 
   4315.061   4.23475e-18 
  4317.2339   1.22601e-18 
  4319.4072   2.51697e-18 
  4321.5801   4.28015e-18 
  4323.7539   2.31561e-18 
  4325.9272   1.55103e-18 
  4328.1011   1.79669e-18 
  4330.2754   2.18508e-18 
  4332.4492   2.34971e-18 
  4334.6235   3.34146e-18 
  4336.7983   2.77256e-18 
  4338.9727   3.05658e-18 
  4341.1475   3.31637e-18 
  4343.3228   1.26108e-18 
   4345.498   2.16433e-18 
  4347.6733   2.86099e-18 
  4349.8486   1.18675e-18 
  4352.0244   4.67385e-19 
  4354.2002     1.345e-18 
   4356.376   2.03685e-18 
  4358.5522   5.89302e-18 
  4360.7285   3.89342e-18 
  4362.9048   3.27947e-18 
  4365.0815   1.92048e-18 
  4367.2583   5.14078e-18 
  4369.4355   4.98422e-18 
  4371.6123   4.12985e-18 
  4373.7896    4.4237e-18 
  4375.9673   3.01384e-18 
  4378.1445   5.29255e-18 
  4380.3223   1.82285e-18 
  4382.5005    4.1178e-18 
  4384.6782   4.79274e-18 
  4386.8564   4.26529e-18 
  4389.0347   3.53148e-18 
  4391.2134   1.98506e-18 
  4393.3921   3.52581e-18 
  4395.5708   2.32326e-18 
    4397.75   2.31703e-18 
  4399.9287   1.43198e-18 
  4402.1084   3.68154e-18 
  4404.2876   3.10124e-18 
  4406.4673   4.77274e-18 
   4408.647   3.30092e-18 
  4410.8267    5.7964e-18 
  4413.0068   3.88573e-18 
   4415.187   3.82504e-18 
  4417.3672   4.42867e-18 
  4419.5474   5.80431e-18 
   4421.728   4.90463e-18 
  4423.9092   3.32093e-18 
  4426.0898    7.2697e-18 
   4428.271   5.00123e-18 
  4430.4521   5.26093e-18 
  4432.6333   5.19856e-18 
  4434.8149   5.40446e-18 
  4436.9966   5.29631e-18 
  4439.1782   3.71275e-18 
  4441.3599   6.17805e-18 
   4443.542   7.64609e-18 
  4445.7241    4.4847e-18 
  4447.9067     7.528e-18 
  4450.0889   6.44998e-18 
  4452.2715   8.03108e-18 
  4454.4541   5.61014e-18 
  4456.6372   3.75987e-18 
  4458.8198   8.43185e-18 
  4461.0029   7.25953e-18 
  4463.1865   4.54961e-18 
  4465.3696   6.74047e-18 
  4467.5532   6.79409e-18 
  4469.7368   5.73354e-18 
  4471.9209   4.44802e-18 
  4474.1045   3.81185e-18 
  4476.2886     4.476e-18 
  4478.4727    3.8931e-18 
  4480.6572   5.97516e-18 
  4482.8418   5.70002e-18 
  4485.0264   5.34757e-18 
  4487.2109   6.36709e-18 
  4489.3955   5.47373e-18 
  4491.5806   4.79424e-18 
  4493.7656   3.28959e-18 
  4495.9507   4.76691e-18 
  4498.1362   3.64311e-18 
  4500.3218   7.31818e-18 
  4502.5073   4.39297e-18 
  4504.6929    6.2222e-18 
  4506.8789   5.29823e-18 
  4509.0649    5.8787e-18 
   4511.251   6.90549e-18 
   4513.437   3.86473e-18 
  4515.6235   5.87743e-18 
  4517.8101   3.55569e-18 
  4519.9966   6.48949e-18 
  4522.1831   3.46021e-18 
  4524.3701   3.75737e-18 
  4526.5571   3.63919e-18 
  4528.7441   5.34566e-18 
  4530.9312   4.70631e-18 
  4533.1182   4.45939e-18 
  4535.3057    3.2509e-18 
  4537.4932   5.49596e-18 
  4539.6807   4.79967e-18 
  4541.8687   3.60331e-18 
  4544.0566   4.08446e-18 
  4546.2446   2.25688e-18 
  4548.4326   1.57963e-18 
  4550.6206   3.63789e-18 
  4552.8091   3.30349e-18 
  4554.9976   4.38972e-18 
   4557.186     4.594e-18 
   4559.375   4.46476e-18 
  4561.5635   6.30859e-18 
  4563.7524    4.5893e-18 
  4565.9414   2.39877e-18 
  4568.1304   4.85735e-18 
  4570.3198   4.03303e-18 
  4572.5088   3.14701e-18 
  4574.6982   5.31323e-18 
  4576.8882    7.7946e-18 
  4579.0776     4.189e-18 
  4581.2676   6.07753e-18 
   4583.457   6.94336e-18 
   4585.647   6.41047e-18 
  4587.8374   3.60269e-18 
  4590.0273   4.76408e-18 
  4592.2178   3.99011e-18 
  4594.4082   5.22012e-18 
  4596.5986   4.55809e-18 
  4598.7891   2.68399e-18 
    4600.98   4.15979e-18 
  4603.1704   2.84754e-18 
  4605.3613   4.70575e-18 
  4607.5522   4.47419e-18 
  4609.7437   3.40642e-18 
  4611.9346   6.29889e-18 
   4614.126   3.70819e-18 
  4616.3174   5.33605e-18 
  4618.5088   4.67516e-18 
  4620.7002   4.51043e-18 
  4622.8921     4.115e-18 
   4625.084   3.97963e-18 
  4627.2759   5.81561e-18 
  4629.4678   3.69447e-18 
  4631.6597   3.16426e-18 
  4633.8516   2.48215e-18 
  4636.0439   4.28256e-18 
  4638.2363    3.0061e-18 
  4640.4287   3.22538e-18 
  4642.6211   3.87455e-18 
   4644.814   4.57294e-18 
  4647.0068    2.8029e-18 
  4649.1997   5.15067e-18 
  4651.3921   3.20887e-18 
  4653.5854   4.13149e-18 
  4655.7783    3.6373e-18 
  4657.9717   3.01543e-18 
   4660.165   4.85525e-18 
  4662.3579   5.20657e-18 
  4664.5513   2.95249e-18 
  4666.7451   5.93232e-18 
  4668.9385   3.77245e-18 
  4671.1323   3.15775e-18 
  4673.3262   4.11929e-18 
    4675.52   3.33125e-18 
  4677.7139   3.47098e-18 
  4679.9077   3.52387e-18 
  4682.1021   3.18789e-18 
  4684.2959   2.36432e-18 
  4686.4902    1.1172e-18 
  4688.6846   3.82805e-18 
  4690.8794   5.52832e-18 
  4693.0737   2.55528e-18 
  4695.2681   5.13713e-18 
  4697.4629   2.57612e-18 
  4699.6577   1.98121e-18 
  4701.8525    5.0923e-18 
  4704.0474   4.17918e-18 
  4706.2427   6.02817e-18 
  4708.4375   4.30008e-18 
  4710.6328   5.04407e-18 
  4712.8281   3.20186e-18 
  4715.0234   4.84369e-18 
  4717.2188   1.48498e-18 
  4719.4141   2.87995e-18 
  4721.6094   1.91704e-18 
  4723.8052   3.47814e-18 
   4726.001   1.52988e-18 
  4728.1968    3.7901e-18 
  4730.3926   4.24956e-18 
  4732.5884   4.52537e-18 
  4734.7842   4.31138e-18 
  4736.9805   5.49908e-18 
  4739.1763   2.83962e-18 
  4741.3726   3.78494e-18 
  4743.5688   1.89092e-18 
  4745.7651   4.48522e-18 
  4747.9614   5.31705e-18 
  4750.1582   2.66638e-18 
  4752.3545   2.74014e-18 
  4754.5513   9.21407e-20 
   4756.748   4.55824e-18 
  4758.9448   2.18832e-18 
  4761.1416   2.51029e-18 
  4763.3384   2.66366e-18 
  4765.5352   3.70337e-18 
  4767.7324   1.21624e-18 
  4769.9292   4.16238e-18 
  4772.1265   3.86155e-18 
  4774.3237   4.75832e-18 
   4776.521   2.31584e-18 
  4778.7183   3.71801e-18 
  4780.9155   2.02871e-18 
  4783.1133   1.94628e-18 
  4785.3105   3.62886e-18 
  4787.5083   3.45262e-18 
  4789.7061   1.63511e-18 
  4791.9038   1.59665e-18 
  4794.1011   2.10687e-18 
  4796.2993   2.41517e-18 
  4798.4971   3.10792e-18 
  4800.6948   1.82995e-18 
  4802.8931   3.15015e-18 
  4805.0908   4.88681e-18 
  4807.2891   4.41171e-18 
  4809.4873   1.97853e-18 
  4811.6855   7.10009e-19 
  4813.8838    3.5019e-18 
   4816.082   1.40763e-18 
  4818.2808   2.93715e-18 
   4820.479   4.67825e-18 
  4822.6777   2.93154e-18 
   4824.876   2.97061e-18 
  4827.0747   5.75206e-18 
  4829.2734   4.24069e-18 
  4831.4722   4.98355e-18 
  4833.6709   4.22381e-18 
  4835.8696   5.05259e-18 
  4838.0684   4.59914e-18 
  4840.2676   4.40097e-18 
  4842.4663   4.08481e-18 
  4844.6655   3.54697e-18 
  4846.8647    2.5745e-18 
   4849.064    3.2763e-18 
  4851.2627   4.59739e-18 
  4853.4624   5.46453e-18 
  4855.6616   5.60223e-18 
  4857.8608   3.92147e-18 
  4860.0601   4.98254e-18 
  4862.2598   4.77267e-18 
   4864.459   2.13688e-18 
  4866.6587   3.58396e-18 
  4868.8584   5.01491e-18 
  4871.0576   3.37857e-18 
  4873.2573   4.40659e-18 
   4875.457   6.09002e-18 
  4877.6567   2.17299e-18 
  4879.8569   4.54233e-18 
  4882.0566   2.13556e-18 
  4884.2563   5.92218e-18 
  4886.4565   6.88823e-18 
  4888.6562   6.80326e-18 
  4890.8564   5.19848e-18 
  4893.0562   2.47826e-18 
  4895.2563   3.88295e-18 
  4897.4565    6.3943e-18 
  4899.6567   4.52891e-18 
  4901.8569   2.89654e-18 
  4904.0571   6.20964e-18 
  4906.2573    3.3951e-18 
   4908.458   3.10825e-18 
  4910.6582   3.92226e-18 
  4912.8584   3.13642e-18 
  4915.0591   5.40685e-18 
  4917.2593   4.71458e-18 
    4919.46   4.91886e-18 
  4921.6606   3.60301e-18 
  4923.8613   3.36272e-18 
   4926.062   2.94338e-18 
  4928.2622   2.64409e-18 
  4930.4629   4.04675e-18 
  4932.6641   4.52053e-18 
  4934.8647   4.41374e-18 
  4937.0654   5.95385e-18 
  4939.2661   3.96247e-18 
  4941.4673   2.32346e-18 
   4943.668   4.86824e-18 
  4945.8691   4.79277e-18 
  4948.0698   4.05758e-18 
   4950.271   4.90667e-18 
  4952.4717    4.0293e-18 
  4954.6729   4.88552e-18 
   4956.874   2.39029e-18 
  4959.0752   2.11016e-18 
  4961.2764   5.05278e-18 
  4963.4775   5.78001e-18 
  4965.6787    2.2871e-18 
  4967.8799   2.13861e-18 
  4970.0811    3.5211e-18 
  4972.2827   3.46796e-18 
  4974.4839   3.08672e-18 
  4976.6851   2.89346e-18 
  4978.8867   4.90095e-18 
  4981.0879   4.85207e-18 
  4983.2896   2.35622e-18 
  4985.4907   3.79161e-18 
  4987.6924   6.63919e-18 
   4989.894   1.88938e-18 
  4992.0952   5.81122e-18 
  4994.2969   4.02737e-18 
  4996.4985   5.31648e-18 
  4998.7002   4.66927e-18 
  5000.9019   3.84577e-18 
  5003.1035   3.64793e-18 
  5005.3052   3.92924e-18 
  5007.5068   3.70868e-18 
  5009.7085   2.44609e-18 
  5011.9102   4.76928e-18 
  5014.1118   4.89101e-18 
  5016.3135    3.4575e-18 
  5018.5156   4.15149e-18 
  5020.7173    4.8862e-18 
  5022.9189   5.34637e-18 
  5025.1211   6.09404e-18 
  5027.3228   4.23607e-18 
  5029.5249   4.37813e-18 
  5031.7266   5.23882e-18 
  5033.9287   3.84178e-18 
  5036.1304   4.79557e-18 
  5038.3325   2.57763e-18 
  5040.5342   6.03583e-18 
  5042.7363   4.61954e-18 
  5044.9385   3.05935e-18 
  5047.1406   2.60932e-18 
  5049.3423   2.21562e-18 
  5051.5444   4.31286e-18 
  5053.7466   4.18907e-18 
  5055.9487   3.68625e-18 
  5058.1509   1.99858e-18 
   5060.353   3.47575e-18 
  5062.5552   3.88177e-18 
  5064.7573   3.99167e-18 
  5066.9595   4.00976e-18 
  5069.1616   5.10943e-18 
  5071.3638   3.49464e-18 
  5073.5659   2.20191e-18 
  5075.7681   4.67044e-18 
  5077.9702   2.62686e-18 
  5080.1724   6.84613e-18 
  5082.3745   4.93812e-18 
  5084.5767   4.83814e-18 
  5086.7793    4.3362e-18 
  5088.9814   7.04004e-18 
  5091.1836   3.88754e-18 
  5093.3862   2.71746e-18 
  5095.5884   4.77459e-18 
  5097.7905   7.36895e-18 
  5099.9927   3.94293e-18 
  5102.1953   6.63929e-18 
  5104.3975   3.24426e-18 
  5106.6001   5.10136e-18 
  5108.8022   5.18125e-18 
  5111.0044   6.74955e-18 
   5113.207   7.34311e-18 
  5115.4092   4.87884e-18 
  5117.6118   3.68497e-18 
   5119.814   5.09867e-18 
  5122.0161   9.27333e-18 
  5124.2188   4.73364e-18 
  5126.4209   5.09394e-18 
  5128.6235   3.64241e-18 
  5130.8257    6.3046e-18 
  5133.0283   3.95787e-18 
  5135.2305   3.20593e-18 
  5137.4331   3.84405e-18 
  5139.6353   4.34387e-18 
  5141.8379   4.01379e-18 
    5144.04   2.78546e-18 
  5146.2427   4.23822e-18 
  5148.4448   4.90171e-18 
  5150.6475    3.4154e-18 
  5152.8496   3.24074e-18 
  5155.0522   5.22698e-18 
  5157.2544   4.67282e-18 
   5159.457   3.17885e-18 
  5161.6592   3.10085e-18 
  5163.8618   4.42446e-18 
   5166.064   3.17185e-18 
  5168.2666   4.40181e-18 
  5170.4688   4.98987e-18 
  5172.6714    4.6548e-18 
  5174.8735   3.52407e-18 
  5177.0762   5.76901e-18 
  5179.2783    5.0473e-18 
   5181.481   4.43101e-18 
  5183.6831   5.95572e-18 
  5185.8857   4.58821e-18 
  5188.0879    6.0591e-18 
  5190.2905   4.90754e-18 
  5192.4927   3.60255e-18 
  5194.6948   4.82221e-18 
  5196.8975   5.12131e-18 
  5199.0996   2.30421e-18 
  5201.3018   5.70258e-18 
  5203.5044   3.74398e-18 
  5205.7065   5.51038e-18 
  5207.9092   2.90057e-18 
  5210.1113   4.85517e-18 
  5212.3135   4.43856e-18 
  5214.5161   5.35487e-18 
  5216.7183   4.59226e-18 
  5218.9204    4.8354e-18 
  5221.1226   3.92078e-18 
  5223.3252   5.23662e-18 
  5225.5273   3.04253e-18 
  5227.7295   5.01407e-18 
  5229.9316   3.80311e-18 
  5232.1338   4.82847e-18 
  5234.3364   4.09026e-18 
  5236.5386   3.76653e-18 
  5238.7407   4.50238e-18 
  5240.9429   5.45136e-18 
   5243.145   2.59857e-18 
  5245.3472    4.1143e-18 
  5247.5493   4.66449e-18 
  5249.7515   5.46796e-18 
  5251.9536   3.80597e-18 
  5254.1558   2.39308e-18 
  5256.3579   3.01075e-18 
  5258.5596   3.65152e-18 
  5260.7617   2.57607e-18 
  5262.9639   5.56384e-18 
   5265.166   2.50676e-18 
  5267.3682   5.05752e-18 
  5269.5698   3.46823e-18 
   5271.772   1.64922e-18 
  5273.9741   3.41151e-18 
  5276.1758   2.92181e-18 
  5278.3779   3.06676e-18 
  5280.5801   2.91212e-18 
  5282.7817   4.71362e-18 
  5284.9839    6.3634e-18 
  5287.1855   2.92631e-18 
  5289.3877    4.1896e-18 
  5291.5894   3.69812e-18 
   5293.791   3.48494e-18 
  5295.9932   5.56261e-18 
  5298.1948   5.44342e-18 
  5300.3965   3.43219e-18 
  5302.5986   6.38195e-18 
  5304.8003    1.2209e-18 
   5307.002   3.35338e-18 
  5309.2036   1.11906e-18 
  5311.4053   3.19988e-18 
  5313.6069   4.77937e-18 
  5315.8086   6.96968e-18 
  5318.0103   4.46389e-18 
  5320.2119    4.7093e-18 
  5322.4136   3.88317e-18 
  5324.6152   3.53836e-18 
  5326.8169   4.12736e-18 
  5329.0181   3.98436e-18 
  5331.2197   3.42396e-18 
  5333.4214   2.57198e-18 
  5335.6226   9.56995e-19 
  5337.8242   4.26875e-18 
  5340.0254   3.84529e-18 
  5342.2271   3.81602e-18 
  5344.4282   5.02203e-18 
  5346.6299   5.57099e-19 
  5348.8311   5.70861e-18 
  5351.0327    6.0289e-18 
  5353.2339   2.75341e-18 
  5355.4351   5.68817e-18 
  5357.6362   2.80103e-18 
  5359.8374    2.7317e-18 
  5362.0386    1.8207e-18 
  5364.2397   2.00022e-18 
  5366.4409    6.3853e-21 
  5368.6421    1.1322e-18 
  5370.8433   3.06809e-18 
  5373.0444    3.7134e-19 
  5375.2456   4.98612e-18 
  5377.4463   1.82633e-18 
  5379.6475    4.2011e-18 
  5381.8486   3.34056e-18 
  5384.0493   3.78049e-18 
  5386.2505   2.90402e-18 
  5388.4512   5.09787e-18 
  5390.6523   4.52441e-18 
   5392.853   2.83225e-18 
  5395.0537   4.96492e-18 
  5397.2544    5.4614e-18 
  5399.4556   4.61974e-18 
  5401.6562   6.42039e-18 
  5403.8569    5.7448e-18 
  5406.0576   8.96187e-18 
  5408.2583   5.28819e-18 
   5410.459   6.46565e-18 
  5412.6592   5.87132e-18 
  5414.8599   3.73025e-18 
  5417.0605    1.0809e-17 
  5419.2612   9.96011e-18 
  5421.4614   1.01032e-17 
  5423.6621   1.08739e-17 
  5425.8623   9.93706e-18 
   5428.063   1.08749e-17 
  5430.2632   1.03596e-17 
  5432.4634   1.14406e-17 
  5434.6636   8.30538e-18 
  5436.8643   1.12474e-17 
  5439.0645    1.0824e-17 
  5441.2646   9.38509e-18 
  5443.4648   1.11995e-17 
   5445.665   9.27972e-18 
  5447.8652   1.12136e-17 
  5450.0649   8.24875e-18 
  5452.2651   7.26519e-18 
  5454.4653   8.74992e-18 
   5456.665    7.9278e-18 
  5458.8652   7.36581e-18 
  5461.0649   6.37886e-18 
  5463.2651   3.91223e-18 
  5465.4648   5.90727e-18 
  5467.6646   6.26262e-18 
  5469.8643   1.72232e-18 
   5472.064    5.7241e-18 
  5474.2637   6.82517e-18 
  5476.4634    5.7027e-18 
  5478.6631   5.85593e-18 
  5480.8628    6.1124e-18 
  5483.0625   5.65402e-18 
  5485.2622   5.49879e-18 
  5487.4614   7.18517e-18 
  5489.6611   6.75086e-18 
  5491.8604   5.63755e-18 
  5494.0601   6.27487e-18 
  5496.2593   5.64113e-18 
  5498.4585   7.96765e-18 
  5500.6577   7.02793e-18 
  5502.8574   8.69962e-18 
  5505.0566   5.65684e-18 
  5507.2554   9.23003e-18 
  5509.4546   4.78994e-18 
  5511.6538   5.86161e-18 
   5513.853   7.98431e-18 
  5516.0522   6.25592e-18 
   5518.251   3.75465e-18 
  5520.4502    5.9879e-18 
  5522.6489   4.36529e-18 
  5524.8481   5.94349e-18 
  5527.0469    4.9601e-18 
  5529.2456   6.74499e-18 
  5531.4443   5.65784e-18 
  5533.6431   5.46111e-18 
  5535.8418   6.13814e-18 
  5538.0405   6.13326e-18 
  5540.2393   6.62124e-18 
   5542.438   4.36948e-18 
  5544.6367   3.92159e-18 
   5546.835   2.50039e-18 
  5549.0337   4.65579e-18 
  5551.2319    2.1722e-18 
  5553.4302   4.08456e-18 
  5555.6289   5.27705e-18 
  5557.8271   4.90716e-18 
  5560.0254   3.43508e-18 
  5562.2236   4.95673e-18 
  5564.4219   6.16991e-18 
  5566.6201   3.41058e-18 
  5568.8184    3.9154e-18 
  5571.0166   3.97223e-18 
  5573.2144   2.91081e-18 
  5575.4126    6.1493e-19 
  5577.6104  -1.70807e-18 
  5579.8086   8.32337e-18 
  5582.0063   7.43436e-18 
  5584.2041    5.3172e-18 
  5586.4019   8.29846e-18 
  5588.5996   7.26494e-18 
  5590.7974   2.89482e-18 
  5592.9951   5.88539e-18 
  5595.1929   4.95574e-18 
  5597.3906   5.18918e-18 
  5599.5879   4.39295e-18 
  5601.7856   4.60986e-18 
  5603.9829   7.19178e-18 
  5606.1807   1.07026e-18 
  5608.3779   6.84981e-18 
  5610.5752   2.85352e-18 
  5612.7725   8.04635e-18 
  5614.9697   2.69581e-18 
   5617.167   5.12972e-18 
  5619.3643   2.88841e-18 
  5621.5615   2.14998e-18 
  5623.7588   3.51261e-18 
  5625.9556   3.91026e-18 
  5628.1528   4.86879e-18 
  5630.3496   6.06961e-18 
  5632.5469   2.95431e-18 
  5634.7437   9.23157e-18 
  5636.9404   3.39231e-18 
  5639.1372   2.86122e-18 
   5641.334   3.28849e-18 
  5643.5308   2.91766e-18 
  5645.7275   5.02043e-18 
  5646.6519   5.91863e-18 
  5647.7988   1.23657e-18 
  5648.9458   7.63871e-18 
  5650.0933  -8.20377e-19 
  5651.2402   2.37666e-18 
  5652.3877   1.39394e-18 
  5653.5347   3.03179e-18 
  5654.6821   5.76362e-18 
  5655.8291    2.0772e-18 
  5656.9766   2.03039e-18 
   5658.124   9.02548e-18 
  5659.2715   4.43502e-18 
  5660.4189   1.83325e-18 
  5661.5664   5.68604e-18 
  5662.7139   5.39296e-18 
  5663.8613    6.1958e-19 
  5665.0088   7.99606e-18 
  5666.1562    5.1886e-18 
  5667.3037   7.69265e-18 
  5668.4512   1.70994e-18 
  5669.5991   6.60641e-18 
  5670.7466   4.18523e-18 
  5671.8945   6.23316e-18 
   5673.042   8.86032e-19 
  5674.1899   1.46432e-18 
  5675.3379   4.73394e-18 
  5676.4854   3.14377e-18 
  5677.6333   4.13311e-18 
  5678.7812   1.84429e-18 
  5679.9292   6.44764e-18 
  5681.0771  -1.28436e-18 
  5682.2251   6.37039e-18 
   5683.373   6.85624e-18 
   5684.521   8.69546e-18 
  5685.6689   1.77684e-17 
  5686.8169   6.21222e-19 
  5687.9653   2.10346e-18 
  5689.1133   6.42393e-18 
  5690.2617   3.74009e-18 
  5691.4097    4.8553e-18 
  5692.5581   2.67838e-18 
  5693.7061   2.93925e-18 
  5694.8545   6.48022e-18 
  5696.0029   5.85278e-18 
  5697.1514   6.83308e-18 
  5698.2998   2.67448e-18 
  5699.4482   9.67247e-18 
  5700.5962    4.3849e-18 
  5701.7451   3.72827e-18 
  5702.8936   2.65328e-18 
   5704.042   6.92738e-20 
  5705.1904  -7.27037e-19 
  5706.3389  -3.85709e-18 
  5707.4878     8.531e-18 
  5708.6362   2.12997e-18 
  5709.7852   9.09095e-18 
  5710.9336   4.59666e-18 
  5712.0825   1.52185e-18 
   5713.231   3.56793e-18 
  5714.3799   4.87305e-18 
  5715.5288   1.98281e-18 
  5716.6777   7.77766e-18 
  5717.8267   4.22025e-18 
  5718.9756   2.56346e-18 
  5720.1245   7.64158e-18 
  5721.2734    3.6539e-18 
  5722.4224   5.99114e-18 
  5723.5713   3.89142e-18 
  5724.7207   6.03769e-18 
  5725.8696   2.50766e-18 
  5727.0186   2.92779e-18 
   5728.168   2.27505e-18 
  5729.3169   2.64019e-18 
  5730.4663   1.45658e-18 
  5731.6157   2.62216e-18 
  5732.7651   8.55863e-18 
  5733.9141   6.76126e-18 
  5735.0635   4.52732e-18 
  5736.2129   8.60633e-18 
  5737.3623   6.24956e-18 
  5738.5117   5.00537e-18 
  5739.6611   1.58272e-19 
  5740.8105   2.46266e-18 
  5741.9604   6.53675e-18 
  5743.1099   1.08746e-17 
  5744.2593   3.04366e-18 
  5745.4092    3.3534e-18 
  5746.5586   4.39807e-18 
  5747.7085   2.33381e-18 
  5748.8579   2.27963e-18 
  5750.0078   4.59272e-18 
  5751.1577   2.32164e-18 
  5752.3076   3.45334e-18 
  5753.4575   -5.7244e-19 
  5754.6074   5.28619e-18 
  5755.7573   3.06227e-18 
  5756.9072   5.58883e-18 
  5758.0571   1.32253e-17 
   5759.207   8.96123e-18 
  5760.3569  -4.80751e-19 
  5761.5073   3.29439e-18 
  5762.6572   8.14286e-18 
  5763.8071   3.84682e-18 
  5764.9575    7.0703e-18 
  5766.1074   3.46795e-18 
  5767.2578   7.37161e-18 
  5768.4082    5.8196e-18 
  5769.5586   5.32315e-18 
  5770.7085   5.76916e-18 
  5771.8589   1.10514e-17 
  5773.0093   7.35054e-18 
  5774.1597   4.40033e-18 
  5775.3101   7.52068e-18 
  5776.4609   1.03157e-17 
  5777.6113   2.97278e-18 
  5778.7617   3.18999e-18 
  5779.9121   4.33517e-18 
   5781.063   8.24392e-18 
  5782.2134     7.794e-18 
  5783.3643    8.8411e-18 
  5784.5151    4.0557e-18 
  5785.6655   7.69192e-18 
  5786.8164   3.99005e-18 
  5787.9673   3.76017e-18 
  5789.1182   8.75595e-18 
   5790.269    3.2397e-18 
  5791.4199    6.7959e-18 
  5792.5708   4.41217e-18 
  5793.7217   3.14176e-18 
  5794.8726   6.02525e-18 
  5796.0234   5.68503e-18 
  5797.1748   2.87367e-18 
  5798.3257   3.30794e-18 
  5799.4766   6.02623e-18 
  5800.6279   6.35271e-18 
  5801.7793   4.50525e-18 
  5802.9302   6.36366e-18 
  5804.0815   4.39307e-18 
  5805.2329   5.21031e-18 
  5806.3843   9.07929e-18 
  5807.5356   1.00916e-17 
   5808.687   5.17465e-18 
  5809.8384   5.30305e-18 
  5810.9897   4.51368e-18 
  5812.1411   5.23187e-18 
  5813.2925   4.58637e-18 
  5814.4443   3.60184e-18 
  5815.5957   5.03871e-18 
  5816.7476   3.24242e-18 
  5817.8989   6.63667e-18 
  5819.0508   5.17335e-18 
  5820.2021    2.6562e-18 
   5821.354   2.49021e-18 
  5822.5059   3.92867e-18 
  5823.6577   3.10946e-18 
  5824.8096   1.03384e-17 
  5825.9614   3.78137e-18 
  5827.1133   7.36402e-18 
  5828.2651   1.04225e-17 
   5829.417   6.14374e-18 
  5830.5688   4.84087e-18 
  5831.7212   1.01698e-17 
   5832.873  -2.09639e-19 
  5834.0254   2.67114e-18 
  5835.1772  -2.54982e-19 
  5836.3296    4.1169e-18 
  5837.4814   -3.8943e-19 
  5838.6338   3.62278e-18 
  5839.7861   4.08999e-18 
  5840.9385   6.68326e-18 
  5842.0908   9.02553e-18 
  5843.2432   4.57769e-18 
  5844.3955   6.03342e-18 
  5845.5479    4.0059e-18 
  5846.7002   1.71464e-18 
  5847.8525   8.25946e-18 
  5849.0054   3.46926e-18 
  5850.1577   9.81829e-18 
  5851.3105   4.00601e-18 
  5852.4629   6.68711e-18 
  5853.6157   8.59856e-18 
  5854.7681   6.15226e-18 
  5855.9209   3.90844e-18 
  5857.0737   4.75415e-18 
  5858.2266    6.0353e-18 
  5859.3794   6.58959e-18 
  5860.5322   7.17933e-18 
  5861.6851    3.4349e-18 
  5862.8379   8.77734e-18 
  5863.9907   3.49396e-18 
   5865.144   9.02692e-18 
  5866.2969   6.09314e-18 
  5867.4497   9.95789e-18 
   5868.603   2.25121e-18 
  5869.7559   2.89832e-18 
  5870.9092    2.5249e-18 
  5872.0625   5.41158e-18 
  5873.2158   5.71001e-18 
  5874.3687   2.37733e-18 
   5875.522   1.53318e-18 
  5876.6753   5.83946e-18 
  5877.8286   3.39495e-18 
  5878.9819   4.91037e-18 
  5880.1357   4.34925e-18 
  5881.2891    5.6161e-18 
  5882.4424   3.50861e-18 
  5883.5962   5.46933e-18 
  5884.7495   4.13736e-18 
  5885.9033   4.16609e-18 
  5887.0566   1.31861e-20 
  5888.2104   1.32207e-17 
  5889.3638  -1.74885e-18 
  5890.5176   5.59768e-18 
  5891.6714   4.54757e-18 
  5892.8252  -2.05925e-18 
   5893.979   1.81454e-18 
  5895.1328   3.39734e-18 
  5896.2866   6.89973e-18 
  5897.4409  -2.05796e-18 
  5898.5947  -1.64074e-19 
  5899.7485   5.92288e-18 
  5900.9028   4.00278e-18 
  5902.0566   4.77298e-18 
  5903.2109   6.61925e-18 
  5904.3647   4.31334e-18 
   5905.519   5.18291e-18 
  5906.6733   5.19832e-18 
  5907.8276   4.55959e-18 
  5908.9814   8.54594e-18 
  5910.1357   5.92385e-18 
    5911.29   5.53509e-18 
  5912.4443   4.16531e-18 
  5913.5991   2.96092e-18 
  5914.7534   2.98797e-18 
  5915.9077   8.95472e-19 
  5917.0625   6.80272e-18 
  5918.2168   4.35387e-18 
  5919.3716   3.80539e-18 
  5920.5259   7.11109e-18 
  5921.6807   6.18559e-18 
   5922.835   5.55689e-18 
  5923.9897   4.63954e-18 
  5925.1445   4.99718e-18 
  5926.2993    4.5149e-18 
  5927.4541   2.02504e-18 
  5928.6089   4.58874e-18 
  5929.7637   1.07219e-17 
  5930.9185   3.50686e-18 
  5932.0737   3.49858e-18 
  5933.2285   8.42219e-18 
  5934.3838   1.07411e-17 
  5935.5386   2.62966e-18 
  5936.6938   7.28369e-18 
  5937.8486   3.69972e-18 
  5939.0039   4.88341e-18 
  5940.1592   5.19688e-18 
  5941.3145   3.96446e-18 
  5942.4697   4.27113e-18 
   5943.625   4.90982e-18 
  5944.7803    5.7379e-18 
  5945.9355   3.58535e-18 
  5947.0908   5.15555e-18 
  5948.2461   1.43125e-18 
  5949.4014   4.87839e-18 
  5950.5571   6.89491e-18 
  5951.7124   2.25459e-18 
  5952.8682   8.12207e-18 
  5954.0239  -6.75708e-19 
  5955.1792   1.59043e-18 
   5956.335   6.59465e-18 
  5957.4907   4.55023e-18 
  5958.6465   3.07307e-18 
  5959.8022  -1.58969e-18 
   5960.958   3.10882e-18 
  5962.1138   6.58567e-18 
  5963.2695   1.89091e-18 
  5964.4253   4.68403e-18 
  5965.5815   1.43851e-18 
  5966.7373  -9.28724e-19 
  5967.8931    4.9729e-18 
  5969.0493    4.6815e-18 
  5970.2056   6.47411e-18 
  5971.3613   5.22207e-18 
  5972.5176   8.28283e-18 
  5973.6738    2.8773e-18 
  5974.8301   1.95591e-18 
  5975.9863   8.48791e-18 
  5977.1426   1.06119e-17 
  5978.2988   7.82645e-18 
  5979.4551   3.58918e-18 
  5980.6113   4.80747e-18 
  5981.7676   8.51259e-19 
  5982.9243   5.36105e-18 
  5984.0806   4.42003e-18 
  5985.2373   1.89997e-18 
   5986.394   3.41095e-18 
  5987.5503   5.53358e-18 
   5988.707   5.00046e-18 
  5989.8638   3.12516e-18 
  5991.0205   6.79346e-18 
  5992.1768   2.39298e-18 
  5993.3335    6.8525e-18 
  5994.4907   2.78546e-18 
  5995.6475   3.92732e-18 
  5996.8042   1.30717e-17 
  5997.9609    6.3732e-18 
  5999.1182   2.71507e-18 
  6000.2749   6.52923e-18 
  6001.4321    4.0918e-18 
  6002.5889   7.86146e-18 
  6003.7461   4.32266e-18 
  6004.9033   5.45908e-18 
  6006.0601   8.41768e-18 
  6007.2173   3.74306e-20 
  6008.3745   3.16296e-18 
  6009.5317   6.42196e-18 
   6010.689   3.29176e-18 
  6011.8462   5.63199e-18 
  6013.0039   3.26011e-18 
  6014.1611   6.10598e-19 
  6015.3184   5.32643e-18 
  6016.4761   5.21737e-18 
  6017.6333   4.34843e-18 
   6018.791   6.72425e-18 
  6019.9487   1.39418e-18 
   6021.106   2.45347e-18 
  6022.2637   4.43772e-18 
  6023.4214   3.30354e-18 
  6024.5791   6.65665e-18 
  6025.7368   5.74809e-18 
  6026.8945   2.61023e-18 
  6028.0522   5.34177e-18 
    6029.21   4.31392e-18 
  6030.3677   6.52106e-18 
  6031.5259   6.14573e-18 
  6032.6836    6.4474e-18 
  6033.8418   8.37372e-18 
  6034.9995   6.59552e-18 
  6036.1577   6.08404e-18 
  6037.3159   5.95542e-18 
  6038.4741   6.88758e-18 
  6039.6323   2.40196e-18 
    6040.79   5.18623e-18 
  6041.9482   1.51487e-18 
  6043.1069   2.35539e-18 
  6044.2651   4.24081e-18 
  6045.4233   1.49809e-18 
  6046.5815    3.8578e-18 
  6047.7402   3.43457e-18 
  6048.8984   3.07009e-18 
  6050.0571   1.43419e-18 
  6051.2153   1.28378e-18 
   6052.374   2.39417e-18 
  6053.5322   2.36872e-18 
  6054.6909   3.28895e-18 
  6055.8496   3.83788e-18 
  6057.0083   3.04253e-18 
   6058.167   1.82653e-18 
  6059.3257  -8.85476e-19 
  6060.4844   2.93077e-18 
  6061.6431   4.63936e-18 
  6062.8022   5.41585e-18 
  6063.9609   2.91435e-18 
  6065.1201   6.92572e-18 
  6066.2788   5.07131e-18 
   6067.438    -1.169e-18 
  6068.5967   3.67907e-18 
  6069.7559   3.59735e-18 
   6070.915   2.99111e-18 
  6072.0742   4.13492e-18 
  6073.2334   1.87322e-18 
  6074.3926   -1.9523e-18 
  6075.5518   3.73883e-18 
  6076.7109  -9.27673e-19 
  6077.8701   2.99908e-18 
  6079.0293   5.27145e-18 
   6080.189   2.71264e-18 
  6081.3481   3.70018e-18 
  6082.5078   1.92107e-18 
   6083.667   6.80095e-18 
  6084.8267   3.24736e-18 
  6085.9863    5.1424e-18 
   6087.146    5.3334e-18 
  6088.3052   7.16058e-18 
  6089.4648   7.00093e-18 
  6090.6245   4.42645e-18 
  6091.7842   6.38102e-18 
  6092.9443   5.04149e-18 
   6094.104   2.47051e-18 
  6095.2637   1.57746e-18 
  6096.4238   4.86969e-18 
  6097.5835   4.77281e-18 
  6098.7432   2.81311e-18 
  6099.9033   1.41002e-18 
  6101.0635   5.59713e-18 
  6102.2236   4.24012e-18 
  6103.3833   4.74408e-18 
  6104.5435   6.00108e-19 
  6105.7036   5.20865e-18 
  6106.8638   5.09904e-18 
  6108.0239   4.49389e-18 
  6109.1841   6.32371e-18 
  6110.3447    7.1811e-18 
  6111.5049   1.84242e-18 
  6112.6655    4.3988e-18 
  6113.8257   9.08843e-18 
  6114.9863   5.31629e-18 
  6116.1465   5.00778e-18 
  6117.3071   1.53546e-18 
  6118.4673   5.27598e-18 
  6119.6279   3.44391e-18 
  6120.7886    8.5447e-19 
  6121.9492   1.55479e-18 
  6123.1099   4.54755e-18 
  6124.2705   4.49564e-18 
  6125.4316   2.04071e-18 
  6126.5923   4.26133e-18 
  6127.7529   3.21287e-18 
  6128.9136   2.13387e-18 
  6130.0747  -4.23196e-19 
  6131.2358   8.60128e-18 
  6132.3965    7.0197e-18 
  6133.5576   4.25201e-18 
  6134.7183    1.4001e-18 
  6135.8794   7.91264e-18 
  6137.0405   1.56052e-18 
  6138.2017    6.5248e-18 
  6139.3628   6.78114e-18 
  6140.5239   4.39947e-18 
  6141.6851   6.57345e-18 
  6142.8467   1.32642e-18 
  6144.0078   2.60788e-18 
  6145.1694   5.13594e-18 
  6146.3306   9.67926e-19 
  6147.4922   1.80103e-18 
  6148.6533    7.3402e-18 
  6149.8149   9.36414e-18 
  6150.9766   3.76537e-18 
  6152.1377   1.44616e-18 
  6153.2993   2.96043e-19 
  6154.4609   4.50817e-18 
  6155.6226   3.82719e-18 
  6156.7847    1.3255e-18 
  6157.9463   6.46205e-18 
  6159.1079    3.3382e-18 
  6160.2695    2.9091e-18 
  6161.4316   5.29998e-18 
  6162.5933   1.08285e-18 
  6163.7554   2.27905e-18 
   6164.917   6.74736e-18 
  6166.0791   3.62322e-18 
  6167.2412   3.05351e-18 
  6168.4033   4.69082e-18 
  6169.5654   3.20588e-18 
  6170.7275   9.24461e-19 
  6171.8896   7.49293e-18 
  6173.0518   2.68471e-18 
  6174.2139   2.12518e-18 
   6175.376   3.72322e-18 
  6176.5386   2.31991e-18 
  6177.7007   7.16339e-18 
  6178.8633    3.0043e-18 
  6180.0254   5.31229e-18 
   6181.188    7.9485e-18 
  6182.3506   1.09118e-18 
  6183.5127   5.66542e-18 
  6184.6753   5.91704e-18 
  6185.8379   6.48418e-18 
  6187.0005   3.58327e-18 
  6188.1631      4.39e-18 
  6189.3257   4.27833e-18 
  6190.4888    8.3447e-18 
  6191.6514   4.17729e-18 
   6192.814   2.50217e-18 
  6193.9771   2.36974e-18 
  6195.1396  -6.92118e-21 
  6196.3027   1.27909e-18 
  6197.4658   1.34697e-18 
  6198.6284   3.71295e-18 
  6199.7915   3.12184e-18 
  6200.9546    2.1188e-19 
  6202.1177   3.49787e-19 
  6203.2808   5.14657e-18 
  6204.4438   2.92296e-18 
  6205.6069   3.90922e-18 
    6206.77   2.09019e-18 
  6207.9336   3.42027e-18 
  6209.0967   4.57333e-18 
  6210.2598   2.98868e-18 
  6211.4233   6.28509e-18 
  6212.5869   3.26879e-18 
    6213.75   1.92092e-18 
  6214.9136   3.01194e-18 
  6216.0771  -2.37348e-19 
  6217.2407   4.13924e-18 
  6218.4043   2.33251e-18 
  6219.5674   3.43517e-18 
  6220.7314   8.10147e-18 
   6221.895   3.10616e-18 
  6223.0586    2.3615e-18 
  6224.2222   5.80482e-19 
  6225.3862   4.14127e-18 
  6226.5498   2.72566e-18 
  6227.7139   3.90999e-18 
  6228.8774   5.87104e-18 
  6230.0415   3.50691e-18 
  6231.2056     2.555e-18 
  6232.3696    5.0496e-18 
  6233.5332   3.63174e-18 
  6234.6973   2.91415e-18 
  6235.8613  -2.72461e-18 
  6237.0254   1.38219e-18 
  6238.1899   2.87623e-18 
   6239.354   7.68016e-18 
  6240.5181   4.71406e-18 
  6241.6826   6.36711e-18 
  6242.8467   4.27275e-18 
  6244.0112   1.47125e-18 
  6245.1753   2.31398e-18 
  6246.3398   4.10774e-18 
  6247.5044   2.46392e-18 
  6248.6685   5.83118e-18 
   6249.833   7.68795e-19 
  6250.9976   5.45317e-18 
  6252.1621   2.98266e-18 
  6253.3267   5.18293e-18 
  6254.4917   2.85038e-18 
  6255.6562   3.40591e-18 
  6256.8208   5.05194e-18 
  6257.9858    6.2888e-18 
  6259.1504   8.46792e-18 
  6260.3154   1.50039e-18 
    6261.48   2.26504e-18 
   6262.645   2.02382e-18 
  6263.8101   2.95331e-18 
  6264.9746   4.81232e-18 
  6266.1396    1.5695e-18 
  6267.3047   4.26029e-18 
  6268.4697   3.55835e-18 
  6269.6348    2.2117e-18 
  6270.8003   4.45928e-18 
  6271.9653    4.1886e-18 
  6273.1304   2.59566e-18 
  6274.2959   4.89988e-18 
  6275.4609   5.86425e-18 
  6276.6265    1.9388e-18 
  6277.7915   7.93539e-18 
   6278.957   2.55699e-18 
  6280.1226   6.89391e-18 
  6281.2881   4.86141e-18 
  6282.4531   4.43557e-18 
  6283.6187   3.36427e-18 
  6284.7842   1.39598e-18 
  6285.9502   4.65508e-18 
  6287.1157   5.48048e-18 
  6288.2812   5.72746e-18 
  6289.4468   6.40567e-18 
  6290.6128   8.04843e-18 
  6291.7783   4.40292e-18 
  6292.9443   1.86134e-18 
  6294.1099   4.42222e-18 
  6295.2759   4.25318e-18 
  6296.4419   1.28939e-18 
  6297.6079   1.62408e-18 
  6298.7739   6.26182e-18 
  6299.9399  -1.99862e-17 
   6301.106  -1.49776e-17 
   6302.272  -1.00837e-17 
   6303.438   8.49333e-18 
   6304.604   9.91769e-18 
  6305.7705  -4.12217e-18 
  6306.9365   8.02214e-18 
  6308.1025   5.78335e-18 
   6309.269   5.54996e-18 
  6310.4351   2.11575e-18 
  6311.6016   8.59971e-19 
  6312.7681   2.06003e-18 
  6313.9346   6.87147e-18 
  6315.1011   1.98318e-18 
  6316.2676   3.08852e-18 
  6317.4341   5.89891e-18 
  6318.6006   3.96686e-18 
  6319.7671   3.31985e-18 
  6320.9336   2.77765e-18 
  6322.1006   3.34555e-18 
  6323.2671    5.0411e-18 
  6324.4336   3.71156e-19 
  6325.6006   2.59378e-18 
  6326.7676   2.85459e-18 
  6327.9341    7.3736e-18 
  6329.1011   1.24975e-18 
  6330.2681  -5.79061e-19 
  6331.4351  -1.21237e-19 
  6332.6021   4.39637e-18 
   6333.769   4.68983e-18 
   6334.936   3.36199e-18 
   6336.103    3.7935e-18 
    6337.27   1.98911e-18 
  6338.4375   1.19369e-18 
  6339.6045   5.90564e-18 
   6340.772   4.94935e-18 
   6341.939   6.35992e-18 
  6343.1064   3.46399e-18 
  6344.2739   4.41439e-18 
  6345.4409    6.1423e-18 
  6346.6084   2.44794e-18 
  6347.7759    2.3613e-18 
  6348.9434   2.29924e-18 
  6350.1108   5.84286e-19 
  6351.2783  -5.47486e-19 
  6352.4458   5.61825e-18 
  6353.6133   4.60591e-19 
  6354.7812   2.00978e-18 
  6355.9487   1.07413e-18 
  6357.1167   3.81304e-18 
  6358.2842   4.17494e-18 
  6359.4521  -2.95607e-18 
  6360.6201  -1.99556e-18 
  6361.7876    1.5715e-18 
  6362.9556   9.10842e-18 
  6364.1235    -1.864e-19 
  6365.2915     8.593e-18 
  6366.4595  -9.26956e-19 
  6367.6274   2.56591e-18 
  6368.7954   5.42568e-18 
  6369.9634   1.22913e-18 
  6371.1318   9.16692e-19 
  6372.2998   5.96219e-18 
  6373.4683   3.35699e-18 
  6374.6362   3.50374e-18 
  6375.8047    2.4882e-18 
  6376.9727   1.86799e-18 
  6378.1411   3.88363e-18 
  6379.3096   5.30412e-19 
   6380.478   6.38237e-19 
  6381.6465   2.18048e-18 
  6382.8149   3.27578e-18 
  6383.9834   3.88651e-18 
  6385.1519   2.64429e-18 
  6386.3203    4.5201e-18 
  6387.4888   6.43513e-18 
  6388.6577   4.80311e-18 
  6389.8262   4.16199e-18 
  6390.9951   3.09525e-18 
  6392.1636   2.29373e-18 
  6393.3325   1.81994e-18 
  6394.5015   2.11391e-18 
  6395.6704   4.51902e-18 
  6396.8389     3.292e-18 
  6398.0078   2.87477e-18 
  6399.1768   3.92728e-18 
  6400.3462   -1.9591e-19 
  6401.5151   1.72702e-18 
  6402.6841   2.11365e-18 
   6403.853   1.48233e-18 
   6405.022    1.4119e-18 
  6406.1914   1.73562e-18 
  6407.3608   2.37759e-18 
  6408.5298   4.58639e-18 
  6409.6992   4.76183e-18 
  6410.8682   6.35178e-18 
  6412.0376     3.802e-18 
   6413.207    1.2422e-19 
  6414.3765   4.13494e-18 
  6415.5459   2.45053e-18 
  6416.7153   1.48774e-19 
  6417.8848   5.79156e-19 
  6419.0542    1.4396e-18 
  6420.2241   4.50197e-18 
  6421.3936   4.05975e-18 
   6422.563   1.64091e-18 
  6423.7329   1.82185e-18 
  6424.9023   4.35952e-18 
  6426.0723   4.81154e-18 
  6427.2422   5.18935e-18 
  6428.4116    2.3905e-18 
  6429.5815   2.44878e-18 
  6430.7515    9.6318e-19 
  6431.9214   1.43219e-18 
  6433.0913   1.55705e-18 
  6434.2612   5.29823e-18 
  6435.4316   4.93919e-18 
  6436.6016   4.13868e-18 
  6437.7715   5.99019e-18 
  6438.9414    3.5434e-18 
  6440.1118   7.98542e-19 
  6441.2817   2.58371e-18 
  6442.4521    1.6302e-18 
  6443.6226  -1.77568e-18 
  6444.7925   6.93428e-19 
  6445.9629   3.87668e-18 
  6447.1333    3.5707e-18 
  6448.3037   2.17554e-18 
  6449.4741   1.13525e-18 
  6450.6445    3.3673e-18 
  6451.8149    4.9121e-18 
  6452.9858   4.87042e-18 
  6454.1562   2.24899e-18 
  6455.3267   2.97119e-18 
  6456.4971   3.13439e-18 
   6457.668   1.02751e-18 
  6458.8389   2.02751e-18 
  6460.0093   3.38884e-18 
  6461.1802   1.29322e-19 
  6462.3511   2.31931e-18 
   6463.522   4.42767e-18 
  6464.6924   2.43986e-18 
  6465.8633    3.6971e-18 
  6467.0342    2.2443e-18 
  6468.2056   2.99005e-18 
  6469.3765   2.76906e-18 
  6470.5474    1.9446e-19 
  6471.7183   1.25861e-18 
  6472.8896    2.0401e-18 
  6474.0605   1.57947e-18 
  6475.2319   2.58729e-18 
  6476.4028   7.23004e-19 
  6477.5742   3.63931e-18 
  6478.7456   2.11924e-18 
   6479.917   3.54079e-18 
  6481.0884   2.67665e-18 
  6482.2593   3.51454e-18 
  6483.4307   2.32547e-18 
  6484.6025   1.94481e-18 
  6485.7739   1.80254e-18 
  6486.9453   3.32062e-18 
  6488.1167   1.50734e-18 
  6489.2886   4.72486e-18 
    6490.46   8.40482e-19 
  6491.6318   6.10927e-18 
  6492.8032   2.69338e-18 
  6493.9751   2.97442e-18 
  6495.1465   8.15158e-18 
  6496.3184    4.1976e-18 
  6497.4902   4.64082e-18 
  6498.6621   2.37075e-19 
   6499.834   2.90786e-18 
  6501.0059   2.42788e-18 
  6502.1777   2.47527e-18 
  6503.3496   2.48435e-18 
   6504.522  -2.29224e-19 
  6505.6938   5.23061e-18 
  6506.8657   3.69421e-18 
  6508.0381   3.29462e-18 
    6509.21   5.13897e-18 
  6510.3823   3.61131e-18 
  6511.5547   6.14303e-18 
  6512.7266   3.08516e-18 
  6513.8989   5.07505e-18 
  6515.0713   3.50077e-18 
  6516.2437   5.60919e-18 
   6517.416   3.97088e-19 
  6518.5884   3.89131e-18 
  6519.7607   2.54925e-18 
  6520.9331    6.7911e-19 
   6522.106    2.3127e-18 
  6523.2783   3.13742e-18 
  6524.4507   4.36525e-18 
  6525.6235   4.13937e-18 
  6526.7964   1.25358e-18 
  6527.9688   5.03547e-18 
  6529.1416    2.9524e-18 
  6530.3145   3.08494e-18 
  6531.4873   5.04829e-19 
  6532.6597  -1.40552e-18 
  6533.8325   3.63006e-18 
  6535.0054   3.08591e-18 
  6536.1787   3.16172e-18 
  6537.3516   1.32133e-18 
  6538.5244   2.67871e-18 
  6539.6973     1.863e-18 
  6540.8706      1.96e-18 
  6542.0435   3.47928e-18 
  6543.2168   3.77851e-18 
  6544.3896   1.78059e-18 
   6545.563   2.34937e-18 
  6546.7363   3.66494e-18 
  6547.9092   4.35724e-18 
  6549.0825   5.34456e-19 
  6550.2559   7.36778e-19 
  6551.4292   4.62533e-19 
  6552.6025   1.72047e-18 
  6553.7759   1.88633e-18 
  6554.9492   2.42921e-18 
  6556.1226   1.39494e-18 
  6557.2964   5.63576e-18 
  6558.4697   3.93095e-18 
  6559.6436   5.37344e-18 
  6560.8169   5.24343e-18 
  6561.9907   5.11981e-18 
  6563.1641   2.67065e-18 
  6564.3379  -1.40386e-18 
  6565.5117   5.90812e-18 
  6566.6855   5.99404e-18 
  6567.8594   3.82152e-18 
  6569.0332   3.33023e-18 
   6570.207   2.38926e-18 
  6571.3809   3.87363e-18 
  6572.5547    5.4807e-18 
  6573.7285   1.21922e-18 
  6574.9028   3.44055e-18 
  6576.0767   6.79729e-18 
   6577.251   6.25432e-18 
  6578.4248   8.03106e-18 
  6579.5991   6.68419e-18 
  6580.7729   8.72439e-18 
  6581.9473   5.98189e-18 
  6583.1216   4.75523e-18 
  6584.2959   5.49018e-18 
  6585.4702   9.46274e-18 
  6586.6445   3.79162e-18 
  6587.8188   3.68073e-18 
  6588.9932   3.85452e-18 
  6590.1675   4.26044e-18 
  6591.3418   6.69468e-18 
  6592.5166   5.05681e-18 
  6593.6909    3.5394e-18 
  6594.8657   4.57048e-18 
    6596.04    6.1365e-18 
  6597.2148   5.87162e-18 
  6598.3892   5.80269e-18 
   6599.564   1.94109e-18 
  6600.7388   2.81034e-18 
  6601.9136   5.44122e-18 
  6603.0884   4.06524e-18 
  6604.2632   3.50702e-18 
   6605.438   5.86011e-18 
  6606.6128   4.65056e-18 
  6607.7876   4.88895e-18 
  6608.9624    4.7632e-18 
  6610.1377   4.28745e-18 
  6611.3125   5.17596e-18 
  6612.4873   4.86812e-18 
  6613.6626   1.25356e-18 
  6614.8379   6.32313e-18 
  6616.0127   4.04636e-18 
   6617.188   4.39938e-18 
  6618.3633    7.0552e-19 
  6619.5386   5.34453e-18 
  6620.7139   6.98435e-18 
  6621.8887   3.30294e-18 
  6623.0645   6.48312e-18 
  6624.2397   5.67905e-18 
   6625.415   2.16122e-18 
  6626.5903   4.04756e-18 
  6627.7661   6.43766e-18 
  6628.9414   5.10591e-18 
  6630.1167   2.65839e-18 
  6631.2925   3.83697e-18 
  6632.4678   6.43004e-18 
  6633.6436   4.36027e-18 
  6634.8193   3.76696e-18 
  6635.9951   2.29709e-18 
  6637.1704   6.18032e-18 
  6638.3462   1.06221e-18 
   6639.522    5.5744e-18 
  6640.6978   6.19252e-18 
   6641.874   2.59891e-18 
  6643.0498   5.41552e-18 
  6644.2256   5.21036e-18 
  6645.4014   3.64664e-18 
  6646.5776   3.90942e-18 
  6647.7534   3.46463e-18 
  6648.9292   5.15509e-18 
  6650.1055    4.4222e-18 
  6651.2817   3.66656e-18 
  6652.4575   4.73664e-18 
  6653.6338   4.69574e-18 
  6654.8101   1.91081e-18 
  6655.9863    4.0578e-18 
  6657.1626   2.27135e-18 
  6658.3389   2.36883e-18 
  6659.5151   7.14035e-18 
  6660.6914   2.34207e-18 
  6661.8677   4.35533e-18 
  6663.0444   2.67747e-18 
  6664.2207   9.87789e-19 
   6665.397   4.68064e-18 
  6666.5737   4.01524e-18 
    6667.75   5.24991e-18 
  6668.9268   5.62907e-18 
  6670.1035   2.95957e-18 
  6671.2798   2.65365e-18 
  6672.4565   5.43801e-18 
  6673.6333   3.40407e-18 
  6674.8101   1.89584e-18 
  6675.9868   4.38924e-18 
  6677.1636   1.78887e-18 
  6678.3403   4.52984e-18 
  6679.5171   4.70027e-18 
  6680.6943   2.43393e-18 
  6681.8711   6.30007e-18 
  6683.0479   2.65695e-18 
  6684.2251   2.94857e-18 
  6685.4019   3.69405e-18 
  6686.5791   4.32556e-18 
  6687.7559   1.77877e-18 
  6688.9331   2.70795e-18 
  6690.1104   4.31576e-18 
  6691.2876   2.04883e-18 
  6692.4648   4.20816e-18 
  6693.6421   5.07943e-18 
  6694.8193   4.86739e-18 
  6695.9966   2.96993e-18 
  6697.1738   4.33955e-18 
  6698.3511    3.8696e-18 
  6699.5283   6.28889e-18 
  6700.7061   3.69128e-18 
  6701.8833    1.9377e-18 
   6703.061   7.13528e-18 
  6704.2383   5.72743e-18 
   6705.416   2.38616e-18 
  6706.5933   2.04578e-18 
   6707.771   5.83563e-18 
  6708.9487   3.43851e-18 
  6710.1265     6.631e-18 
  6711.3042    2.1741e-18 
  6712.4819   2.81463e-18 
  6713.6597   5.41505e-18 
  6714.8374   3.56437e-18 
  6716.0151   5.24998e-18 
  6717.1929  -3.63728e-19 
  6718.3711   3.25858e-18 
  6719.5488   5.30485e-18 
  6720.7266   3.12066e-18 
  6721.9048   5.08647e-18 
   6723.083   3.42224e-18 
  6724.2607   5.14159e-18 
   6725.439   2.41987e-18 
  6726.6172   2.86218e-18 
  6727.7949    3.8545e-18 
  6728.9731   3.21728e-18 
  6730.1514   2.94569e-18 
  6731.3296   5.94391e-18 
  6732.5078   3.07932e-18 
  6733.6865   2.57645e-18 
  6734.8647     6.384e-18 
   6736.043   2.83962e-18 
  6737.2212   1.82277e-18 
  6738.3999   3.14705e-18 
  6739.5781    3.5417e-18 
  6740.7568   2.93856e-18 
  6741.9351   1.87616e-18 
  6743.1138   4.83412e-18 
   6744.292   4.03839e-18 
  6745.4707   3.76957e-18 
  6746.6494   5.74091e-18 
  6747.8281   5.97401e-18 
  6749.0068   2.05671e-18 
  6750.1855   3.15499e-18 
  6751.3643   2.62902e-18 
   6752.543   2.19624e-18 
  6753.7217   3.22673e-18 
  6754.9009   3.68517e-18 
  6756.0796   3.12978e-18 
  6757.2583   4.63668e-18 
  6758.4375   4.73932e-18 
  6759.6162   4.27328e-18 
  6760.7954   6.01569e-18 
  6761.9746   2.53391e-18 
  6763.1533   6.56125e-18 
  6764.3325   4.21998e-19 
  6765.5117    9.0674e-19 
  6766.6909   4.59792e-18 
  6767.8701   5.19128e-18 
  6769.0493   4.45522e-18 
  6770.2285   5.57544e-18 
  6771.4077   3.80596e-18 
  6772.5869   3.70135e-18 
  6773.7661   2.47627e-18 
  6774.9458   5.74614e-18 
   6776.125   3.63787e-18 
  6777.3042   3.67734e-18 
  6778.4839   2.93434e-18 
  6779.6636   2.51584e-18 
  6780.8428    2.2204e-18 
  6782.0225   3.26033e-18 
  6783.2021   4.58157e-18 
  6784.3818    2.1437e-18 
   6785.561   3.37503e-18 
  6786.7407   4.69813e-18 
  6787.9204   3.54845e-18 
  6789.1001    2.9576e-18 
  6790.2798   2.55423e-18 
    6791.46   3.74726e-18 
  6792.6396   2.32157e-18 
  6793.8193   2.35511e-18 
  6794.9995   1.34797e-18 
  6796.1792   5.05146e-18 
  6797.3594   3.99581e-18 
  6798.5391   2.98137e-18 
  6799.7192   1.88547e-18 
  6800.8989   1.69556e-18 
  6802.0791   2.87092e-18 
  6803.2593   3.32474e-19 
  6804.4395   4.26531e-18 
  6805.6196   3.38634e-18 
  6806.7998   3.49801e-18 
    6807.98    1.6952e-18 
  6809.1602   3.25916e-18 
  6810.3403   3.23625e-18 
  6811.5205   2.90067e-18 
  6812.7012   4.29088e-18 
  6813.8813   4.17022e-18 
  6815.0615   5.65579e-18 
  6816.2422   4.37406e-18 
  6817.4224   3.81543e-18 
   6818.603   5.83178e-18 
  6819.7837   3.37018e-18 
  6820.9639   3.62052e-18 
  6822.1445   3.90287e-18 
  6823.3252   3.39955e-18 
  6824.5059    1.7236e-18 
  6825.6865    2.1585e-18 
  6826.8672   1.91088e-18 
  6828.0479   7.15711e-18 
  6829.2285   5.82429e-18 
  6830.4092   7.52542e-18 
  6831.5903   3.29995e-18 
   6832.771   5.50698e-18 
  6833.9517   4.35562e-18 
  6835.1328   5.26631e-18 
  6836.3135   2.18031e-18 
  6837.4946   3.97232e-18 
  6838.6753   5.24143e-18 
  6839.8564   3.94184e-18 
  6841.0376   4.30511e-18 
  6842.2188   2.38149e-18 
  6843.3999   1.28048e-18 
  6844.5806  -6.74479e-19 
  6845.7622    4.5085e-18 
  6846.9429   1.58155e-18 
  6848.1245   1.23578e-18 
  6849.3057   3.04211e-18 
  6850.4868   3.94864e-18 
   6851.668   4.96752e-18 
  6852.8496   4.13107e-18 
  6854.0308   1.46273e-18 
  6855.2124   5.51813e-18 
  6856.3936   4.15562e-18 
  6857.5752   5.49998e-18 
  6858.7563   -4.7991e-19 
   6859.938   6.52684e-18 
  6861.1196   2.51859e-19 
  6862.3013   2.21174e-18 
  6863.4829   7.49423e-18 
  6864.6641   3.00594e-18 
  6865.8457   7.34656e-19 
  6867.0278    4.5168e-18 
  6868.2095   6.06062e-18 
  6869.3911   5.81181e-18 
  6870.5728   5.72153e-18 
  6871.7544   4.14309e-19 
  6872.9365   3.24479e-18 
  6874.1182   1.66505e-18 
  6875.3003    2.3729e-18 
  6876.4819   6.50262e-18 
  6877.6641   4.05674e-18 
  6878.8457   5.78937e-18 
  6880.0278   3.13585e-18 
    6881.21   9.07426e-18 
  6882.3921   4.26908e-18 
  6883.5742   2.51715e-18 
  6884.7563   7.04796e-18 
  6885.9385   5.65603e-18 
  6887.1206   2.71669e-18 
  6888.3027   4.01568e-18 
  6889.4849   3.34271e-18 
   6890.667   3.67758e-18 
  6891.8496    2.9545e-18 
  6893.0317   5.33174e-18 
  6894.2139   2.49322e-18 
  6895.3965   2.89941e-19 
  6896.5786   3.40011e-18 
  6897.7612  -4.55306e-19 
  6898.9438    5.1316e-18 
   6900.126    5.8312e-18 
  6901.3086   2.66434e-18 
  6902.4912   3.84846e-18 
  6903.6738   1.46086e-18 
  6904.8564   6.30049e-18 
  6906.0391    6.4259e-18 
  6907.2217   8.29335e-18 
  6908.4043   4.45257e-18 
  6909.5869   5.81626e-18 
    6910.77   5.88623e-18 
  6911.9526   1.95721e-18 
  6913.1353   1.37266e-18 
  6914.3184   6.13641e-18 
   6915.501    1.6877e-18 
  6916.6841   3.53282e-18 
  6917.8667    5.4261e-18 
  6919.0498   4.80019e-18 
  6920.2329    4.4214e-18 
  6921.4155   3.65173e-18 
  6922.5986   2.24937e-18 
  6923.7817   1.63775e-18 
  6924.9648   2.28915e-18 
  6926.1479   1.73515e-18 
  6927.3311   4.09623e-19 
  6928.5142   3.77376e-18 
  6929.6973    2.6143e-18 
  6930.8804    5.1778e-18 
   6932.064   2.66822e-18 
  6933.2471   1.70205e-18 
  6934.4302   4.32623e-18 
  6935.6138   3.48982e-18 
  6936.7969   4.35015e-18 
  6937.9805   2.37441e-18 
  6939.1641   1.44048e-18 
  6940.3472   2.38749e-18 
  6941.5308   3.69969e-18 
  6942.7144   5.58803e-18 
  6943.8979   3.45206e-18 
  6945.0815   4.21629e-18 
  6946.2651   5.45766e-18 
  6947.4487   1.44834e-18 
  6948.6323   2.46828e-18 
  6949.8159   3.27264e-18 
  6950.9995   1.27947e-18 
  6952.1831   5.29624e-18 
  6953.3672   5.98523e-18 
  6954.5508   3.40546e-18 
  6955.7344   5.52825e-18 
  6956.9185   7.61121e-18 
  6958.1025   3.60883e-18 
  6959.2861   4.11797e-18 
  6960.4702   1.79814e-18 
  6961.6538    4.7707e-18 
  6962.8379  -3.37733e-19 
   6964.022   3.58369e-18 
  6965.2061   6.77525e-18 
  6966.3901   2.95691e-19 
  6967.5742   3.26327e-18 
  6968.7583   5.01947e-18 
  6969.9424   2.42233e-18 
  6971.1265   5.24683e-18 
  6972.3105   3.48754e-18 
  6973.4951   3.21414e-18 
  6974.6792   6.66161e-18 
  6975.8633   2.00655e-18 
  6977.0479  -4.78832e-19 
  6978.2319   3.60303e-18 
  6979.4165   3.64531e-18 
  6980.6006    3.3799e-18 
  6981.7852   8.90228e-19 
  6982.9697   3.81285e-18 
  6984.1543   3.43125e-18 
  6985.3384   2.26387e-18 
  6986.5229   4.00209e-18 
  6987.7075   1.87742e-18 
  6988.8921   2.11846e-18 
  6990.0767   3.30987e-18 
  6991.2617    3.2154e-18 
  6992.4463   4.02688e-18 
  6993.6309   5.45702e-18 
  6994.8154   1.37553e-18 
  6996.0005   1.87861e-18 
  6997.1851   2.41947e-18 
  6998.3696   4.07522e-18 
  6999.5547   4.01354e-18 
  7000.7393   4.48413e-18 
  7001.9243   1.52921e-18 
  7003.1094   1.13962e-18 
  7004.2944   5.68295e-18 
   7005.479   1.57904e-18 
  7006.6641   3.87316e-18 
  7007.8491   4.86053e-18 
  7009.0342   5.95254e-18 
  7010.2192     3.064e-18 
  7011.4043   1.83036e-18 
  7012.5894   1.83382e-18 
  7013.7744   6.26552e-18 
  7014.9595   6.69468e-18 
   7016.145    9.2986e-19 
  7017.3301   5.18256e-18 
  7018.5156   1.92728e-18 
  7019.7007   3.84735e-18 
  7020.8857   2.59241e-18 
  7022.0713   4.94488e-18 
  7023.2568   4.10619e-18 
  7024.4419   3.39882e-18 
  7025.6274   7.51982e-18 
   7026.813   6.70938e-18 
  7027.9985    6.4541e-18 
  7029.1836   4.38464e-18 
  7030.3691   3.99417e-18 
  7031.5547   3.22744e-18 
  7032.7402   3.23133e-18 
  7033.9258   6.04484e-18 
  7035.1118   7.04411e-18 
  7036.2974   7.45523e-19 
  7037.4829   5.47938e-18 
  7038.6685   5.69071e-18 
  7039.8545   4.82958e-18 
    7041.04   2.53718e-18 
  7042.2261   2.70801e-18 
  7043.4116   3.86214e-18 
  7044.5977   2.24645e-18 
  7045.7832   3.51711e-18 
  7046.9692   2.75414e-18 
  7048.1553   6.66203e-18 
  7049.3413   5.61559e-18 
  7050.5273    3.3438e-18 
  7051.7129    3.7804e-18 
  7052.8989   4.74501e-18 
   7054.085   4.42492e-18 
   7055.271   5.57114e-18 
  7056.4575   4.34263e-18 
  7057.6436    3.6744e-18 
  7058.8296    3.5994e-18 
  7060.0156   3.81333e-18 
  7061.2017   3.77265e-18 
  7062.3882   2.77971e-18 
  7063.5742   6.51331e-18 
  7064.7607   4.22563e-18 
  7065.9468     1.481e-18 
  7067.1333   2.24804e-18 
  7068.3198   2.20541e-18 
  7069.5059   2.68139e-18 
  7070.6924   4.03786e-18 
  7071.8789   4.60563e-18 
  7073.0654   3.34435e-18 
   7074.252   5.28017e-18 
  7075.4385   1.97441e-18 
   7076.625   3.34466e-18 
  7077.8115    4.9978e-18 
   7078.998    5.9492e-18 
  7080.1846   2.95136e-18 
  7081.3711   3.33519e-18 
  7082.5581   2.56813e-18 
  7083.7446   2.69106e-18 
  7084.9316   3.52039e-18 
  7086.1182   5.97273e-18 
  7087.3047   8.82461e-18 
  7088.4917   4.10511e-18 
  7089.6787   5.04964e-18 
  7090.8652   5.29396e-18 
  7092.0522   9.69445e-19 
  7093.2393    4.7682e-18 
  7094.4258   3.29915e-18 
  7095.6128   4.57548e-18 
  7096.7998    3.9698e-18 
  7097.9868   3.84217e-18 
  7099.1738   3.94901e-18 
  7100.3608   3.47882e-18 
  7101.5483   3.48318e-18 
  7102.7354   5.78505e-18 
  7103.9224   2.32082e-18 
  7105.1094   2.88159e-18 
  7106.2969   2.99417e-18 
  7107.4839   3.18598e-18 
  7108.6709   5.15117e-18 
  7109.8584   4.59611e-18 
  7111.0454   5.32218e-18 
  7112.2329   3.91402e-18 
  7113.4204   2.54334e-18 
  7114.6074   4.62652e-18 
  7115.7949   4.53059e-18 
  7116.9824   5.55946e-18 
  7118.1699   3.05889e-18 
  7119.3574   4.97793e-18 
  7120.5449   4.90561e-18 
  7121.7324   5.26833e-18 
  7122.9199   2.51005e-18 
  7124.1074   7.47241e-18 
  7125.2949   5.49491e-18 
  7126.4824   5.67117e-18 
  7127.6704   2.92548e-18 
  7128.8579   3.79423e-18 
  7130.0454   5.51749e-18 
  7131.2334   2.98188e-18 
  7132.4209   4.98689e-18 
  7133.6089    3.9146e-18 
  7134.7964   4.32784e-18 
  7135.9844   7.81215e-18 
  7137.1719   3.66437e-18 
  7138.3599    5.3589e-18 
  7139.5479   3.52636e-18 
  7140.7358    6.5005e-18 
  7141.9238   4.56948e-18 
  7143.1118    7.2761e-18 
  7144.2998   3.65852e-18 
  7145.4878   5.31645e-18 
  7146.6758   4.35622e-18 
  7147.8638   4.48373e-18 
  7149.0518   6.35144e-18 
  7150.2397   4.45129e-18 
  7151.4282   3.87427e-18 
  7152.6162   2.41356e-18 
  7153.8042   5.30469e-18 
  7154.9927   2.96375e-18 
  7156.1807   5.27787e-18 
  7157.3691   5.04096e-18 
  7158.5571   4.45215e-18 
  7159.7456   4.06865e-18 
  7160.9341   5.96212e-18 
  7162.1221   6.92288e-18 
  7163.3105   8.89859e-18 
   7164.499   4.48015e-18 
  7165.6875   5.13116e-18 
   7166.876   6.08942e-18 
  7168.0645   5.48462e-18 
  7169.2529   4.62732e-18 
  7170.4414   4.56977e-18 
  7171.6299   5.74908e-18 
  7172.8184   4.22771e-18 
  7174.0073   5.53945e-18 
  7175.1958   5.65446e-18 
  7176.3843    4.6914e-18 
  7177.5732   8.16714e-18 
  7178.7617   7.03973e-18 
  7179.9507   8.05102e-18 
  7181.1392   3.56231e-18 
  7182.3281    7.6187e-18 
  7183.5166   3.86712e-18 
  7184.7056   4.18364e-18 
  7185.8945   4.94036e-18 
  7187.0835   3.29621e-18 
   7188.272   2.69863e-18 
  7189.4609   3.44767e-18 
  7190.6499   3.52988e-18 
  7191.8389   4.93751e-18 
  7193.0278   3.92476e-18 
  7194.2168   4.76318e-18 
  7195.4058   4.53396e-18 
  7196.5952   4.79623e-18 
  7197.7842   3.65428e-18 
  7198.9731    4.1623e-18 
  7200.1626   3.05335e-18 
  7201.3516   6.74214e-18 
  7202.5405   5.19747e-18 
    7203.73   5.46603e-18 
  7204.9189   2.00712e-18 
  7206.1084   5.63883e-18 
  7207.2974    4.4921e-18 
  7208.4868   6.34536e-18 
  7209.6763   4.90971e-18 
  7210.8657   5.63699e-18 
  7212.0547   5.76389e-18 
  7213.2441   5.25713e-18 
  7214.4336   4.59925e-18 
   7215.623   5.86124e-18 
  7216.8125    5.7723e-18 
   7218.002   6.21749e-18 
  7219.1914   6.69948e-18 
  7220.3809   4.12872e-18 
  7221.5708   5.60127e-18 
  7222.7603   6.11704e-18 
  7223.9497    7.0373e-18 
  7225.1396   4.80397e-18 
  7226.3291   7.62846e-18 
   7227.519   5.79736e-18 
  7228.7085   4.11631e-18 
  7229.8984    5.1832e-18 
  7231.0879   4.77606e-18 
  7232.2778   5.98716e-18 
  7233.4673   5.15659e-18 
  7234.6572   2.09606e-18 
  7235.8472   6.48682e-18 
  7237.0371   2.15664e-18 
  7238.2271   2.40064e-18 
   7239.417   3.67893e-18 
  7240.6069   7.42898e-18 
  7241.7969   6.15226e-18 
  7242.9868    7.3941e-18 
  7244.1768   6.27911e-18 
  7245.3667   1.09117e-17 
  7246.5566   1.05009e-17 
  7247.7466    5.2033e-18 
   7248.937   6.96773e-18 
   7250.127   2.68088e-18 
  7251.3169   7.44333e-18 
  7252.5073   7.46218e-18 
  7253.6973   5.75586e-18 
  7254.8877   7.68036e-18 
  7256.0776   7.73654e-18 
  7257.2681   4.38061e-18 
  7258.4585   5.88915e-18 
  7259.6489   9.51724e-18 
  7260.8389   8.54172e-18 
  7262.0293   8.87634e-18 
  7263.2197    6.4228e-18 
  7264.4102   9.54178e-18 
  7265.6006   1.17626e-17 
   7266.791   9.11127e-18 
  7267.9814   1.03634e-17 
  7269.1719   1.10013e-17 
  7270.3623   1.32268e-17 
  7271.5527   1.20013e-17 
  7272.7432   1.11752e-17 
  7273.9341   1.04055e-17 
  7275.1245   1.15746e-17 
  7276.3154   4.00574e-18 
  7277.5059   1.31786e-17 
  7278.6963   1.84687e-17 
  7279.8872   1.63693e-17 
  7281.0781   1.55759e-17 
  7282.2686   1.44412e-17 
  7283.4595    1.8001e-17 
  7284.6499   1.95887e-17 
  7285.8408   2.11691e-17 
  7287.0317   1.88013e-17 
  7288.2227   1.77239e-17 
  7289.4136     1.904e-17 
  7290.6045   1.91799e-17 
  7291.7954   2.13603e-17 
  7292.9863   1.99967e-17 
  7294.1772   1.97704e-17 
  7295.3682   1.97166e-17 
  7296.5591   2.42868e-17 
    7297.75   2.05215e-17 
  7298.9409   2.29871e-17 
  7300.1323    2.5214e-17 
  7301.3232   2.03963e-17 
  7302.5142   2.49128e-17 
  7303.7056    2.3432e-17 
  7304.8965   2.22195e-17 
  7306.0879   2.33408e-17 
  7307.2788   2.71337e-17 
  7308.4702    2.7259e-17 
  7309.6616   2.47403e-17 
   7310.853   3.08503e-17 
  7312.0439    2.3642e-17 
  7313.2354   2.78497e-17 
  7314.4268   3.47286e-17 
  7315.6182   3.81289e-17 
  7316.8096   3.68143e-17 
   7318.001   4.15006e-17 
  7319.1924   3.86548e-17 
  7320.3838   3.65587e-17 
  7321.5752   3.63287e-17 
  7322.7666   3.66849e-17 
   7323.958   3.51877e-17 
  7325.1494   3.73006e-17 
  7326.3413   3.75366e-17 
  7327.5327   3.30449e-17 
  7328.7241   3.27797e-17 
   7329.916    3.0088e-17 
  7331.1074   3.35599e-17 
  7332.2993   3.12536e-17 
  7333.4907   3.52475e-17 
  7334.6826   3.22252e-17 
  7335.8745   3.39938e-17 
  7337.0659   2.85443e-17 
  7338.2578   3.23226e-17 
  7339.4497   3.76492e-17 
  7340.6416   3.31985e-17 
  7341.8335   2.52541e-17 
  7343.0249   2.95784e-17 
  7344.2168   2.70658e-17 
  7345.4087   2.91331e-17 
  7346.6006   2.90552e-17 
  7347.7925   2.88905e-17 
  7348.9849   2.62258e-17 
  7350.1768   2.97163e-17 
  7351.3687   2.43432e-17 
  7352.5605   2.65239e-17 
  7353.7529    2.4681e-17 
  7354.9448    2.8634e-17 
  7356.1367   2.90047e-17 
  7357.3291   2.69163e-17 
   7358.521   2.44194e-17 
  7359.7134   2.57193e-17 
  7360.9053   2.48382e-17 
  7362.0977   2.19353e-17 
    7363.29   2.27954e-17 
  7364.4819   2.71676e-17 
  7365.6743   2.50555e-17 
  7366.8667   2.75651e-17 
  7368.0591   2.29021e-17 
   7369.251   2.38713e-17 
  7370.4434   2.51509e-17 
  7371.6357   2.15553e-17 
  7372.8281   2.34315e-17 
  7374.0205   2.69531e-17 
  7375.2129    2.2221e-17 
  7376.4058    2.4849e-17 
  7377.5981   1.96736e-17 
  7378.7905    2.1084e-17 
  7379.9829   2.13737e-17 
  7381.1758   2.15477e-17 
  7382.3682   2.14638e-17 
  7383.5605   2.09374e-17 
  7384.7534   2.16876e-17 
  7385.9458   2.14049e-17 
  7387.1387   2.12397e-17 
  7388.3311   2.26077e-17 
  7389.5239   2.16273e-17 
  7390.7168   2.08513e-17 
  7391.9092   1.92413e-17 
  7393.1021   1.95081e-17 
  7394.2949   1.85786e-17 
  7395.4878   1.87729e-17 
  7396.6802   1.96589e-17 
   7397.873   2.06366e-17 
  7399.0659   1.72179e-17 
  7400.2588   1.89991e-17 
  7401.4517   1.97911e-17 
  7402.6445   1.72162e-17 
  7403.8374   1.66804e-17 
  7405.0303    2.0248e-17 
  7406.2236   2.10444e-17 
  7407.4165   1.78659e-17 
  7408.6094   1.86219e-17 
  7409.8027   1.96597e-17 
  7410.9956   1.83506e-17 
  7412.1885   1.61326e-17 
  7413.3818    1.8025e-17 
  7414.5747   1.65578e-17 
  7415.7681   1.75356e-17 
  7416.9609   1.78788e-17 
  7418.1543    1.4876e-17 
  7419.3472    1.9673e-17 
  7420.5405   1.56594e-17 
  7421.7339   1.65373e-17 
  7422.9272   1.85991e-17 
  7424.1206   1.58401e-17 
  7425.3135   1.79375e-17 
  7426.5068   1.44976e-17 
  7427.7002   1.25878e-17 
  7428.8936   1.68003e-17 
  7430.0869   1.40044e-17 
  7431.2803   1.55129e-17 
  7432.4736   1.60893e-17 
  7433.6675   1.45164e-17 
  7434.8608   1.36327e-17 
  7436.0542   1.16262e-17 
  7437.2476   1.41146e-17 
  7438.4414   1.48637e-17 
  7439.6348   1.13644e-17 
  7440.8281   1.37154e-17 
   7442.022   1.63842e-17 
  7443.2153   1.36177e-17 
  7444.4092   1.42119e-17 
  7445.6025   1.25155e-17 
  7446.7964   1.39103e-17 
  7447.9902    1.1189e-17 
  7449.1836   1.05022e-17 
  7450.3774   1.52757e-17 
  7451.5713   9.00337e-18 
  7452.7646   1.00899e-17 
  7453.9585   1.19011e-17 
  7455.1523   1.35454e-17 
  7456.3462    1.0779e-17 
    7457.54   7.90748e-18 
  7458.7339   1.11378e-17 
  7459.9277   1.05502e-17 
  7461.1216   1.09086e-17 
  7462.3154   9.37031e-18 
  7463.5093   1.33776e-17 
  7464.7036   8.03493e-18 
  7465.8975   1.33731e-17 
  7467.0913   1.03071e-17 
  7468.2852   1.34374e-17 
  7469.4795    1.1505e-17 
  7470.6733   1.22849e-17 
  7471.8672   1.22936e-17 
  7473.0615   7.88725e-18 
  7474.2554   6.73943e-18 
  7475.4497   1.13296e-17 
   7476.644   8.45929e-18 
  7477.8379   1.08638e-17 
  7479.0322   9.52448e-18 
  7480.2266   1.28679e-17 
  7481.4204   9.53822e-18 
  7482.6147   1.09729e-17 
  7483.8091   9.31095e-18 
  7485.0034   1.05483e-17 
  7486.1978   8.28066e-18 
  7487.3921   9.44039e-18 
  7488.5864    7.3217e-18 
  7489.7808   1.03447e-17 
  7490.9751    8.9286e-18 
  7492.1694   8.32254e-18 
  7493.3638   9.70047e-18 
  7494.5581   9.51151e-18 
  7495.7529   9.07232e-18 
  7496.9473   7.89354e-18 
  7498.1416   6.71533e-18 
  7499.3359   9.16528e-18 
  7500.5308    9.3418e-18 
  7501.7251   8.32788e-18 
  7502.9199    1.0035e-17 
  7504.1143   8.88351e-18 
  7505.3091   8.34094e-18 
  7506.5034   9.32317e-18 
  7507.6982   7.23659e-18 
  7508.8926    7.3798e-18 
  7510.0874   9.90665e-18 
  7511.2822   7.89022e-18 
  7512.4766     9.041e-18 
  7513.6714   7.36349e-18 
  7514.8662   6.37575e-18 
   7516.061   8.01696e-18 
  7517.2559   5.03609e-18 
  7518.4507   6.25538e-18 
  7519.6455   9.61332e-18 
  7520.8403   2.56469e-18 
  7522.0352   8.11981e-18 
    7523.23   3.32073e-18 
  7524.4248   4.88016e-18 
  7525.6196   5.69395e-18 
  7526.8149    6.2085e-18 
  7528.0098   6.47796e-18 
  7529.2046    8.0593e-18 
  7530.3994   7.68669e-18 
  7531.5947   5.67008e-18 
  7532.7896   6.65811e-18 
  7533.9849   7.57089e-18 
  7535.1797   7.50725e-18 
   7536.375   5.64414e-18 
  7537.5698   5.39203e-18 
  7538.7651   4.70399e-18 
    7539.96    5.6644e-18 
  7541.1553   6.32933e-18 
  7542.3506   5.80037e-18 
  7543.5459   3.14579e-18 
  7544.7407   6.71577e-18 
   7545.936   5.40118e-18 
  7547.1313   5.34263e-18 
  7548.3267   8.55446e-18 
   7549.522   6.75477e-18 
  7550.7173   4.36191e-18 
  7551.9126   6.19783e-18 
  7553.1079   6.64306e-18 
  7554.3032   5.24024e-18 
  7555.4985   6.85666e-18 
  7556.6938   6.32488e-18 
  7557.8892    4.3502e-18 
  7559.0845   1.95792e-18 
  7560.2803   6.71259e-18 
  7561.4756   3.90773e-18 
  7562.6709   4.77989e-18 
  7563.8667     5.061e-18 
   7565.062   4.84448e-18 
  7566.2578   4.37056e-18 
  7567.4531    5.4495e-18 
  7568.6489   3.67526e-18 
  7569.8442   8.20787e-18 
    7571.04   4.96334e-18 
  7572.2354   1.63358e-18 
  7573.4312   5.46247e-18 
  7574.6265   4.54648e-18 
  7575.8223   5.24723e-18 
  7577.0181   7.57713e-18 
  7578.2139   4.18596e-18 
  7579.4097   3.83538e-18 
   7580.605   3.73929e-18 
  7581.8008   3.26024e-18 
  7582.9966   5.33716e-18 
  7584.1924   4.04674e-18 
  7585.3882   3.77796e-18 
   7586.584   7.36273e-18 
  7587.7798    5.6424e-18 
  7588.9761   4.64075e-18 
  7590.1719   5.69355e-18 
  7591.3677   5.32054e-18 
  7592.5635   3.14399e-18 
  7593.7593   3.14204e-18 
  7594.9556   7.07129e-18 
  7596.1514   2.21051e-18 
  7597.3472   5.38936e-18 
  7598.5435   3.65323e-18 
  7599.7393   5.45295e-18 
  7600.9355   3.36146e-18 
  7602.1313   5.70953e-18 
  7603.3276   7.24553e-18 
  7604.5234   1.65402e-18 
  7605.7197   6.13342e-18 
   7606.916   6.43918e-18 
  7608.1118    5.0737e-18 
  7609.3081   3.95214e-18 
  7610.5044   9.77158e-19 
  7611.7007   4.88799e-18 
  7612.8965   8.13929e-18 
  7614.0928   5.86644e-18 
  7615.2891   4.45071e-18 
  7616.4854   4.23335e-18 
  7617.6816   7.73625e-19 
  7618.8779   7.08422e-18 
  7620.0742    3.5772e-18 
  7621.2705   9.10041e-18 
  7622.4668   3.54004e-18 
  7623.6631   9.12385e-18 
  7624.8594   6.84247e-18 
  7626.0562   5.18594e-18 
  7627.2524   4.57887e-18 
  7628.4487    7.0359e-18 
   7629.645   4.32012e-18 
  7630.8418   3.68407e-18 
  7632.0381   2.56467e-18 
  7633.2349   4.01458e-18 
  7634.4312   5.29586e-18 
  7635.6279   4.23858e-18 
  7636.8242    5.2703e-18 
   7638.021   3.16285e-18 
  7639.2173   4.27355e-18 
  7640.4141   3.79972e-18 
  7641.6104   1.21344e-18 
  7642.8071   2.26219e-18 
  7644.0039   1.53656e-18 
  7645.2002    2.4505e-18 
   7646.397   1.12097e-19 
  7647.5938   3.73976e-18 
  7648.7905   3.68934e-18 
  7649.9873   3.52154e-18 
  7651.1841     6.043e-18 
  7652.3809   4.14678e-18 
  7653.5776   5.14876e-18 
  7654.7744   6.92689e-19 
  7655.9712   3.01867e-18 
   7657.168   2.38707e-18 
  7658.3647    5.8936e-18 
  7659.5615   4.03875e-18 
  7660.7583   5.96257e-18 
  7661.9551   4.28616e-18 
  7663.1523   1.04806e-18 
  7664.3491   3.16872e-18 
  7665.5459   6.89006e-18 
  7666.7427   3.92637e-18 
  7667.9399   6.09064e-18 
  7669.1367   6.63428e-18 
   7670.334   1.28299e-18 
  7671.5308   3.70959e-18 
   7672.728   5.65357e-18 
  7673.9248   5.18477e-18 
  7675.1221   6.06111e-18 
  7676.3188   4.02354e-18 
  7677.5161   3.95636e-18 
  7678.7134   2.32775e-18 
  7679.9102   7.01939e-18 
  7681.1074   4.46423e-18 
  7682.3047   2.82123e-18 
   7683.502   5.62697e-18 
  7684.6992   2.55365e-18 
   7685.896   4.10823e-18 
  7687.0933   3.65667e-18 
  7688.2905    6.6955e-18 
  7689.4878    3.6807e-18 
  7690.6851   4.36408e-18 
  7691.8823   2.71572e-18 
  7693.0796   2.40214e-18 
  7694.2769   4.70116e-18 
  7695.4741   2.11779e-18 
  7696.6714   6.09942e-18 
  7697.8691   5.68859e-18 
  7699.0664   3.05293e-18 
  7700.2637   4.24404e-18 
  7701.4609   3.70113e-18 
  7702.6587   4.65629e-18 
   7703.856   3.75299e-18 
  7705.0532   3.84899e-18 
   7706.251    1.2212e-18 
  7707.4482   7.09644e-18 
   7708.646   4.17901e-18 
  7709.8433   3.67858e-18 
   7711.041   5.10819e-18 
  7712.2383   6.84577e-18 
   7713.436   1.48374e-18 
  7714.6333   7.76208e-19 
  7715.8311   1.73721e-20 
  7717.0288   6.42258e-18 
  7718.2261   1.86017e-18 
  7719.4238   1.88675e-18 
  7720.6216   6.77385e-19 
  7721.8193   5.93643e-18 
  7723.0171   4.33056e-18 
  7724.2148   8.52948e-18 
  7725.4121   4.65567e-18 
  7726.6099   3.87194e-18 
  7727.8076   1.83963e-18 
  7729.0054    1.1707e-18 
  7730.2031   5.22242e-18 
  7731.4009   6.17353e-18 
  7732.5991   3.07622e-18 
  7733.7969   5.40118e-18 
  7734.9946    7.1166e-18 
  7736.1924   4.08753e-18 
  7737.3901   3.19981e-18 
  7738.5879   3.67977e-18 
  7739.7861   5.06414e-18 
  7740.9839   3.00331e-18 
  7742.1816   5.67157e-18 
  7743.3799   5.63974e-18 
  7744.5776   -3.0868e-19 
  7745.7754   1.46646e-18 
  7746.9736   3.37012e-18 
  7748.1714   9.08031e-18 
  7749.3696   2.99848e-18 
  7750.5674   2.12231e-18 
  7751.7656   9.76538e-18 
  7752.9634   9.97294e-18 
  7754.1616    1.2469e-18 
  7755.3599   2.37799e-18 
  7756.5576    8.2572e-19 
  7757.7559   1.89609e-18 
  7758.9541   3.26279e-18 
  7760.1523   1.63719e-18 
  7761.3501   1.22702e-18 
  7762.5483   2.86216e-18 
  7763.7466   2.56832e-18 
  7764.9448   1.28585e-18 
  7766.1431   1.96646e-18 
  7767.3413   1.76688e-18 
  7768.5396    4.3836e-18 
  7769.7378   5.74421e-18 
   7770.936   3.04107e-18 
  7772.1343   2.35429e-18 
  7773.3325   1.79017e-18 
  7774.5308   1.88702e-19 
   7775.729   6.09152e-18 
  7776.9272   2.11035e-18 
   7778.126   4.20077e-18 
  7779.3242   4.88399e-18 
  7780.5225   1.86865e-18 
  7781.7207   2.97172e-18 
  7782.9194   3.27419e-18 
  7784.1177   2.15302e-18 
  7785.3159   7.61513e-18 
  7786.5146   4.54053e-18 
  7787.7129   2.87148e-18 
  7788.9116   1.03729e-18 
  7790.1099   6.65758e-18 
  7791.3086    6.0527e-18 
  7792.5068   6.72841e-18 
  7793.7056  -3.63285e-18 
  7794.9043   7.92835e-19 
  7796.1025   3.42399e-18 
  7797.3013   2.57202e-18 
     7798.5   4.19842e-18 
  7799.6982   2.64493e-18 
   7800.897   3.37611e-18 
  7802.0957   3.51802e-18 
  7803.2944   4.26985e-18 
  7804.4927   2.25136e-18 
  7805.6914   4.99295e-18 
  7806.8901   3.20621e-18 
  7808.0889   1.83295e-19 
  7809.2876    2.5892e-18 
  7810.4863   4.12047e-18 
  7811.6851   4.06225e-18 
  7812.8838   2.88558e-18 
  7814.0825   1.18353e-18 
  7815.2812   2.35699e-18 
    7816.48    1.5022e-18 
  7817.6787   2.79458e-18 
  7818.8779   8.96851e-19 
  7820.0767   1.02638e-18 
  7821.2754    3.4235e-18 
  7822.4741  -1.74413e-18 
  7823.6729   2.04905e-18 
  7824.8721   2.70523e-19 
  7826.0708   -1.7051e-19 
  7827.2695   5.21476e-19 
  7828.4688   1.10139e-18 
  7829.6675   4.29227e-18 
  7830.8667    8.6699e-18 
  7832.0654   2.57983e-18 
  7833.2642   1.95773e-18 
  7834.4634   2.31889e-18 
  7835.6626   6.05469e-18 
  7836.8613   5.40312e-19 
  7838.0605   4.06861e-18 
  7839.2593   2.89664e-18 
  7840.4585   1.39309e-18 
  7841.6577   3.68571e-18 
  7842.8564   3.77701e-18 
  7844.0557   4.29692e-18 
  7845.2549   1.79116e-18 
  7846.4541   3.04758e-18 
  7847.6533   4.09592e-18 
  7848.8521   3.98045e-18 
  7850.0513   3.05227e-19 
  7851.2505   9.60086e-19 
  7852.4497   9.78464e-18 
  7853.6489  -7.76182e-21 
  7854.8481   3.31905e-18 
  7856.0474  -4.53639e-19 
  7857.2466   -1.4736e-18 
  7858.4458   4.47911e-18 
   7859.645   5.28614e-18 
  7860.8442   2.43849e-18 
  7862.0435   1.74138e-18 
  7863.2427   2.91869e-18 
  7864.4419  -8.44959e-19 
  7865.6416   4.80444e-18 
  7866.8408   3.73314e-18 
    7868.04   6.72208e-19 
  7869.2393   7.16306e-18 
   7870.439   4.98171e-18 
  7871.6382   4.82429e-18 
  7872.8374   8.31145e-18 
  7874.0371    1.3117e-18 
  7875.2363   3.50737e-18 
   7876.436   3.13815e-18 
  7877.6353    4.2741e-18 
  7878.8345   1.17687e-18 
  7880.0342   4.70158e-18 
  7881.2339   3.31646e-18 
  7882.4331   7.19489e-18 
  7883.6328    1.8969e-18 
   7884.832   2.05244e-18 
  7886.0317   4.87451e-18 
   7887.231   8.52843e-18 
  7888.4307   2.50329e-18 
  7889.6304   1.96606e-18 
  7890.8301   1.72866e-18 
  7892.0293    4.9136e-18 
   7893.229   2.18699e-18 
  7894.4287   5.17224e-18 
  7895.6284   4.68735e-18 
  7896.8281   4.66904e-18 
  7898.0278   3.56904e-18 
  7899.2275   2.93485e-18 
  7900.4268   3.77453e-18 
  7901.6265    4.1042e-18 
  7902.8262    1.6171e-18 
  7904.0259   4.61742e-18 
  7905.2256   4.15531e-18 
  7906.4253   2.64482e-18 
   7907.625   4.60286e-18 
  7908.8252   2.05784e-18 
  7910.0249   4.24725e-18 
  7911.2246   4.01615e-18 
  7912.4243  -3.31992e-19 
   7913.624   1.18723e-17 
  7914.8237   3.66966e-18 
  7916.0239   7.86999e-18 
  7917.2236   2.39284e-18 
  7918.4233   1.86001e-18 
  7919.6235   4.10072e-18 
  7920.8232   1.40544e-18 
  7922.0229  -2.33671e-18 
  7923.2227   8.38985e-20 
  7924.4229   4.52088e-19 
  7925.6226   2.73967e-18 
  7926.8228   1.06068e-18 
  7928.0225   5.75278e-18 
  7929.2227   6.09316e-18 
  7930.4224   5.12394e-18 
  7931.6226   4.62747e-18 
  7932.8223   4.40691e-18 
  7934.0225   3.87949e-18 
  7935.2227   2.81437e-18 
  7936.4224   2.59387e-18 
  7937.6226   3.54135e-18 
  7938.8228   2.11303e-18 
  7940.0225   5.77071e-18 
  7941.2227   2.02853e-19 
  7942.4229   5.58675e-18 
  7943.6226   4.19061e-18 
  7944.8228   8.02191e-19 
  7946.0229   3.78735e-18 
  7947.2231   3.88576e-18 
  7948.4233    6.7505e-18 
  7949.6235  -7.36563e-20 
  7950.8237   2.18996e-18 
  7952.0239   1.80541e-18 
  7953.2241   4.42238e-18 
  7954.4243   5.20571e-18 
  7955.6245   3.68734e-18 
  7956.8247   5.64082e-18 
  7958.0249   3.20672e-18 
  7959.2251   4.15143e-18 
  7960.4253   4.50153e-18 
  7961.6255  -3.25747e-19 
  7962.8257   2.94906e-18 
  7964.0259   1.69012e-18 
  7965.2261   7.41867e-19 
  7966.4268  -1.70575e-19 
   7967.627  -1.63104e-18 
  7968.8271   8.25906e-19 
  7970.0273   1.05253e-18 
   7971.228   5.30449e-18 
  7972.4282   1.82219e-18 
  7973.6284   2.70131e-18 
  7974.8291   5.07067e-18 
  7976.0293   4.02954e-18 
  7977.2295   -5.1583e-19 
  7978.4302   7.59638e-18 
  7979.6304   3.38216e-18 
  7980.8311   5.38559e-18 
  7982.0312   1.75787e-18 
  7983.2319   3.33986e-18 
  7984.4321   2.21736e-19 
  7985.6328   4.92084e-18 
   7986.833   3.08647e-18 
  7988.0337   2.26617e-18 
  7989.2344   1.54808e-18 
  7990.4346   -8.3503e-20 
  7991.6353   7.93196e-19 
  7992.8359  -1.97885e-18 
  7994.0361   1.37177e-18 
  7995.2368  -5.36851e-18 
  7996.4375   4.00541e-18 
  7997.6377   7.03524e-18 
  7998.8384    1.4639e-18 
  8000.0391   4.72022e-18 
  8001.2397    5.2952e-18 
  8002.4404   3.36418e-18 
  8003.6411   2.78878e-18 
  8004.8418   4.44905e-18 
   8006.042   2.35039e-18 
  8007.2427   2.04251e-18 
  8008.4434    4.3054e-18 
   8009.644   5.99174e-18 
  8010.8447   6.57093e-18 
  8012.0454   6.97895e-19 
  8013.2461   4.19743e-18 
  8014.4468   4.08762e-18 
  8015.6475  -3.25389e-19 
  8016.8486   3.55246e-18 
  8018.0493   5.22156e-18 
    8019.25    3.1588e-18 
  8020.4507   3.22746e-18 
  8021.6514   5.44162e-18 
  8022.8521   2.90563e-18 
  8024.0532   4.65202e-18 
  8025.2539   5.50616e-18 
  8026.4546   3.62641e-18 
  8027.6553  -1.07363e-18 
   8028.856   5.66373e-18 
  8030.0571   5.93904e-18 
  8031.2578   2.13226e-19 
   8032.459   2.92378e-18 
  8033.6597   5.63919e-18 
  8034.8604   1.60681e-18 
  8036.0615   3.24632e-18 
  8037.2622   2.64721e-18 
  8038.4634    3.5108e-18 
  8039.6641   2.94403e-18 
  8040.8652    1.9902e-18 
  8042.0659   2.07776e-18 
  8043.2671   5.91593e-18 
  8044.4678   3.32536e-18 
  8045.6689   2.27135e-18 
  8046.8696   2.67034e-18 
  8048.0708   4.40726e-18 
  8049.2715   1.73532e-18 
  8050.4727   2.76448e-18 
  8051.6738     4.964e-18 
  8052.8745   6.02085e-18 
  8054.0757   4.72192e-18 
  8055.2769   1.98929e-18 
   8056.478   4.64337e-18 
  8057.6787    3.9686e-18 
  8058.8799   4.65789e-18 
  8060.0811  -1.54644e-18 
  8061.2822   1.88787e-18 
  8062.4834     3.416e-18 
  8063.6841   5.30726e-18 
  8064.8853   3.75492e-18 
  8066.0864   1.48959e-18 
  8067.2876   2.97626e-18 
  8068.4888   2.46319e-18 
  8069.6899   1.67092e-18 
  8070.8911   5.42991e-18 
  8072.0923   1.85335e-18 
  8073.2935   3.04977e-18 
  8074.4946   2.96705e-18 
  8075.6958   1.21652e-18 
   8076.897   3.51822e-18 
  8078.0981   4.09596e-18 
  8079.2993   3.49898e-18 
  8080.5005   2.89388e-18 
  8081.7017   5.19922e-18 
  8082.9033   2.38419e-18 
  8084.1045    7.1054e-19 
  8085.3057   2.87683e-18 
  8086.5068   2.13253e-18 
   8087.708   1.74423e-18 
  8088.9092   3.15807e-18 
  8090.1108   3.94795e-18 
   8091.312   3.33171e-18 
  8092.5132   4.22328e-18 
  8093.7148   4.73212e-18 
   8094.916   3.10906e-18 
  8096.1172   6.01144e-18 
  8097.3184   3.33501e-18 
    8098.52   1.69618e-18 
  8099.7212   2.66085e-18 
  8100.9229   6.01297e-18 
   8102.124   3.06291e-18 
  8103.3257   8.12889e-19 
  8104.5269   1.42194e-18 
  8105.7285   3.97431e-18 
  8106.9297   4.37505e-18 
  8108.1309   3.23937e-18 
  8109.3325   1.45407e-18 
  8110.5337   2.84456e-18 
  8111.7354   1.95182e-18 
   8112.937   3.72949e-18 
  8114.1382   8.29368e-19 
  8115.3398   5.03835e-18 
   8116.541   4.21952e-18 
  8117.7427   3.09638e-18 
  8118.9443   3.83792e-18 
  8120.1455   5.03463e-18 
  8121.3472   2.75945e-18 
  8122.5488   5.17512e-18 
  8123.7505   3.92544e-18 
  8124.9517   3.02925e-18 
  8126.1533   5.63095e-18 
   8127.355   4.40912e-18 
  8128.5566   3.93494e-18 
  8129.7578   1.99777e-18 
  8130.9595    2.5905e-18 
  8132.1611    2.5519e-18 
  8133.3628   1.89307e-18 
  8134.5645   2.49429e-18 
  8135.7661   3.28995e-18 
  8136.9673   3.28373e-18 
  8138.1694     2.565e-18 
  8139.3706   3.26237e-18 
  8140.5723   3.99202e-18 
  8141.7739   4.01152e-18 
  8142.9756    3.6303e-18 
  8144.1772   1.34783e-18 
  8145.3789   1.48674e-18 
  8146.5806   3.86054e-18 
  8147.7822   5.49228e-18 
  8148.9839   2.08387e-18 
   8150.186   2.43114e-18 
  8151.3877   4.21792e-18 
  8152.5894   4.20748e-18 
   8153.791    4.4765e-18 
  8154.9927    4.5547e-18 
  8156.1943   1.95023e-18 
   8157.396   6.33887e-18 
  8158.5977    4.1478e-18 
  8159.7998   4.19838e-18 
  8161.0015   5.81544e-18 
  8162.2031   2.08043e-18 
  8163.4048   5.67907e-18 
  8164.6069   5.49919e-18 
  8165.8086   9.65905e-19 
  8167.0103   1.85397e-18 
  8168.2119   4.28349e-18 
  8169.4141   4.38829e-18 
  8170.6157   -6.5335e-19 
  8171.8174   4.74485e-18 
  8173.0195   2.10507e-18 
  8174.2212   4.90375e-18 
  8175.4229   2.32381e-18 
   8176.625   2.10035e-18 
  8177.8267   4.41738e-18 
  8179.0288    2.0359e-18 
  8180.2305   2.82789e-18 
  8181.4326   2.97757e-18 
  8182.6343   5.07195e-18 
  8183.8359   3.27711e-18 
  8185.0381   6.77299e-18 
  8186.2402   3.07892e-18 
  8187.4419   3.83409e-18 
   8188.644   3.62393e-18 
  8189.8457   3.26792e-18 
  8191.0479   3.77435e-18 
    8192.25   5.42169e-18 
  8193.4512   2.15844e-18 
  8194.6533   2.76647e-18 
  8195.8555   2.90366e-18 
  8197.0576   3.00736e-18 
  8198.2598   2.89337e-18 
  8199.4609   4.11874e-18 
  8200.6631   5.25651e-18 
  8201.8652   2.89598e-18 
  8203.0674   2.38527e-18 
  8204.2695   2.10892e-18 
  8205.4717    3.4056e-18 
  8206.6738   2.67647e-18 
   8207.876   1.99653e-18 
  8209.0771   1.62996e-18 
  8210.2793   3.76395e-18 
  8211.4814   5.90971e-18 
  8212.6836   4.38603e-18 
  8213.8857   3.19441e-18 
  8215.0879   3.09072e-18 
    8216.29   5.93576e-19 
  8217.4922   1.98484e-18 
  8218.6943   3.61032e-18 
  8219.8965   4.48241e-18 
  8221.0986   2.07193e-18 
  8222.3008    3.4521e-18 
   8223.502   3.85904e-18 
  8224.7041   5.49675e-18 
  8225.9062   5.26897e-18 
  8227.1084   3.54878e-18 
  8228.3105   1.55238e-18 
  8229.5127   1.99493e-18 
  8230.7148   4.93189e-18 
   8231.917   4.95555e-18 
  8233.1191   1.04663e-18 
  8234.3213   3.81435e-18 
  8235.5234   2.92681e-18 
  8236.7266   2.37649e-18 
  8237.9277   1.38231e-18 
  8239.1309   3.72232e-18 
   8240.333   3.76092e-18 
  8241.5352   4.47424e-18 
  8242.7373   2.96433e-18 
  8243.9395   3.85935e-18 
  8245.1416   9.24189e-19 
  8246.3438   2.17639e-18 
  8247.5459   6.45833e-18 
   8248.748   3.82179e-18 
  8249.9502   4.10376e-18 
  8251.1523   1.47012e-18 
  8252.3545   2.22288e-18 
  8253.5576   3.98934e-18 
  8254.7598   2.95021e-18 
  8255.9619   4.14349e-18 
  8257.1641   4.56707e-18 
  8258.3662   4.13142e-18 
  8259.5684   3.24076e-18 
  8260.7705   6.69134e-18 
  8261.9727   3.92132e-18 
  8263.1758   3.00902e-18 
  8264.3779   2.63661e-18 
  8265.5801   3.21515e-18 
  8266.7822   3.34174e-18 
  8267.9844   2.93285e-18 
  8269.1865   3.19585e-18 
  8270.3896   4.88771e-18 
  8271.5918   1.89361e-18 
  8272.7939   2.65224e-18 
  8273.9961   2.75684e-18 
  8275.1992   3.70923e-18 
  8276.4014   3.49363e-18 
  8277.6035   4.25765e-19 
  8278.8057   1.98609e-18 
  8280.0078   2.99226e-18 
  8281.2109   1.88963e-18 
  8282.4131   4.67179e-18 
  8283.6152   2.53858e-18 
  8284.8174   2.71844e-18 
  8286.0205   1.00138e-18 
  8287.2227  -2.42844e-19 
  8288.4248   1.16949e-18 
  8289.6279   3.47061e-18 
  8290.8301   8.54982e-19 
  8292.0322  -2.86689e-18 
  8293.2344   1.57795e-18 
  8294.4375  -2.03398e-19 
  8295.6396   5.05593e-18 
  8296.8418   4.81716e-18 
  8298.0449   6.74473e-18 
  8299.2471   4.63445e-18 
  8300.4492   7.65152e-18 
  8301.6523   5.56895e-18 
  8302.8545  -7.04535e-19 
  8304.0566   4.13096e-18 
  8305.2598   3.92827e-18 
  8306.4619   5.10469e-18 
  8307.6641    1.5234e-18 
  8308.8672   1.82565e-18 
  8310.0693   1.30153e-18 
  8311.2715   1.54437e-18 
  8312.4746   3.54772e-18 
  8313.6768   1.04451e-18 
  8314.8799   1.78837e-18 
   8316.082   4.61001e-18 
  8317.2842   2.91063e-18 
  8318.4873   2.54254e-18 
  8319.6895   4.10542e-18 
  8320.8926   3.80651e-18 
  8322.0947   1.93452e-18 
  8323.2969   3.97744e-18 
     8324.5  -3.50578e-19 
  8325.7021    1.7397e-18 
  8326.9053   4.08623e-18 
  8328.1074   4.13246e-18 
  8329.3096    2.5693e-18 
  8330.5127   2.66715e-18 
  8331.7148   3.18861e-18 
   8332.918   3.91316e-18 
  8334.1201   5.35361e-18 
  8335.3232   3.40447e-18 
  8336.5254    1.1259e-18 
  8337.7285   2.68055e-18 
  8338.9307   1.57527e-18 
  8340.1328   5.80475e-18 
  8341.3359   2.34944e-18 
  8342.5381   3.11526e-18 
  8343.7412   6.38927e-18 
  8344.9434   4.13297e-18 
  8346.1465   4.18809e-18 
  8347.3486  -2.73199e-18 
  8348.5518  -8.24162e-19 
  8349.7539   2.00357e-18 
   8350.957   4.97058e-18 
  8352.1592     1.583e-18 
  8353.3623    1.5425e-18 
  8354.5645   1.04145e-18 
  8355.7676    1.0761e-18 
  8356.9707  -2.39577e-18 
  8358.1729   2.81103e-19 
   8359.376   4.20783e-18 
  8360.5781    5.5943e-18 
  8361.7812   2.93283e-18 
  8362.9834   2.58406e-18 
  8364.1865   2.28412e-18 
  8365.3887   1.87059e-19 
  8366.5918    3.4533e-19 
  8367.7939   3.84525e-18 
  8368.9971   3.27662e-19 
  8370.2002   4.36191e-18 
  8371.4023   2.67813e-18 
  8372.6055   2.54214e-18 
  8373.8076   1.13788e-18 
  8375.0107   2.16586e-18 
  8376.2139   1.50835e-18 
   8377.416   1.77435e-18 
  8378.6191   6.14101e-18 
  8379.8213   1.25038e-18 
  8381.0244   2.37751e-18 
  8382.2275   3.60644e-18 
  8383.4297   3.25701e-18 
  8384.6328   2.30718e-18 
   8385.835   4.73509e-18 
  8387.0381   3.81603e-18 
  8388.2412   3.87086e-19 
  8389.4434   3.47953e-18 
  8390.6465   1.03752e-18 
  8391.8486   7.02556e-19 
  8393.0518   4.18835e-18 
  8394.2549   2.53271e-18 
   8395.457   4.36547e-18 
  8396.6602   6.63288e-18 
  8397.8633   4.49491e-18 
  8399.0654    6.1145e-18 
  8400.2686   3.70284e-18 
  8401.4717   6.63742e-18 
  8402.6738  -6.81434e-19 
   8403.877   7.56278e-19 
  8405.0801   3.96145e-18 
  8406.2822   4.36853e-18 
  8407.4854   3.86099e-18 
  8408.6885   4.61479e-18 
  8409.8906   1.98983e-18 
  8411.0938   1.36388e-19 
  8412.2969   3.38366e-18 
   8413.499   4.17611e-18 
  8414.7021  -8.76118e-20 
  8415.9053   8.83139e-19 
  8417.1074   2.42107e-18 
  8418.3105   6.64995e-18 
  8419.5137   3.52457e-19 
  8420.7158   4.18698e-19 
  8421.9189   1.78164e-18 
  8423.1221   1.52941e-18 
  8424.3252   2.16252e-18 
  8425.5273   2.36856e-18 
  8426.7305   2.20826e-18 
  8427.9336   1.12143e-17 
  8429.1367   1.58984e-18 
  8430.3389   5.43097e-18 
   8431.542   4.65691e-18 
  8432.7451   -9.1987e-19 
  8433.9473   2.38656e-18 
  8435.1504  -1.37446e-18 
  8436.3535   1.34259e-18 
  8437.5566   4.31768e-18 
  8438.7588   5.33511e-19 
  8439.9619   3.67335e-18 
   8441.165   2.30433e-18 
  8442.3682   3.29617e-18 
  8443.5703   3.44551e-18 
  8444.7734   2.69825e-18 
  8445.9766   2.18623e-18 
  8447.1797   1.70777e-18 
  8448.3818   4.28785e-18 
   8449.585   1.53833e-18 
  8450.7881  -2.47618e-19 
  8451.9912   3.63659e-18 
  8453.1934   1.62565e-18 
  8454.3965   6.68702e-19 
  8455.5996   3.32547e-18 
  8456.8027   2.05771e-18 
  8458.0059   2.49588e-18 
   8459.208   3.46507e-18 
  8460.4111   2.94038e-18 
  8461.6143     3.506e-18 
  8462.8174   6.37165e-18 
  8464.0195   1.26127e-18 
  8465.2227  -1.09601e-18 
  8466.4258   2.54094e-18 
  8467.6289   1.44536e-18 
   8468.832   1.09801e-18 
  8470.0342   4.95809e-18 
  8471.2373   2.40982e-18 
  8472.4404    1.4531e-18 
  8473.6436   1.06798e-18 
  8474.8467   4.67765e-18 
  8476.0488   3.55334e-18 
   8477.252   4.59919e-18 
  8478.4551   3.26772e-18 
  8479.6582   4.75492e-19 
  8480.8613   2.81222e-18 
  8482.0635   1.98336e-18 
  8483.2666   1.47183e-18 
  8484.4697   4.82237e-18 
  8485.6729   4.75014e-18 
   8486.876   2.85149e-18 
  8488.0781   3.08199e-18 
  8489.2812   1.66133e-18 
  8490.4844   2.18085e-18 
  8491.6875   3.30982e-18 
  8492.8906    2.7535e-18 
  8494.0938  -8.22303e-20 
  8495.2959   1.86365e-18 
   8496.499   2.81658e-18 
  8497.7021    1.7105e-18 
  8498.9053   1.32257e-18 
  8500.1084   6.23369e-18 
  8501.3115   6.16669e-18 
  8502.5137   2.05001e-18 
  8503.7168   1.86537e-18 
  8504.9199   4.16015e-18 
   8506.123   1.62839e-18 
  8507.3262    1.7938e-18 
  8508.5293   3.09503e-18 
  8509.7314    1.6513e-18 
  8510.9346   1.67443e-18 
  8512.1377   4.86967e-18 
  8513.3408   2.38676e-18 
  8514.5439   4.05732e-18 
  8515.7471   3.17414e-18 
  8516.9492   3.75082e-18 
  8518.1523   2.87063e-18 
  8519.3555   5.13515e-18 
  8520.5586   3.62725e-18 
  8521.7617   5.13875e-18 
  8522.9648   2.96052e-18 
   8524.168   4.09623e-18 
  8525.3701   1.62391e-18 
  8526.5732   1.77493e-18 
  8527.7764   3.58141e-18 
  8528.9795   3.05565e-18 
  8530.1826    8.2997e-19 
  8531.3857   2.70381e-18 
  8532.5889   7.21368e-19 
   8533.791   2.43782e-18 
  8534.9941   3.03498e-18 
  8536.1973  -9.45101e-19 
  8537.4004  -1.92083e-18 
  8538.6035   2.99377e-18 
  8539.8066   5.77341e-18 
  8541.0098   3.16568e-18 
  8542.2119   1.08642e-19 
   8543.415    2.3982e-18 
  8544.6182   3.03246e-18 
  8545.8213   1.50251e-18 
  8547.0244   1.12294e-18 
  8548.2275   3.19008e-18 
  8549.4307   5.24349e-18 
  8550.6328   1.78472e-18 
  8551.8359   2.50898e-18 
  8553.0391   2.06181e-18 
  8554.2422   3.20114e-18 
  8555.4453   1.25359e-18 
  8556.6484   2.80293e-18 
  8557.8516   3.54931e-18 
  8559.0547   2.65418e-18 
  8560.2568   2.04703e-18 
    8561.46   4.93897e-18 
  8562.6631   9.81255e-19 
  8563.8662   5.61132e-18 
  8565.0693   1.31763e-18 
  8566.2725   2.29041e-18 
  8567.4756   2.53056e-18 
  8568.6777   3.83175e-18 
  8569.8809   3.18589e-18 
   8571.084   1.42387e-18 
  8572.2871   3.34951e-18 
  8573.4902   3.88941e-18 
  8574.6934   3.52643e-18 
  8575.8965   1.28724e-18 
  8577.0986    5.3039e-18 
  8578.3018   2.70478e-18 
  8579.5049   2.86222e-18 
   8580.708   2.68269e-18 
  8581.9111   1.55296e-18 
  8583.1143   2.55662e-18 
  8584.3174   2.70489e-18 
  8585.5195   4.26644e-18 
  8586.7227   4.63046e-18 
  8587.9258     2.304e-18 
  8589.1289   1.55222e-18 
   8590.332   1.75625e-18 
  8591.5352   2.95771e-18 
  8592.7383   4.16533e-18 
  8593.9404   3.93151e-18 
  8595.1436   3.44998e-18 
  8596.3467   3.88159e-18 
  8597.5498   1.73192e-18 
  8598.7529   1.64222e-18 
  8599.9561   1.03627e-18 
  8601.1592   5.31231e-18 
  8602.3613   2.64772e-18 
  8603.5645   2.04709e-18 
  8604.7676   2.25873e-18 
  8605.9707   3.09377e-18 
  8607.1738   3.51116e-18 
   8608.377    4.1463e-18 
  8609.5801   2.50978e-18 
  8610.7822   4.35319e-18 
  8611.9854   1.11078e-18 
  8613.1885   5.41439e-18 
  8614.3916   3.35168e-18 
  8615.5947   3.78925e-18 
  8616.7979   5.15287e-18 
     8618.0   3.73881e-18 
  8619.2031   3.93319e-18 
  8620.4062   1.61571e-18 
  8621.6094   5.98707e-18 
  8622.8125   5.14373e-18 
  8624.0156   7.19686e-18 
  8625.2178    5.4607e-18 
  8626.4209   4.30894e-19 
   8627.624    1.2674e-17 
  8628.8271   2.76483e-17 
  8630.0303   3.28696e-17 
  8631.2334   3.88527e-17 
  8632.4355   4.03253e-17 
  8633.6387   3.84067e-17 
  8634.8418   3.43076e-17 
  8636.0449   4.43927e-17 
   8637.248   4.05754e-17 
  8638.4512   3.69708e-17 
  8639.6533   1.16172e-17 
  8640.8564   5.17359e-18 
  8642.0596   4.96761e-18 
  8643.2627   5.66918e-18 
  8644.4658   2.44234e-18 
   8645.668   4.19973e-19 
  8646.8711   1.97963e-18 
  8648.0742   4.16768e-18 
  8649.2773    1.0694e-18 
  8650.4805   4.17678e-18 
  8651.6826   3.09917e-18 
  8652.8857   2.92298e-18 
  8654.0889   2.88779e-18 
   8655.292   7.48647e-19 
  8656.4951   9.09173e-18 
  8657.6973   3.71749e-18 
  8658.9004  -8.61146e-19 
  8660.1035  -5.31789e-19 
  8661.3066  -3.62858e-19 
  8662.5098   1.65708e-18 
  8663.7119   6.80754e-19 
   8664.915   2.78037e-18 
  8666.1182    1.4213e-18 
  8667.3213   3.05242e-18 
  8668.5234   2.48158e-18 
  8669.7266   1.07339e-18 
  8670.9297   5.06606e-18 
  8672.1328    6.3968e-18 
  8673.3359  -1.04259e-18 
  8674.5381   -5.7576e-19 
  8675.7412   2.09522e-18 
  8676.9443   2.54878e-18 
  8678.1475   1.15064e-18 
  8679.3496   3.74171e-18 
  8680.5527   6.54167e-19 
  8681.7559  -6.50822e-20 
   8682.959   1.03158e-18 
  8684.1611   2.67665e-18 
  8685.3643   4.56771e-18 
  8686.5674   4.55082e-19 
  8687.7705     2.594e-18 
  8688.9727   4.18806e-18 
  8690.1758   2.10633e-18 
  8691.3789   2.92356e-18 
   8692.582   7.78526e-19 
  8693.7842   3.11829e-18 
  8694.9873   4.38668e-18 
  8696.1904   3.40403e-18 
  8697.3936   2.78934e-18 
  8698.5957  -2.15844e-19 
  8699.7988   3.27808e-18 
   8701.002   2.85036e-18 
  8702.2041   1.26287e-18 
  8703.4072   3.66286e-18 
  8704.6104   2.08362e-18 
  8705.8135   4.94725e-19 
  8707.0156   1.96458e-18 
  8708.2188   1.69567e-18 
  8709.4219   4.96137e-18 
   8710.624   2.03689e-18 
  8711.8271   2.02106e-18 
  8713.0303    3.9532e-18 
  8714.2324   4.25909e-18 
  8715.4355    3.5228e-18 
  8716.6387   2.76559e-18 
  8717.8408   2.29247e-18 
  8719.0439   3.20249e-18 
  8720.2471   3.78126e-18 
  8721.4492   1.01869e-18 
  8722.6523    3.3585e-18 
  8723.8555   3.41098e-18 
  8725.0576   1.73021e-18 
  8726.2607   2.30063e-18 
  8727.4639   3.37494e-19 
   8728.666   4.35682e-18 
  8729.8691   2.77955e-18 
  8731.0723    6.4839e-19 
  8732.2744   2.75476e-18 
  8733.4775   2.63269e-18 
  8734.6807   3.24052e-18 
  8735.8828   4.50624e-18 
  8737.0859    1.8384e-18 
  8738.2891   4.12031e-18 
  8739.4912   2.76787e-18 
  8740.6943    3.0167e-18 
  8741.8965   5.26733e-18 
  8743.0996   8.05817e-19 
  8744.3027   1.31772e-18 
  8745.5049   2.10899e-18 
   8746.708   4.49245e-18 
  8747.9111   4.15455e-18 
  8749.1133   3.03206e-18 
  8750.3164   3.40177e-18 
  8751.5186   3.42443e-18 
  8752.7217   3.04689e-18 
  8753.9238   5.14592e-18 
   8755.127   3.55571e-18 
  8756.3301   2.72185e-18 
  8757.5322   4.48907e-18 
  8758.7354   1.07231e-18 
  8759.9375   4.35648e-18 
  8761.1406   4.08286e-18 
  8762.3428   2.53041e-18 
  8763.5459  -5.99942e-19 
   8764.749   3.37753e-18 
  8765.9512   3.05499e-18 
  8767.1543  -2.46527e-18 
  8768.3564   2.07673e-18 
  8769.5596   1.19012e-18 
  8770.7617   7.26678e-18 
  8771.9648   8.89604e-19 
   8773.167   3.58984e-18 
  8774.3701   4.89293e-18 
  8775.5723   2.44223e-18 
  8776.7754   5.55516e-18 
  8777.9775   4.83359e-18 
  8779.1807   1.54854e-18 
  8780.3828    4.4933e-18 
  8781.5859   6.90916e-20 
  8782.7881  -2.63761e-18 
  8783.9912    2.4789e-18 
  8785.1934   3.71253e-18 
  8786.3965   2.73745e-18 
  8787.5986   1.04296e-18 
  8788.8018   4.81108e-18 
  8790.0039   3.55542e-18 
   8791.207   2.55688e-18 
  8792.4092   2.12948e-18 
  8793.6123   4.89629e-18 
  8794.8145   3.93697e-18 
  8796.0176   2.45358e-18 
  8797.2197   5.06688e-18 
  8798.4219   4.44728e-18 
   8799.625   1.15255e-18 
  8800.8271   3.26664e-18 
  8802.0303   3.29807e-18 
  8803.2324   3.31053e-18 
  8804.4355   3.56043e-18 
  8805.6377   3.54378e-18 
  8806.8398  -9.78936e-19 
   8808.043   1.20945e-18 
  8809.2451   1.37576e-18 
  8810.4482   2.02832e-18 
  8811.6504   3.68761e-18 
  8812.8525   2.08321e-18 
  8814.0557   1.92128e-19 
  8815.2578   9.74496e-19 
    8816.46   2.81395e-18 
  8817.6631   1.53477e-18 
  8818.8652   3.82646e-18 
  8820.0684   3.48807e-18 
  8821.2705    1.0008e-18 
  8822.4727  -2.60405e-19 
  8823.6758   1.26362e-18 
  8824.8779   5.03463e-18 
  8826.0801   4.20046e-18 
  8827.2832    1.2247e-17 
  8828.4854  -5.79503e-18 
  8829.6875   2.58552e-18 
  8830.8906  -1.30797e-18 
  8832.0928  -6.12676e-18 
  8833.2949  -2.32337e-18 
  8834.4971   1.05494e-17 
  8835.7002   2.15312e-18 
  8836.9023   4.43637e-18 
  8838.1045   6.47566e-18 
  8839.3076   5.16062e-18 
  8840.5098  -5.07363e-18 
  8841.7119  -6.51913e-19 
  8842.9141   2.45214e-18 
  8844.1172   3.91515e-18 
  8845.3193   3.16205e-18 
  8846.5215   3.92951e-18 
  8847.7236   4.93255e-18 
  8848.9268   3.48291e-18 
  8850.1289   6.68158e-18 
  8851.3311   1.54039e-18 
  8852.5332     3.131e-18 
  8853.7363   6.84473e-19 
  8854.9385   8.14049e-19 
  8856.1406   1.16618e-18 
  8857.3428   5.30989e-18 
  8858.5449   6.70178e-19 
   8859.748   3.18766e-18 
  8860.9502   3.05743e-18 
  8862.1523  -5.84754e-19 
  8863.3545   5.85816e-19 
  8864.5566   3.54568e-18 
  8865.7588   7.12074e-18 
  8866.9619    5.2098e-19 
  8868.1641  -8.53457e-19 
  8869.3662   6.63994e-18 
  8870.5684   2.66751e-18 
  8871.7705  -2.24295e-18 
  8872.9727   1.28775e-18 
  8874.1748   2.15601e-18 
   8875.377   2.93369e-18 
  8876.5801   4.63779e-18 
  8877.7822   3.03693e-18 
  8878.9844   2.66437e-18 
  8880.1865   1.62108e-18 
  8881.3887   4.14785e-18 
  8882.5908   6.38436e-18 
   8883.793   1.02053e-17 
  8884.9951  -1.35599e-18 
  8886.1973   3.06254e-18 
  8887.3994   2.41204e-18 
  8888.6016   2.07021e-18 
  8889.8037   -7.3294e-18 
  8891.0059   -1.4284e-18 
   8892.209   1.35225e-18 
  8893.4111   1.01343e-18 
  8894.6133  -1.24598e-19 
  8895.8154   3.56032e-18 
  8897.0176   2.26958e-18 
  8898.2197   3.68949e-18 
  8899.4219   4.11469e-18 
   8900.624   2.72147e-18 
  8901.8262   1.02261e-17 
  8903.0273  -2.18544e-19 
  8904.2305   4.52995e-19 
  8905.4316   3.46631e-18 
  8906.6338    7.9948e-18 
  8907.8359   5.64346e-18 
  8909.0381   5.42997e-18 
  8910.2402   3.00953e-18 
  8911.4424   4.22707e-18 
  8912.6445   8.23053e-19 
  8913.8467   2.26139e-18 
  8915.0488  -2.02404e-18 
   8916.251   2.26216e-18 
  8917.4531   2.57501e-18 
  8918.6553   4.79704e-18 
  8919.8574   8.75451e-18 
  8921.0586   5.24099e-18 
  8922.2607  -4.00654e-18 
  8923.4629   -4.6456e-18 
   8924.665  -3.84222e-18 
  8925.8672   6.93984e-19 
  8927.0693   4.13587e-18 
  8928.2715   5.14692e-18 
  8929.4727    3.5081e-18 
  8930.6748   3.92949e-18 
   8931.877   4.14484e-18 
  8933.0791  -2.75011e-19 
  8934.2812   3.02699e-18 
  8935.4824   2.53045e-18 
  8936.6846   -6.2494e-19 
  8937.8867  -4.03585e-20 
  8939.0889   4.46457e-18 
   8940.291   2.86182e-18 
  8941.4922   3.61021e-18 
  8942.6943  -4.82454e-19 
  8943.8965   9.38561e-19 
  8945.0986   2.19406e-18 
  8946.2998   1.22853e-18 
   8947.502   3.95787e-19 
  8948.7041   1.97576e-18 
  8949.9062   3.02126e-18 
  8951.1074   8.79037e-19 
  8952.3096   2.48519e-18 
  8953.5117  -7.43998e-19 
  8954.7129  -1.72052e-18 
   8955.915   1.02817e-17 
  8957.1172   1.39082e-18 
  8958.3184   1.45544e-18 
  8959.5205   1.32177e-18 
  8960.7227   6.57967e-18 
  8961.9238   2.07007e-18 
   8963.126   5.56953e-19 
  8964.3281   2.39242e-18 
  8965.5293   4.44889e-18 
  8966.7314   1.47935e-18 
  8967.9326   4.02162e-18 
  8969.1348   3.40336e-18 
  8970.3369   1.92404e-18 
  8971.5381   2.65832e-18 
  8972.7402    2.6286e-18 
  8973.9414    2.0555e-18 
  8975.1436   1.30464e-18 
  8976.3447    2.2607e-18 
  8977.5469   2.26719e-18 
   8978.749   2.81238e-18 
  8979.9502   5.80561e-18 
  8981.1523   3.72953e-18 
  8982.3535   4.52528e-18 
  8983.5557   1.98193e-18 
  8984.7568   4.79448e-18 
   8985.959   8.06534e-18 
  8987.1602   4.22999e-18 
  8988.3623  -2.67572e-18 
  8989.5635   1.48916e-18 
  8990.7646  -3.74115e-18 
  8991.9668   3.08175e-18 
   8993.168   2.86222e-18 
  8994.3701   1.38189e-18 
  8995.5713   1.43957e-18 
  8996.7734   1.38018e-18 
  8997.9746   5.41012e-18 
  8999.1768   8.73211e-18 
  9000.3779   1.07412e-17 
  9001.5791  -2.68544e-18 
  9002.7812   1.29622e-18 
  9003.9824   1.16719e-18 
  9005.1836   7.31659e-19 
  9006.3857  -5.71362e-21 
  9007.5869   3.33056e-18 
  9008.7891   3.45653e-18 
  9009.9902   1.76424e-18 
  9011.1914   4.28707e-18 
  9012.3926   1.93738e-18 
  9013.5947   9.86433e-19 
  9014.7959    7.2334e-19 
  9015.9971   1.84879e-18 
  9017.1992   2.73619e-18 
  9018.4004   8.40439e-19 
  9019.6016   3.20526e-18 
  9020.8027   3.59566e-18 
  9022.0049   6.53113e-18 
  9023.2061   1.44745e-18 
  9024.4072   2.06867e-18 
  9025.6084   3.26126e-18 
  9026.8105   1.86666e-18 
  9028.0117   2.55374e-18 
  9029.2129    3.8599e-18 
  9030.4141   2.06094e-18 
  9031.6152   2.55967e-18 
  9032.8174   1.81078e-18 
  9034.0186   1.92563e-18 
  9035.2197   2.82685e-18 
  9036.4209   5.23915e-18 
  9037.6221   1.89592e-18 
  9038.8232   4.69596e-18 
  9040.0244   1.21182e-18 
  9041.2266   3.33278e-18 
  9042.4277    1.9054e-18 
  9043.6289   2.68732e-18 
  9044.8301    2.5199e-18 
  9046.0312   9.41206e-19 
  9047.2324   3.75233e-18 
  9048.4336   1.32629e-18 
  9049.6348   4.67035e-19 
  9050.8359   3.81245e-19 
  9052.0371    5.0254e-18 
  9053.2383   1.79143e-18 
  9054.4395   6.60853e-19 
  9055.6406   2.75861e-18 
  9056.8418   2.85727e-18 
   9058.043   3.57853e-18 
  9059.2441   2.13575e-18 
  9060.4453   1.37212e-18 
  9061.6465   2.94726e-18 
  9062.8477     2.409e-20 
  9064.0488   1.71728e-18 
    9065.25   3.64992e-18 
  9066.4512   3.30002e-18 
  9067.6523   4.56107e-18 
  9068.8535   1.11849e-18 
  9070.0547    1.4366e-18 
  9071.2559   2.99917e-18 
  9072.4561   3.29426e-18 
  9073.6572   4.59051e-18 
  9074.8584   3.16225e-18 
  9076.0596   3.49285e-18 
  9077.2607   2.08728e-18 
  9078.4619   3.13839e-18 
  9079.6631   2.96736e-18 
  9080.8633    2.1616e-18 
  9082.0645   3.46926e-18 
  9083.2656   1.03629e-18 
  9084.4668   1.83919e-18 
   9085.668   2.21517e-18 
  9086.8682   7.80349e-19 
  9088.0693   4.25385e-19 
  9089.2705   4.41339e-18 
  9090.4717   5.22266e-18 
  9091.6719   4.27733e-18 
   9092.873   9.30909e-19 
  9094.0742   2.88923e-18 
  9095.2744   6.25038e-18 
  9096.4756   2.27505e-18 
  9097.6768   2.31639e-18 
   9098.877   1.04403e-18 
  9100.0781   3.79268e-18 
  9101.2793   1.36177e-18 
  9102.4795   1.18032e-18 
  9103.6807   3.31033e-18 
  9104.8818   5.53615e-18 
   9106.082  -2.91585e-18 
  9107.2832   3.26102e-18 
  9108.4844   4.38493e-18 
  9109.6846   2.18838e-18 
  9110.8857   2.55376e-18 
  9112.0859   4.30431e-18 
  9113.2871   2.63384e-18 
  9114.4873   3.36106e-18 
  9115.6885    1.6068e-18 
  9116.8887    2.7827e-18 
  9118.0898   3.23231e-18 
    9119.29   3.06632e-18 
  9120.4912    2.1464e-18 
  9121.6914   1.32679e-18 
  9122.8926   4.76145e-18 
  9124.0928   3.15063e-18 
  9125.2939   2.18571e-18 
  9126.4941   2.02275e-18 
  9127.6953   2.65042e-18 
  9128.8955    8.3696e-19 
  9130.0957    3.7765e-19 
  9131.2969   3.64097e-18 
  9132.4971  -6.55539e-19 
  9133.6982   1.79308e-18 
  9134.8984   4.34077e-18 
  9136.0986   3.07458e-18 
  9137.2998   2.04731e-18 
     9138.5   3.07558e-18 
  9139.7002   2.69708e-18 
  9140.9014   1.09741e-18 
  9142.1016   3.97095e-18 
  9143.3018   1.70605e-18 
  9144.5029   1.88829e-18 
  9145.7031    2.0927e-18 
  9146.9033   2.04147e-18 
  9148.1035   2.82805e-18 
  9149.3047    3.4152e-18 
  9150.5049   1.45963e-18 
  9151.7051   9.98277e-19 
  9152.9053   5.13176e-18 
  9154.1064   1.45126e-18 
  9155.3066    3.3836e-18 
  9156.5068   3.23036e-18 
   9157.707   2.68139e-18 
  9158.9072   2.42766e-18 
  9160.1074   1.93959e-18 
  9161.3076   2.85352e-18 
  9162.5088   2.86811e-18 
   9163.709   1.10203e-18 
  9164.9092   1.22104e-18 
  9166.1094   3.50653e-18 
  9167.3096   2.62534e-18 
  9168.5098   3.68655e-18 
    9169.71   2.01581e-18 
  9170.9102   2.10135e-18 
  9172.1104   3.50668e-18 
  9173.3105   1.06907e-18 
  9174.5107   5.58671e-18 
  9175.7109   3.80532e-18 
  9176.9111   2.34158e-18 
  9178.1113   1.51917e-18 
  9179.3115   1.73491e-18 
  9180.5117    2.7031e-18 
  9181.7119   3.68821e-18 
  9182.9121   5.36313e-19 
  9184.1123   1.48973e-18 
  9185.3125   2.48479e-18 
  9186.5127   1.61864e-18 
  9187.7129   3.47362e-18 
  9188.9131   2.99961e-18 
  9190.1133   1.25542e-18 
  9191.3135   3.65651e-18 
  9192.5127   2.06149e-19 
  9193.7129   3.49807e-18 
  9194.9131   2.90888e-18 
  9196.1133   2.25891e-20 
  9197.3135   2.84325e-18 
  9198.5127   3.32045e-18 
  9199.7129   3.22029e-18 
  9200.9131     2.325e-18 
  9202.1133   3.57796e-18 
  9203.3135   2.67798e-18 
  9204.5127   3.06044e-18 
  9205.7129   5.93503e-18 
  9206.9131   2.83991e-18 
  9208.1123   2.60405e-18 
  9209.3125   1.51464e-18 
  9210.5127    3.3633e-18 
  9211.7119   1.12008e-18 
  9212.9121   3.58639e-18 
  9214.1123   3.71782e-18 
  9215.3115   4.97469e-18 
  9216.5117   1.66711e-18 
  9217.7119     3.907e-19 
  9218.9111   5.01042e-18 
  9220.1113   4.52619e-20 
  9221.3105   4.81225e-19 
  9222.5107    2.8404e-18 
  9223.7109   4.78104e-18 
  9224.9102   2.30515e-18 
  9226.1104   2.71862e-18 
  9227.3096   4.89439e-18 
  9228.5098   1.62463e-18 
   9229.709  -1.88631e-19 
  9230.9092   3.47058e-18 
  9232.1084   3.71864e-19 
  9233.3086   4.01265e-18 
  9234.5078    1.4294e-18 
   9235.707    7.6144e-19 
  9236.9072   3.46706e-18 
  9238.1064   4.19887e-18 
  9239.3066   1.78752e-18 
  9240.5059   3.25776e-18 
  9241.7051   3.69398e-18 
  9242.9053    2.3934e-18 
  9244.1045   2.56323e-18 
  9245.3047   3.61631e-18 
  9246.5039   1.67441e-18 
  9247.7031   2.91512e-18 
  9248.9023    2.5063e-18 
  9250.1025   2.72798e-18 
  9251.3018   1.38628e-18 
   9252.501   5.36452e-18 
  9253.7012   3.03989e-18 
  9254.9004   2.55296e-18 
  9256.0996   1.83642e-18 
  9257.2988    4.2544e-19 
   9258.498   5.77598e-19 
  9259.6982   1.82136e-18 
  9260.8975   2.23071e-18 
  9262.0967   1.28428e-18 
  9263.2959   2.48809e-18 
  9264.4951   3.54464e-18 
  9265.6943   9.68021e-19 
  9266.8945   4.12487e-18 
  9268.0938   1.12854e-18 
   9269.293   3.32952e-18 
  9270.4922   2.68185e-18 
  9271.6914   2.70233e-18 
  9272.8906   4.09171e-18 
  9274.0898   4.96768e-18 
  9275.2891   2.26925e-18 
  9276.4883    2.8329e-18 
  9277.6875   3.90937e-18 
  9278.8867   3.24689e-18 
  9280.0859   2.98173e-18 
  9281.2852   4.35246e-18 
  9282.4844   2.02065e-18 
  9283.6836   3.27033e-18 
  9284.8828   1.98702e-18 
   9286.082   2.61647e-18 
  9287.2812   2.65093e-18 
  9288.4805   1.95236e-18 
  9289.6787   3.51211e-18 
  9290.8779   3.28618e-18 
  9292.0771   1.74083e-18 
  9293.2764   3.10676e-18 
  9294.4756   2.41795e-18 
  9295.6748   3.07396e-18 
   9296.873   2.66348e-18 
  9298.0723   4.42267e-19 
  9299.2715   2.15583e-18 
  9300.4707   2.69017e-18 
  9301.6689   2.67534e-18 
  9302.8682   3.58577e-18 
  9304.0674    7.7339e-18 
  9305.2666   9.32263e-18 
  9306.4648   5.56121e-18 
  9307.6641   3.99532e-18 
  9308.8633   6.96126e-18 
  9310.0615  -1.66215e-18 
  9311.2607   1.44629e-17 
    9312.46  -1.27383e-19 
  9313.6582  -3.08894e-18 
  9314.8574   6.11565e-18 
  9316.0566   5.21348e-18 
  9317.2549  -5.29646e-18 
  9318.4541  -2.07181e-18 
  9319.6523   -1.0405e-18 
  9320.8516   5.80663e-18 
  9322.0498   7.79001e-18 
   9323.249  -4.00725e-18 
  9324.4473   7.43071e-18 
  9325.6465   1.51802e-17 
  9326.8447  -1.03427e-18 
  9328.0439  -3.20982e-18 
  9329.2422  -1.90112e-18 
  9330.4414   4.85763e-18 
  9331.6396   3.27087e-18 
  9332.8379   4.01239e-18 
  9334.0371   2.99328e-18 
  9335.2354   7.45116e-18 
  9336.4346     5.166e-18 
  9337.6328   1.94599e-18 
  9338.8311   6.29934e-18 
  9340.0303   2.51206e-18 
  9341.2285  -1.50193e-18 
  9342.4268   2.22487e-19 
   9343.626  -2.52158e-20 
  9344.8242   3.42162e-18 
  9346.0225    4.2693e-18 
  9347.2207   6.27807e-18 
  9348.4189   4.28127e-18 
  9349.6182   3.26299e-18 
  9350.8164   2.41046e-18 
  9352.0146   1.65134e-18 
  9353.2129   3.56432e-18 
  9354.4111   3.19081e-18 
  9355.6104   3.63683e-18 
  9356.8086   9.03518e-19 
  9358.0068   3.32662e-18 
  9359.2051  -6.67772e-20 
  9360.4033   3.30469e-18 
  9361.6016   2.04407e-18 
  9362.7998   1.60794e-18 
   9363.998   1.53995e-18 
  9365.1963   3.05322e-18 
  9366.3945   1.49268e-18 
  9367.5928   3.16878e-18 
   9368.791   4.84581e-18 
  9369.9893   2.11817e-18 
  9371.1875  -5.85048e-19 
  9372.3857   5.60864e-19 
   9373.584   2.48565e-17 
  9374.7822   1.55698e-17 
  9375.9805   4.80612e-18 
  9377.1787  -1.96941e-18 
   9378.377   7.62286e-18 
  9379.5752  -1.90171e-17 
  9380.7734  -2.03216e-17 
  9381.9707  -1.65446e-18 
  9383.1689   1.36447e-18 
  9384.3672   2.74633e-18 
  9385.5654   6.37885e-18 
  9386.7637  -5.92304e-19 
  9387.9609   1.67633e-18 
  9389.1592   3.67355e-18 
  9390.3574   2.61733e-18 
  9391.5557   3.13419e-18 
  9392.7529   3.24889e-18 
  9393.9512   3.03002e-18 
  9395.1494    3.2084e-18 
  9396.3467   2.51483e-18 
  9397.5449    2.5027e-18 
  9398.7432   2.35643e-18 
  9399.9404   4.02031e-18 
  9401.1387   3.02591e-18 
  9402.3369   3.30559e-18 
  9403.5342    2.0553e-18 
  9404.7324   2.94146e-18 
  9405.9297   2.20177e-18 
  9407.1279  -6.68873e-19 
  9408.3252   5.87188e-18 
  9409.5234   3.98782e-18 
  9410.7207   4.69421e-18 
  9411.9189   3.96537e-18 
  9413.1162   2.76488e-18 
  9414.3145   -5.2405e-19 
  9415.5117  -7.94442e-19 
    9416.71   5.84594e-18 
  9417.9072   1.12924e-17 
  9419.1055   5.74408e-19 
  9420.3027  -5.78011e-19 
     9421.5   6.08017e-18 
  9422.6982   2.05388e-18 
  9423.8955  -7.47701e-19 
  9425.0928  -2.73863e-19 
   9426.291  -5.73374e-19 
  9427.4883  -1.35584e-18 
  9428.6855   2.27082e-18 
  9429.8828  -1.21756e-18 
  9431.0811    2.8609e-18 
  9432.2783   2.38685e-18 
  9433.4756   3.06719e-18 
  9434.6729   2.44524e-18 
  9435.8701  -4.16181e-19 
  9437.0684   2.68902e-17 
  9438.2656   7.00164e-18 
  9439.4629  -1.18447e-17 
  9440.6602  -6.67879e-18 
  9441.8574  -3.52293e-18 
  9443.0547  -1.15781e-17 
   9444.252  -1.17174e-17 
  9445.4492  -2.52421e-18 
  9446.6475   2.74467e-18 
  9447.8447   5.53927e-18 
   9449.042   3.99005e-18 
  9450.2393   1.90707e-18 
  9451.4365   3.86214e-18 
  9452.6338   2.96231e-18 
  9453.8311     1.887e-18 
  9455.0283   1.10891e-18 
  9456.2256   1.20145e-17 
  9457.4219   1.10858e-17 
  9458.6191   8.44399e-18 
  9459.8164   3.19309e-18 
  9461.0137   2.00611e-18 
  9462.2109  -6.27988e-19 
  9463.4082   1.12403e-18 
  9464.6055   3.54124e-18 
  9465.8018   7.21672e-19 
   9466.999   3.76067e-19 
  9468.1963   1.77483e-18 
  9469.3936    2.3882e-18 
  9470.5908   3.04558e-18 
  9471.7871   1.33602e-18 
  9472.9844  -5.49633e-18 
  9474.1816   5.81318e-18 
  9475.3779   1.67636e-17 
  9476.5752   1.02339e-17 
  9477.7725  -1.68615e-18 
  9478.9688   1.69419e-17 
   9480.166   4.18851e-18 
  9481.3633  -1.47779e-17 
  9482.5596   2.86959e-18 
  9483.7568   3.94364e-18 
  9484.9531   3.55549e-18 
  9486.1504   4.30239e-18 
  9487.3477   3.01809e-18 
  9488.5439   1.94837e-18 
  9489.7412   1.78639e-18 
  9490.9375   2.78179e-18 
  9492.1348  -4.76041e-19 
  9493.3311   3.29313e-18 
  9494.5273   3.01626e-18 
  9495.7246   1.24929e-18 
  9496.9209   1.78925e-18 
  9498.1182   1.46304e-18 
  9499.3145    8.1344e-18 
  9500.5117   1.24983e-17 
   9501.708  -1.35506e-18 
  9502.9043    2.2905e-18 
  9504.1016   4.24595e-18 
  9505.2979    7.9749e-18 
  9506.4941  -4.28864e-18 
  9507.6904  -5.91272e-19 
  9508.8877   3.92843e-18 
   9510.084   2.36489e-18 
  9511.2803   3.50697e-18 
  9512.4766   4.24809e-18 
  9513.6738   2.26345e-18 
  9514.8701   1.21932e-18 
  9516.0664    6.5972e-18 
  9517.2627   1.10696e-17 
   9518.459   6.23834e-18 
  9519.6553   5.70309e-18 
  9520.8516  -5.14511e-18 
  9522.0488   3.11869e-18 
  9523.2451   2.90306e-18 
  9524.4414    3.6958e-18 
  9525.6377   7.98466e-19 
   9526.834   2.72196e-18 
  9528.0303   2.25369e-18 
  9529.2266   2.85253e-18 
  9530.4229   5.81825e-18 
  9531.6191   6.08926e-18 
  9532.8154   4.16817e-18 
  9534.0117   2.87643e-18 
   9535.207   2.45874e-18 
  9536.4033   2.91335e-18 
  9537.5996   5.01221e-18 
  9538.7959   7.78309e-19 
  9539.9922   6.56774e-18 
  9541.1885   2.87475e-18 
  9542.3848   2.61213e-18 
  9543.5801   2.12672e-18 
  9544.7764   2.43893e-18 
  9545.9727   2.55737e-18 
  9547.1689   4.34852e-18 
  9548.3643   -1.5735e-19 
  9549.5605   2.31236e-18 
  9550.7568   1.15233e-17 
  9551.9531    4.4411e-18 
  9553.1484   3.23921e-18 
  9554.3447   6.31395e-18 
    9555.54   4.63816e-18 
  9556.7363  -1.34874e-18 
  9557.9326   2.28421e-18 
  9559.1279   6.67392e-18 
  9560.3242   2.02185e-18 
  9561.5195    3.8078e-18 
  9562.7158   3.31863e-18 
  9563.9121   5.77416e-18 
  9565.1074    1.0502e-17 
  9566.3037  -1.16964e-17 
   9567.499   3.12932e-18 
  9568.6943   6.66223e-18 
  9569.8906   6.08561e-18 
  9571.0859  -6.57097e-18 
  9572.2822  -3.18204e-19 
  9573.4775   3.41677e-18 
  9574.6738   4.34075e-18 
  9575.8691   5.00446e-18 
  9577.0645   4.09532e-18 
  9578.2607    3.6191e-18 
  9579.4561   3.58123e-18 
  9580.6514   6.50067e-19 
  9581.8467    4.6694e-18 
   9583.043   4.58936e-18 
  9584.2383   2.85702e-18 
  9585.4336   3.85729e-18 
  9586.6289   2.74285e-18 
  9587.8252   2.80828e-18 
  9589.0205   4.30947e-18 
  9590.2158   6.84738e-18 
  9591.4111   9.26964e-19 
  9592.6064   2.52952e-18 
  9593.8018   1.66931e-18 
  9594.9971    4.3608e-18 
  9596.1934   1.01007e-18 
  9597.3887    4.2637e-18 
   9598.584   3.68106e-18 
  9599.7793   4.09016e-18 
  9600.9746   2.88872e-18 
  9602.1699   3.20473e-18 
  9603.3652   1.75184e-18 
  9604.5605  -4.59022e-19 
  9605.7559  -3.79073e-19 
  9606.9512   2.47569e-18 
  9608.1455   4.29573e-18 
  9609.3408   9.17989e-18 
  9610.5361   1.63718e-18 
  9611.7314   1.09675e-18 
  9612.9268   2.04159e-18 
  9614.1221  -4.66756e-19 
  9615.3174    3.5386e-18 
  9616.5117   4.92819e-19 
   9617.707   2.67315e-18 
  9618.9023   6.63733e-18 
  9620.0977   1.89053e-18 
   9621.292   3.23087e-18 
  9622.4873   6.55572e-18 
  9623.6826   8.06096e-18 
   9624.877   1.22426e-18 
  9626.0723   3.68272e-18 
  9627.2676    3.4542e-18 
  9628.4619   3.98352e-18 
  9629.6572   2.84018e-18 
  9630.8525   1.72252e-18 
  9632.0469   3.18127e-18 
  9633.2422   3.33891e-18 
  9634.4365    4.6022e-18 
  9635.6318   4.08222e-18 
  9636.8262   1.58944e-18 
  9638.0215   9.08048e-19 
  9639.2158   3.48382e-18 
  9640.4111   1.77597e-18 
  9641.6055   6.79619e-19 
  9642.8008   3.77851e-18 
  9643.9951   2.87349e-18 
  9645.1895   1.96627e-18 
  9646.3848   3.52295e-18 
  9647.5791   6.35485e-18 
  9648.7744   3.61435e-18 
  9649.9688   3.98224e-18 
  9651.1631   2.77787e-18 
  9652.3574   3.53276e-18 
  9653.5527   1.96029e-18 
  9654.7471   3.11057e-18 
  9655.9414   2.34798e-18 
  9657.1357   3.37171e-18 
  9658.3311   3.55868e-18 
  9659.5254   4.31193e-18 
  9660.7197   5.46984e-18 
  9661.9141   2.63329e-18 
  9663.1084   4.26538e-18 
  9664.3027   3.71404e-18 
   9665.498   2.63043e-18 
  9666.6924   4.85156e-18 
  9667.8867   2.71514e-18 
  9669.0811   7.32869e-18 
  9670.2754   1.43938e-18 
  9671.4697   2.79883e-18 
  9672.6641  -9.91076e-19 
  9673.8584   4.10511e-18 
  9675.0527   7.39848e-20 
  9676.2471   1.26737e-18 
  9677.4414   2.43955e-18 
  9678.6357   8.76928e-18 
  9679.8291   6.31508e-18 
  9681.0234   5.43887e-18 
  9682.2178   3.28919e-18 
  9683.4121   9.34576e-19 
  9684.6064    3.7377e-18 
  9685.8008    2.5506e-18 
  9686.9941   2.61465e-18 
  9688.1885   5.98295e-18 
  9689.3828   4.76831e-18 
  9690.5771   4.45332e-18 
  9691.7715   6.73333e-18 
  9692.9648   6.47256e-19 
  9694.1592  -3.53997e-19 
  9695.3535   8.75764e-19 
  9696.5469   4.28211e-18 
  9697.7412   1.08701e-18 
  9698.9346   6.98185e-18 
  9700.1289  -4.51545e-18 
  9701.3232   4.30856e-18 
  9702.5166   5.43055e-18 
  9703.7109  -5.46736e-18 
  9704.9043   3.05125e-18 
  9706.0986   7.11888e-18 
   9707.292   3.76796e-18 
  9708.4863   3.87137e-18 
  9709.6797   4.55961e-18 
   9710.874   1.07756e-18 
  9712.0674   1.26938e-18 
  9713.2607   6.66761e-18 
  9714.4551   6.34336e-18 
  9715.6484   5.50746e-18 
  9716.8428   9.07914e-18 
  9718.0361   8.47474e-18 
  9719.2295   2.22803e-19 
  9720.4238   5.13583e-18 
  9721.6172   1.33167e-17 
  9722.8105   1.71477e-18 
  9724.0039  -4.45914e-18 
  9725.1982  -2.14721e-18 
  9726.3916  -7.41949e-19 
   9727.585   4.39936e-18 
  9728.7783   3.81453e-18 
  9729.9717   4.74937e-18 
   9731.166   9.63397e-20 
  9732.3594   3.52193e-18 
  9733.5527   6.66535e-18 
  9734.7461   4.20409e-18 
  9735.9395   5.05185e-18 
  9737.1328   3.06907e-19 
  9738.3262  -8.81824e-19 
  9739.5195   2.23576e-18 
  9740.7129   2.95368e-18 
  9741.9062   1.70873e-18 
  9743.0996   2.72481e-18 
   9744.293  -3.36117e-19 
  9745.4863   1.36914e-18 
  9746.6797   2.96028e-18 
   9747.873   2.84339e-18 
  9749.0664    2.2059e-18 
  9750.2598   1.58246e-18 
  9751.4521   6.11374e-18 
  9752.6455   4.57502e-18 
  9753.8389   2.31119e-18 
  9755.0322   3.35066e-18 
  9756.2256   2.80107e-18 
   9757.418   7.78537e-18 
  9758.6113   5.50315e-18 
  9759.8047   2.31197e-18 
  9760.9971   2.81297e-18 
  9762.1904   4.61103e-18 
  9763.3838   3.81059e-18 
  9764.5762   5.23796e-18 
  9765.7695   2.13197e-18 
  9766.9629   3.65045e-18 
  9768.1553   3.26425e-18 
  9769.3486   1.27785e-18 
   9770.541   1.73438e-18 
  9771.7344  -7.67715e-19 
  9772.9277   3.64825e-18 
  9774.1201   3.87274e-18 
  9775.3135   3.06176e-18 
  9776.5059   3.14178e-18 
  9777.6982   2.72627e-18 
  9778.8916   2.95873e-18 
   9780.084    1.7852e-18 
  9781.2773   6.06934e-18 
  9782.4697   7.80414e-19 
  9783.6631   3.30557e-18 
  9784.8555  -6.79548e-19 
  9786.0479  -2.29855e-18 
  9787.2402  -3.83142e-18 
  9788.4336   1.08667e-17 
   9789.626   3.46963e-18 
  9790.8184  -3.83646e-18 
  9792.0117   2.09898e-18 
  9793.2041   1.39357e-17 
  9794.3965   1.42864e-18 
  9795.5889  -8.91231e-18 
  9796.7812   4.66541e-18 
  9797.9736  -1.18784e-19 
   9799.167   7.41198e-19 
  9800.3594   9.21088e-18 
  9801.5518   6.59149e-18 
  9802.7441   -9.3812e-19 
  9803.9365  -5.76219e-19 
  9805.1289   1.77008e-18 
  9806.3213   6.73087e-19 
  9807.5137   1.35461e-18 
  9808.7061   7.37263e-18 
  9809.8984   7.50284e-18 
  9811.0908   5.50789e-18 
  9812.2832   5.92385e-18 
  9813.4756   2.63898e-18 
   9814.668   4.03058e-18 
  9815.8604   2.53143e-18 
  9817.0527  -5.66426e-19 
  9818.2441  -5.47506e-19 
  9819.4365   1.57891e-18 
  9820.6289   3.11044e-18 
  9821.8213   1.47901e-18 
  9823.0137   3.28408e-18 
  9824.2051   3.00039e-18 
  9825.3975   5.21078e-18 
  9826.5898   5.61763e-18 
  9827.7822   3.23399e-18 
  9828.9736   3.25371e-18 
   9830.166    3.1717e-19 
  9831.3584    2.2551e-18 
  9832.5498   1.00391e-18 
  9833.7422   7.06009e-19 
  9834.9336   8.26451e-19 
   9836.126   3.29165e-18 
  9837.3184   2.31422e-18 
  9838.5098   2.68898e-18 
  9839.7021   2.47935e-18 
  9840.8936   2.24539e-18 
  9842.0859   3.87073e-18 
  9843.2773   2.85029e-18 
  9844.4697   6.14307e-18 
  9845.6611   1.61049e-19 
  9846.8525    6.7131e-19 
  9848.0449   4.82969e-18 
  9849.2363   4.52187e-18 
  9850.4287   8.13544e-18 
  9851.6201  -1.49199e-18 
  9852.8115   7.24454e-19 
  9854.0039   -2.3279e-19 
  9855.1953   3.60724e-18 
  9856.3867   5.17268e-18 
  9857.5781    4.6993e-18 
  9858.7705   3.26803e-18 
  9859.9619   4.41361e-18 
  9861.1533   3.04439e-18 
  9862.3447   4.60959e-18 
  9863.5361   3.34497e-18 
  9864.7285   5.05181e-18 
  9865.9199   3.01559e-18 
  9867.1113    4.6277e-18 
  9868.3027   5.43976e-18 
  9869.4941   2.37996e-17 
  9870.6855   3.64584e-17 
   9871.877   4.15163e-17 
  9873.0684   4.59405e-17 
  9874.2598    4.8679e-17 
  9875.4512   4.43975e-17 
  9876.6426   4.49489e-17 
   9877.834   2.06023e-17 
  9879.0254   1.44217e-17 
  9880.2168   1.13778e-17 
  9881.4082      6.68e-18 
  9882.5996   3.10929e-18 
   9883.791   8.05501e-18 
  9884.9814   5.55129e-18 
  9886.1729   5.46271e-18 
  9887.3643   3.25725e-18 
  9888.5557   4.93897e-18 
  9889.7471   5.93319e-18 
  9890.9375   8.45012e-18 
  9892.1289   8.50322e-18 
  9893.3203  -1.23452e-18 
  9894.5107   3.18357e-18 
  9895.7021   7.46055e-18 
  9896.8936  -2.70155e-18 
   9898.085  -3.02451e-19 
  9899.2754   -2.6701e-18 
  9900.4668   2.29749e-18 
  9901.6572   3.87898e-18 
  9902.8486   2.78172e-18 
  9904.0391    4.9183e-18 
  9905.2305   2.16231e-18 
  9906.4219   2.19034e-18 
  9907.6123   2.98967e-18 
  9908.8027   1.14537e-18 
  9909.9941   3.29497e-18 
  9911.1846   3.45721e-18 
   9912.376   8.26238e-18 
  9913.5664   2.09059e-17 
  9914.7578  -5.58088e-18 
  9915.9482  -4.72241e-19 
  9917.1387  -1.37182e-17 
  9918.3301  -7.60743e-18 
  9919.5205  -5.76349e-18 
  9920.7109   1.82903e-18 
  9921.9023   2.05804e-18 
  9923.0928  -6.89513e-19 
  9924.2832   3.93425e-18 
  9925.4736   1.98997e-18 
   9926.665   2.69321e-18 
  9927.8555  -3.57136e-19 
  9929.0459   6.60652e-19 
  9930.2363   3.46051e-19 
  9931.4268   3.55868e-18 
  9932.6172   1.29009e-18 
  9933.8086  -1.88232e-18 
   9934.999   4.09895e-18 
  9936.1895   5.89805e-19 
  9937.3799   4.55965e-18 
  9938.5703   2.06921e-18 
  9939.7607   6.89544e-18 
  9940.9512    6.0845e-18 
  9942.1416  -2.54382e-18 
   9943.332   5.13658e-18 
  9944.5225   4.07058e-18 
  9945.7129   5.33967e-18 
  9946.9033    -1.535e-18 
  9948.0938  -1.02187e-17 
  9949.2832  -7.71181e-18 
  9950.4736  -1.04618e-17 
  9951.6641   -5.9299e-18 
  9952.8545   1.11718e-17 
  9954.0449   8.04823e-18 
  9955.2354   8.29257e-18 
  9956.4248   4.57041e-18 
  9957.6152   1.04317e-17 
  9958.8057   8.14881e-18 
  9959.9951   7.59025e-18 
  9961.1855   3.35889e-18 
   9962.376   1.14282e-17 
  9963.5654  -6.79063e-18 
  9964.7559   6.77288e-18 
  9965.9463  -6.19666e-18 
  9967.1357   2.14681e-18 
  9968.3262   6.06888e-18 
  9969.5166   9.40006e-18 
  9970.7061   3.39714e-18 
  9971.8965   5.52666e-19 
  9973.0859   3.54703e-18 
  9974.2764   8.43704e-19 
  9975.4658    5.7314e-18 
  9976.6562   2.46903e-18 
  9977.8457   2.79706e-19 
  9979.0361  -4.66809e-19 
  9980.2256    4.5251e-18 
   9981.415  -9.99514e-19 
  9982.6055  -5.34575e-19 
  9983.7949   5.26337e-19 
  9984.9844   1.94766e-18 
  9986.1748  -3.43964e-18 
  9987.3643   1.96666e-18 
  9988.5537   6.02408e-18 
  9989.7441   1.72191e-18 
  9990.9336   4.95278e-18 
   9992.123   1.36738e-18 
  9993.3125    4.7624e-18 
  9994.5029   2.80038e-19 
  9995.6924   1.95931e-18 
  9996.8818    9.1929e-19 
  9998.0713  -4.89837e-19 
  9999.2607   5.11664e-18 
  10000.451  -2.03765e-19 
   10001.64   9.41307e-19 
   10002.83    6.7337e-18 
  10004.019   1.20376e-18 
  10005.209  -2.84241e-18 
  10006.398   2.63269e-18 
  10007.588  -2.14357e-18 
  10008.777   1.13098e-17 
  10009.966    2.1133e-17 
  10011.156   4.21551e-18 
  10012.345   1.51895e-17 
  10013.535    1.2225e-17 
  10014.724   7.57593e-18 
  10015.913  -5.68525e-18 
  10017.103  -6.89283e-18 
  10018.292    5.0689e-18 
  10019.481   4.21983e-19 
  10020.671   7.38976e-19 
   10021.86   6.27439e-18 
  10023.049   5.40846e-18 
  10024.238   6.09192e-18 
  10025.427   2.77654e-18 
  10026.617    -1.045e-17 
  10027.806   6.52278e-19 
  10028.995  -3.81054e-18 
  10030.184  -1.85708e-18 
  10031.373  -1.73974e-19 
  10032.562   8.63959e-18 
  10033.751   5.59275e-18 
  10034.941   1.21943e-18 
   10036.13   2.66233e-18 
  10037.319   3.69547e-18 
  10038.508  -8.36878e-19 
  10039.697  -2.23808e-18 
  10040.886   5.72345e-18 
  10042.075  -1.26314e-19 
  10043.264   8.87725e-19 
  10044.452   7.86164e-18 
  10045.641   1.11069e-19 
   10046.83   6.43035e-18 
  10048.019  -4.42924e-18 
  10049.208  -2.36794e-18 
  10050.397  -1.10897e-18 
  10051.586   2.25555e-18 
  10052.775   9.08166e-19 
  10053.963   1.71324e-18 
  10055.152   1.23071e-18 
  10056.341   7.73652e-18 
   10057.53   4.29331e-18 
  10058.718  -3.68356e-19 
  10059.907    2.6722e-18 
  10061.096   7.64165e-18 
  10062.285   3.73976e-18 
  10063.473  -6.20443e-18 
  10064.662   8.97971e-19 
   10065.85   3.83994e-18 
  10067.039   3.63026e-18 
  10068.228   4.23191e-18 
  10069.416   -3.1557e-18 
  10070.605    4.2115e-18 
  10071.793   8.23657e-18 
  10072.982  -1.17214e-18 
   10074.17   4.71962e-18 
  10075.359   4.37643e-18 
  10076.547  -4.58135e-18 
  10077.736  -9.49904e-20 
  10078.924   2.68632e-18 
  10080.113   1.23291e-17 
  10081.301   3.13574e-18 
   10082.49  -1.12268e-17 
  10083.678   7.18752e-18 
  10084.866  -2.72138e-18 
  10086.055   6.08512e-18 
  10087.243  -5.93722e-18 
  10088.431  -2.56295e-18 
   10089.62  -2.36681e-19 
  10090.808  -3.56454e-18 
  10091.996  -6.48423e-19 
  10093.185    5.5464e-18 
  10094.373    4.8418e-18 
  10095.561   2.17215e-19 
  10096.749   -1.2568e-19 
  10097.937  -2.09531e-18 
  10099.126   2.16201e-18 
  10100.314   5.50574e-18 
  10101.502   5.79758e-18 
   10102.69  -1.26066e-18 
  10103.878    3.8665e-18 
  10105.066   4.63265e-18 
  10106.254  -1.52076e-18 
  10107.442  -4.55319e-18 
   10108.63   3.93972e-18 
  10109.818   5.99809e-18 
  10111.006   3.84401e-19 
  10112.194   2.08593e-18 
  10113.382   1.19133e-20 
   10114.57  -5.27402e-18 
  10115.758   7.25388e-20 
  10116.946    2.3057e-18 
  10118.134   3.23753e-18 
  10119.322  -4.80477e-18 
   10120.51  -3.57065e-18 
  10121.698   -5.3975e-18 
  10122.886   1.71389e-17 
  10124.073  -6.02304e-19 
  10125.261   5.24677e-18 
  10126.449   8.31181e-18 
  10127.637  -1.42042e-17 
  10128.825   -2.0934e-18 
  10130.012  -3.70007e-18 
    10131.2  -1.55302e-18 
  10132.388   6.34615e-18 
  10133.576   5.28004e-18 
  10134.763   8.24465e-18 
  10135.951   2.83006e-18 
  10137.139   4.78383e-18 
  10138.326  -4.71473e-18 
  10139.514   9.22288e-18 
  10140.701  -1.83771e-18 
  10141.889   4.69341e-18 
  10143.077   3.96145e-18 
  10144.264  -4.11932e-18 
  10145.452   1.27955e-18 
  10146.639  -3.19459e-18 
  10147.827   8.13628e-19 
  10149.014   1.25155e-17 
  10150.202   8.74466e-18 
  10151.389   5.19449e-18 
  10152.577   1.25179e-17 
  10153.764   1.91214e-17 
  10154.952  -4.09993e-18 
  10156.139  -4.51373e-18 
  10157.326   6.81332e-18 
  10158.514  -1.08328e-17 
  10159.701   1.66873e-17 
  10160.888   2.44581e-17 
  10162.076   5.34152e-18 
  10163.263   2.43733e-18 
   10164.45  -1.20119e-17 
  10165.638   5.73671e-18 
  10166.825   3.47149e-18 
  10168.012   2.25772e-19 
  10169.199  -5.98525e-18 
  10170.387   7.45871e-18 
  10171.574   2.02673e-17 
  10172.761  -2.74885e-18 
  10173.948  -1.64626e-17 
  10175.135  -1.39271e-17 
  10176.322  -1.46363e-17 
   10177.51  -6.77923e-18 
  10178.697   6.18464e-18 
  10179.884   8.20941e-18 
  10181.071   5.19739e-18 
  10182.258   9.36918e-18 
  10183.445   3.67397e-18 
  10184.632  -5.22443e-18 
  10185.819   1.87465e-18 
  10187.006   7.19133e-18 
  10188.193   1.85018e-17 
   10189.38   1.24916e-17 
  10190.567   2.02519e-17 
  10191.754   4.74645e-18 
  10192.941   9.69973e-18 
  10194.128  -5.71502e-18 
  10195.315   5.83709e-18 
  10196.502   9.62698e-18 
  10197.688   6.84327e-18 
  10198.875   4.65107e-18 
  10200.062   4.31828e-18 
  10201.249  -1.26849e-18 
  10202.436   1.19565e-17 
  10203.623  -7.67173e-18 
  10204.809   1.00516e-17 
  10205.996   2.78128e-18 
  10207.183   -1.0083e-17 
   10208.37  -6.31466e-18 
  10209.556   1.11414e-17 
  10210.743   1.22965e-19 
   10211.93   1.88303e-18 
  10213.116  -2.94226e-18 
  10214.303   2.64588e-18 
   10215.49  -1.25814e-17 
  10216.676  -5.14561e-18 
  10217.863  -7.20231e-18 
   10219.05   9.53021e-18 
  10220.236   -2.7164e-18 
  10221.423  -1.61481e-20 
  10222.609   2.25763e-17 
  10223.796     1.915e-17 
  10224.982   1.41252e-17 
  10226.169  -1.19333e-18 
  10227.355   1.41468e-17 
  10228.542   4.90446e-20 
  10229.728  -9.41434e-19 
  10230.915  -4.82511e-18 
  10232.101  -4.99878e-18 
  10233.288   3.96187e-18 
  10234.474  -7.26322e-18 
  10235.661  -2.81187e-18 
  10236.847   7.17342e-18 
  10238.033   1.19272e-17 
   10239.22   7.75453e-18 
  10240.406   1.18393e-18 
  10241.592   6.21589e-18 
  10242.779   -1.5894e-18 
  10243.965   8.11579e-18 
  10245.151  -4.87239e-19 
  10246.338  -6.85172e-19 
  10247.524   6.65674e-18 
   10248.71    6.0357e-18 
  10249.896  -2.73854e-18 
  10251.083   -3.3905e-18 
  10252.269   1.86846e-18 
  10253.455   3.21391e-18 
  10254.641   2.40214e-18 
  10255.827   4.20254e-19 
  10257.013   2.04808e-18 
    10258.2  -1.44038e-18 
  10259.386   6.92386e-19 
  10260.572  -4.98937e-19 
  10261.758  -2.59606e-18 
  10262.944   -9.0844e-18 
   10264.13    2.5996e-18 
  10265.316   3.96349e-18 
  10266.502  -2.06277e-18 
  10267.688   4.68073e-19 
  10268.874  -6.81522e-18 
   10270.06   -6.1373e-18 
  10271.246  -3.21677e-18 
  10272.432   1.83153e-18 
  10273.618   1.46939e-18 
  10274.804  -5.76604e-18 
   10275.99   -3.8568e-19 
  10277.176  -4.39394e-18 
  10278.362   1.32915e-18 
  10279.548   2.59022e-18 
  10280.734   1.17379e-17 
   10281.92    2.1016e-17 
  10283.105   5.85207e-18 
  10284.291   5.29436e-17 
  10285.477  -1.14064e-17 
  10286.663   3.12741e-17 
  10287.849   5.63013e-17 
  10289.035   2.73661e-17 
   10290.22  -3.09848e-17 
  10291.406   -3.8389e-17 
  10292.592  -2.15103e-17 
  10293.778   1.68045e-17 
  10294.963  -1.90972e-18 
  10296.149  -2.07742e-19 
  10297.335  -3.20132e-19 
   10298.52   2.08986e-17 
  10299.706  -1.65315e-17 
  10300.892   1.98167e-19 
  10302.077   3.30389e-18 
  10303.263   -1.4091e-17 
  10304.449  -8.63886e-18 
  10305.634   6.31475e-18 
