 texplosion  fnickel    Pspin  log(Bfield)      Mns  thetaPB   mejecta    kappa  kappagamma     vejecta  temperature    alpha  cutoff_wavelength  log(nhhost)      A_V         MJD0  kenergy  mnickel             TSD   log(L0)  Peak_mag     Peak_MJD  log(E_rad)  log(Peak_lum)  Rise_Time    E_fold  tau_1  delta_m15     r_peak     frac 
  -16.16422   0.2262  1.54449       12.992  1.77355  1.43574   6.04816  0.33486     0.01902  8093.93163   4896.61428  0.02324         3638.93049     17.52988  0.00019  59953.13986  2.36357  1.36811  40759955.27941  44.52989  18.03819   60057.5719    51.54091       44.52709   66.83316   79.1009   84.5    0.07336  -22.07129  0.97829 
  -12.01522  0.00659  1.62809     13.42155  1.54607   0.3973  10.98774  0.13347     0.01083  7290.31037   4864.58266  1.41335         2965.31055     18.40137   0.0014  59957.28885  3.48359  0.07243   5461365.07524  45.29742  18.07557  60049.98359    51.47778       44.45096   66.78339  79.15068   88.5    0.07711  -22.02146  0.99847 
  -13.32232  0.02134  1.26037     13.00536  1.50659  0.84508   6.59707  0.33561     0.01374  8476.52759   8724.75866  0.12348         2824.43347     20.12043  0.07331  59955.98175  2.82757  0.14079  21681541.23565  44.90975  18.04869  60055.18355    51.55154       44.56447   63.58428  72.45595   66.5    0.08056  -22.14413  0.99813 
  -14.36023  0.21106  1.66268     13.10437  1.59654  1.21165   8.04696  0.23818      0.0139  7322.42356   9658.24306  0.71768          2908.1246     18.99935  0.00555  59954.94385  2.57377  1.69841  25343262.94186  44.62655  18.04104   60057.5719    51.48943       44.47139   74.03108   76.8499   64.5    0.07463  -22.03496  0.96695 
  -13.47971  0.01421  1.85718     13.20044  1.50968  1.16235   7.25413  0.32781     0.01052  5975.97267   7812.14048  4.29664         3523.52156     16.38999    1e-05  59955.82436  1.54536  0.10305  19209662.41632   44.6265  18.04057  60056.29316    51.54463       44.53363   66.83316  76.62744   78.0    0.07936  -21.99093  0.99731 
  -14.62547    0.001  1.44241     13.11291  1.38624  0.70434   7.67558  0.27466     0.01159  6590.16775   5247.50828  2.29795         3549.25555     20.07344  0.06579   59954.6786  1.98853  0.00768    15922496.719   44.8905  18.04744  60055.31023     51.5274       44.50639   69.25685  79.15068   86.0    0.07369  -22.09821  0.99985 
  -17.34615  0.00391  1.57744      13.1641  1.60286  1.24595   9.32538   0.2935      0.0102  6991.32227   5225.87207  0.16087         5619.47255     18.03873  0.00061  59951.95792  2.71902  0.03649   17394710.5724  44.83742  18.06005  60056.29316    51.44196       44.42774   74.13976  76.74122   80.5    0.06663  -22.09356  0.99938 
  -15.38781  0.01331  1.75474     13.24447  1.84565  1.08125   8.53355   0.2482     0.01049  7040.48535   4714.93271  0.17358         5905.40112     17.21562    9e-05  59953.91626  2.52326  0.11355  17117866.10368  44.81312  18.05076   60057.5719    51.51313       44.50504    71.7303  76.67722   80.5     0.0736  -22.08311  0.99802 
  -12.87265  0.05771  1.50981     13.09436  1.52291  1.20165   6.45581  0.28689     0.01539  7506.63637   8692.96652  0.73312         2525.22652     20.25014  0.09883  59956.43142  2.17004  0.37255  20874622.17433  44.77405  18.03172  60056.29316    51.45923       44.42369   74.13976  81.68814   68.5    0.07906  -22.11589  0.99363 
  -12.48749  0.03864  1.92094     13.37217  1.57928  0.77797   7.88888  0.27868     0.01257  6437.16755   8085.45425  3.43417         3134.61399     18.89359  0.00435  59956.81658  1.94999  0.30485   9749216.00593  44.91131  18.03324   60057.5719    51.58833       44.62564    62.7876  68.30571   76.0    0.07833  -21.99731  0.99222 
  -13.23556  0.00438  1.95886     13.24965  2.00775  1.22065   7.82306  0.31138     0.01152  6935.88699   5098.27447  4.35952         2721.74485     17.50785  0.00018  59956.06851  2.24496  0.03427  22658139.57883  44.63232  18.02676   60057.5719    51.52647        44.5173   66.85348  76.60713   84.5    0.07195  -22.01429  0.99932 
  -17.25914  0.00234  1.59709     13.11793  1.84378   1.1392   8.18504  0.27358     0.01116  7636.02102    4802.0239  0.21229         2600.53017      16.0226    1e-05  59952.04494  2.84697  0.01919  25370139.15147  44.72357  18.04931  60060.62167    51.56152       44.57122   66.83316  74.15399   81.5    0.07301   -22.0562  0.99971 
  -14.74855  0.01683  1.74732     13.37228  1.49131  0.63389   9.15125   0.2721     0.01854  7895.56086   6086.22102  3.19318         2669.98596     19.86463  0.04068  59954.55552  3.40309  0.15397   7613071.99621  45.07611  18.03335  60056.29316    51.62053       44.64323    62.7876  70.77917   80.0    0.07568  -22.11064  0.99641 
  -14.07721  0.08056  1.71075     13.12991   1.6887  0.99608   7.75474  0.29875     0.01427  7497.79928   5468.46439  2.35054         3297.06625     19.59015  0.02162  59955.22686  2.60053  0.62474  25230649.44036  44.62809  18.03513   60057.5719    51.54275       44.53506   66.83316  76.62744   82.0    0.07579  -22.06618  0.98732 
  -12.77441  0.00279  1.34702     12.93809  1.74515  1.52139   6.07089  0.32658     0.01385  7875.91722   5163.55464  3.15262         2008.65221     20.34789  0.12377  59956.52966  2.24637  0.01692  39102719.76583  44.65973  18.01591  60060.62167     51.5177       44.50104   69.96308  75.97099   86.5    0.07282  -22.17492  0.99979 
  -16.47806   0.1758  1.71337      13.1255   1.8157   1.2004   7.93712  0.22668     0.01345  7438.23017   4943.76397  0.39154         2363.69922     18.54272  0.00194  59952.82602  2.61957  1.39535  27769212.98477  44.61662  18.06487  60051.47235    51.44096       44.41306   70.88784  79.99314   85.0    0.07159  -22.02321  0.97524 
  -13.45346  0.00282   1.3385     12.83037   1.5012  1.19469    8.0806  0.22119      0.0121   7451.2898   5326.43485  1.84889         3302.68559     18.12632  0.00074  59955.85062  2.67629  0.02278  54545933.91223  44.45528  18.06578   60053.2066    51.53987       44.54444    62.7876  75.72609   88.5    0.07442  -22.03084  0.99961 
  -19.26371  0.00263  1.93743     13.66153  1.86718  0.40111  10.53678   0.3001     0.01246   7214.5526   5120.85088  4.93731          2456.3401     18.53449   0.0019  59950.04036  3.27155   0.0277   3093048.07245  45.47519  18.07099  60052.24728    51.49763        44.4725   66.85348  81.55405   84.0    0.06428  -22.04452  0.99943 
  -14.11073  0.04631  1.62265     13.10938   1.6683  1.06756   7.77717  0.31645     0.01536  7818.88682   4289.46546  4.69104         2354.10916     19.65512  0.02511  59955.19334  2.83621  0.36016  24647421.58116   44.6789  18.06163    60051.177    51.45945       44.42948   69.96308  80.91791   83.0    0.07366  -22.08775  0.99342 
  -18.73763  0.00275  1.78644      13.2215  1.70856  1.07692   8.97827  0.25593     0.01535  7443.83613   4921.43233  0.39482         3447.77652     18.20734   0.0009  59950.56644  2.96765  0.02469  18256570.35273  44.73608  18.05525  60055.18355    51.51571       44.48774   68.43761  79.96992   82.5    0.07015    -22.069   0.9995 
  -15.98719  0.19981  1.39354     13.18765    1.511  0.70974   9.36775  0.33776     0.01275  8438.72067   4771.41497  0.73814         2147.12129     20.17654  0.08342  59953.31689  3.97938  1.87175  11482191.13809  45.09985  18.04624  60056.29316    51.56305       44.58107   66.05774  72.45595   79.0    0.07209  -22.19325  0.97251 
  -14.59132  0.38514  1.40473      13.2333  1.51116  0.56276   7.90902   0.1913     0.01142  7384.67794   4660.02219  0.03542         4104.45225     20.17935  0.08396  59954.71275  2.57284  3.04605   9456057.80343  45.17726  18.03827   60057.5719    51.54819       44.53839   66.83316  76.62744   84.0    0.07498  -22.09164  0.95371 
  -16.01007  0.01611  1.70471      13.1255  1.71828  1.17582   9.33256  0.22036     0.01023  6881.66093   5106.47847  3.11619         2534.37272     16.09862    1e-05    59953.294  2.63642  0.15031  26014094.85683  44.62543  18.04337  60054.52212    51.51753        44.4977   71.55763   76.8499   87.0    0.07143  -22.00408  0.99711 
  -13.63274  0.01653  1.48257     12.97498  1.74744  1.38823   7.61342  0.29158      0.0105  7333.75912   4992.20551  0.81709          3668.7936      19.1368  0.00761  59955.67133  2.44264  0.12582  40020372.56539  44.56693  18.02543  60060.62167    51.53656       44.53753   70.91107    75.023   86.0    0.07381  -22.06035  0.99809 
  -15.88199  0.00666  1.79373     13.25859  1.83769  0.92052   8.72491  0.18954      0.0113  6909.84412   4880.47245  1.41103         2287.13026     19.45543  0.01585  59953.42208  2.48499  0.05808  16688585.18388  44.80318  18.04242  60055.18355    51.54887       44.54783   63.58428  74.92941   86.5    0.07187  -22.00468   0.9989 
  -14.84045  0.02748  1.59468     13.18252  1.52067  0.74474   5.65382  0.24297     0.02344   7560.2504   4534.13539  0.09823         4312.63992     17.86686  0.00041  59954.46362  1.92771  0.15538  15493919.93543  44.85537    18.043  60056.29316    51.43171       44.38971   77.94325  82.83157   87.5    0.07179  -22.02396  0.99684 
  -16.20296  0.00185  2.04001      13.3666  2.06649  0.93359   8.85972  0.27376     0.01238   7109.8332   4839.52917   3.7552         2506.52521     16.91107    5e-05  59953.10111  2.67157  0.01641   14760888.5617   44.7957  18.02759  60056.29316    51.45985       44.45078   74.20376  76.67722   84.0    0.06832  -22.03228  0.99967 
  -13.48136   0.0088   1.7049     13.33905  1.55984  0.64579   9.99294  0.19111     0.01161  7161.75048   4827.48158  3.49251         2202.01463     16.86934    4e-05  59955.82272  3.05744  0.08798   8834732.34903  45.05234  18.05416  60054.52212    51.41579       44.37547   74.80604  81.02187   83.5    0.07374  -22.01466  0.99814 
  -15.44564  0.00159  1.86358     13.50438  1.77276  0.53829  11.21421  0.18936     0.01026   7362.6842   7959.47651  1.11988         2498.91816     16.80128    4e-05  59953.85844  3.62634  0.01789   5602662.92213  45.22841  18.08648  60051.31904    51.46277       44.45981   68.43761    75.023   74.0    0.07445  -22.01905  0.99963 
   -14.3529  0.00201  1.79105     13.33988  1.76997  0.79541   7.56653  0.29535     0.01159  7211.72114   7338.49597  2.51019         2292.23042     16.47885    2e-05  59954.95118  2.34748  0.01519  11021359.17304  44.96836  18.03992   60057.5719     51.5103       44.53887   66.38425  69.25685   76.0    0.07355  -21.99104  0.99971 
   -15.6489  0.18312  1.42849      12.9994  1.54141  0.96396   7.02942  0.26052     0.01374   7569.6081   4880.67483  0.44834          3497.8097     17.13603    8e-05  59953.65517  2.40267   1.2872  29288187.14325  44.68032  18.03817  60055.31023    51.48425       44.46527   69.96308  78.44445   85.5    0.07667   -22.0405  0.97857 
  -16.06796  0.10561  1.75267     13.15257  1.87669  1.14177    7.8516  0.26184     0.01399  7424.86875   4880.90974  0.72705         2754.64791     17.38943  0.00014  59953.23612  2.58204  0.82917  26513127.89596  44.63137  18.04013  60055.18355    51.49359       44.47557   69.25685  79.15068   86.0     0.0722  -22.03677  0.98514 
  -12.95688  0.00826  1.72767     13.15256   1.6152  1.33405   7.11505  0.30883      0.0144  7271.07096   8534.74063  2.21733         2649.73302      18.2834  0.00107  59956.34719  2.24389   0.0588  22173589.98785  44.65632  18.05725  60054.52212    51.55353       44.56631   65.26106  73.25263   71.0    0.07715   -22.0281  0.99879 
  -15.26465  0.43398  2.10995     13.44645  1.68203  1.00437  11.32968  0.15921     0.01833  7458.47606   4651.75721  0.02522         3656.63195     17.72326  0.00029  59954.03942  3.75963  4.91683   8897909.83762  44.89685  18.04032  60054.52212      51.505       44.49606   66.78339  76.67722   81.0    0.07228  -22.04959  0.88311 
  -14.98456  0.09463   1.8715     13.34719  2.09943  0.66716   7.16718  0.28593     0.01308  7171.97474   4873.72422  1.59631          3213.3372     18.40688  0.00142  59954.31952  2.19914  0.67822  13801311.66215  44.90664  18.05543  60054.52212    51.51236        44.4962   66.78339  76.67722   85.5    0.07262  -22.03736  0.98779 
  -13.75776  0.00464  1.59257     13.08517  2.09802  1.11734   7.15764  0.23232     0.01139  7734.52568   4701.93166  0.05396          4547.0303     17.89268  0.00043  59955.54631  2.55425  0.03319  33380344.82732  44.66297  18.05549  60056.29316    51.50661       44.50703   68.03847    75.023   86.0     0.0739  -22.05597  0.99955 
  -15.76331  0.02482  2.21479     13.42512   2.0177  1.12352  10.56409  0.22519     0.01164  6714.66518    5149.4546  2.10945         2911.21826     16.59995    2e-05  59953.54076  2.84124  0.26224  12974723.98751  44.76994  18.05094  60055.18355    51.54225       44.55151   63.58428  74.92941   83.0    0.06889  -22.02223   0.9939 
  -14.94461  0.00201  1.47749     12.94598   1.5454  1.52519   6.75338  0.27282     0.01616  7646.82093   4963.24392  4.74767         2013.92627     18.02666  0.00059  59954.35947  2.35565   0.0136  40174205.06853  44.51489  18.02668  60055.31023    51.48387       44.47592   71.61163   76.7959   87.0    0.07048  -22.02855  0.99976 
   -16.0444  0.00604  1.60769     13.24747  1.70707  0.80665   8.74611  0.29334     0.01022  7273.30456   9585.05284  0.76305         2683.06191     17.75039  0.00031  59953.25968  2.75998  0.05286  13107696.08654  44.97117  18.08614  60051.47235    51.45884       44.44007   69.25685  79.15068   64.0    0.07183  -22.03435  0.99912 
  -16.10519  0.00269  1.51671     13.15485  1.79213  0.84233   8.82761  0.27976     0.01045  7986.12643   9807.84892  0.80136         2366.94632      19.6606  0.02543  59953.19888  3.35848  0.02371  18762757.96535  44.88711  18.06307   60057.5719    51.56663       44.57863   66.78339   71.7303   60.5    0.07446  -22.08095  0.99965 
  -13.59751   0.0019  1.49046     12.95993   2.1355  1.30575   7.26421  0.21404     0.01093  7641.69461    5271.1167  1.40183         2496.60579     19.82917  0.03749  59955.70656  2.53043  0.01381  52977597.63784  44.52761  18.05158  60055.31023    51.51179       44.52822   66.83316  71.68053   91.0    0.07189  -22.05076  0.99982 
  -14.02986  0.17417  1.69043     13.07056  1.80178    1.039   9.40944  0.17941     0.01077  7055.93079   4972.38434  2.17462         2997.60307     19.09051  0.00684  59955.27422  2.79447  1.63889  34546400.93815  44.53015  18.06048  60056.29316    51.50128       44.50754   69.32694  71.66021   91.5    0.07121  -22.00572  0.96889 
  -16.35367  0.01508  1.57467     13.01291  1.59486  1.51253   6.08509  0.33605     0.01656  7189.47157   4905.60597  1.22033         3035.66143     16.44974    2e-05   59952.9504  1.87624  0.09179  34601654.08238  44.53809  18.05972  60056.29316    51.50283       44.48631   69.96308  78.44445   85.0    0.06995  -22.02588  0.99828 
  -13.58679  0.01256  1.48845     13.06146  1.51743  1.01756   8.67726  0.27928     0.01131    7555.192   5029.19255  2.32809         2583.66326     17.92517  0.00047  59955.71729  2.95462  0.10896  23521706.38696  44.73302  18.03922  60056.29316    51.50186       44.49583   69.25685  76.67722   81.5    0.07283  -22.04982  0.99807 
  -15.06504  0.01332  1.34981      12.9105  1.56364  1.36455   6.85497  0.29344     0.01208  7470.63843   5211.06992  2.05631         2012.98588     19.01404  0.00574  59954.23903  2.28217   0.0913  39947813.58905  44.60094  18.05579   60053.2066    51.55902       44.57323   63.58428  72.45595   85.5    0.07119  -22.02669  0.99866 
  -16.72976  0.00582   1.6834     13.14949  2.05679  1.07606   6.68767  0.31192     0.01305  7501.03766   4209.40447  0.14564         4190.84089     16.96341    5e-05  59952.57432  2.24463  0.03891  27190004.03961  44.69525  18.06581  60051.47235    51.42535       44.39478    71.7303  81.62414   83.5    0.07346  -22.04224  0.99941 
   -14.9213  0.02724  1.70469     13.08973  1.84553  1.40653   7.50316  0.31974     0.01195  7189.50497   5515.64999  3.34844         2838.55929     19.52884  0.01877  59954.38278   2.3135  0.20442  32943205.32725  44.55391  18.04481   60057.5719    51.49765       44.49908   70.88784  72.57277   86.0    0.07093  -22.04731  0.99637 
  -14.77527  0.00978  1.64602     13.12909  1.67484  1.03141   9.70429  0.22126     0.01281  8038.63025   5592.30314  1.46176         2197.86821     17.11214    7e-05   59954.5288  3.74072  0.09489  23253568.43024  44.69346  18.05739  60054.52212    51.48905       44.47315   69.25685  79.15068   83.5    0.07323   -22.0566  0.99822 
   -15.1448  0.05167  1.42031     13.09342  1.66743  0.78342   6.84129  0.31805     0.01352  7701.37527   5025.75923    0.641         2737.31254     16.55846    2e-05  59954.15927  2.42048  0.35346  20313374.41917  44.87835  18.08254   60053.2066    51.54254       44.54486   61.83647  74.20376   85.0    0.07174  -22.06879  0.99477 
  -13.21075  0.40533  1.87146     13.21722  1.86795  0.92331   7.19592  0.33434     0.01038  6418.82202   5181.07468   4.7388         3255.71962     17.90281  0.00044  59956.09332  1.76858  2.91669  22340979.48202  44.64675  18.04683   60057.5719    51.53658       44.55931   66.75024  69.28999   86.5     0.0714   -22.0142  0.94151 
  -15.59372  0.00379   1.5406     13.10268  1.79162  1.16868   8.06309  0.31246      0.0103  7494.76353   4372.72094  0.68456         2274.98688     17.41877  0.00015  59953.71035  2.70174  0.03053  24608063.20833  44.75563  18.02016   60057.5719    51.57964       44.58253   66.83316  74.15399   81.5    0.07112  -22.05098  0.99955 
  -14.80605  0.01555  1.43919     13.05215   1.7652  0.77036   8.15117  0.28625     0.01158   7693.7317   4506.27487  3.18696          2846.1938     19.33693  0.01207  59954.49802   2.8782  0.12673  26701611.45098  44.77286  18.03083   60057.5719    51.52087       44.48938   69.25685  81.62414   88.0     0.0741  -22.05531  0.99806 
  -15.94034  0.00473  1.74193     13.24051    1.657   0.8197   8.81202  0.24415     0.01211  6959.23919   5201.78125  2.04101         2933.33054     17.06398    6e-05  59953.36373  2.54581  0.04165  15423452.68909  44.81792  18.05181  60056.29316     51.5202       44.51983   69.25685  74.20376   84.5    0.07069  -22.01175  0.99913 
  -16.94207  0.23313  1.51312     13.35472  1.51666  0.50757   9.96198  0.30061     0.01041  7598.13803   4916.87543  0.41963         3517.64008     17.10647    7e-05    59952.362  3.43074  2.32241   6295267.82669  45.29097  18.05099  60054.52212    51.48958       44.51697   66.38425  69.25685   79.5    0.07045  -22.07142  0.96059 
  -14.46729  0.00148  1.54586     13.11308  1.69362  0.94135   7.29137  0.32837     0.01107  7071.98021   4740.57624  1.87599         2916.49073     17.59037  0.00022  59954.83679   2.1753  0.01083  22326223.41702  44.77051  18.03607  60052.24728    51.44239       44.41067   72.45354  80.90091   86.0    0.06873  -22.02951  0.99982 
  -15.63935  0.00477  2.06931     13.43454  1.88348  0.76018   9.41378  0.26916     0.01213  6626.10404   4994.14956  4.31223         2993.17417     18.00627  0.00056  59953.66472  2.46551   0.0449  10123911.15382  44.90681  18.06891  60055.31023    51.51752       44.51354   70.91107    75.023   84.0     0.0703  -22.03574  0.99895 
  -15.33006  0.05274  1.93782     13.36844  1.99183   0.7533   8.29854  0.25455     0.01317  7367.41624   4756.85876   1.8947         2688.14156     18.16947  0.00082  59953.97401  2.68695  0.43768  12729628.70619  44.88865  18.04001  60056.29316    51.43789       44.40691   74.20376  79.15068   83.0    0.07503  -22.03612  0.99141 
  -17.48147  0.00914  1.52954     13.08171  1.81399  1.45172   7.66336  0.30944     0.01143  7431.15055    4741.5286  0.44609         3342.36015     20.35665  0.12629   59951.8226   2.5244  0.07002  27048676.17074  44.72621  18.05201  60056.29316    51.54611       44.54556   63.58428  74.92941   82.5    0.06861  -22.15839  0.99901 
  -13.47571  0.00206    2.028      13.4897  1.88301  0.55824  11.70047  0.13939     0.01199  7480.80253   5233.11639  1.33878         2970.47889     18.75164  0.00314  59955.82837  3.90595  0.02405   7540747.47269  45.05215  18.06416  60055.31023    51.48524       44.48757    71.7303  74.20376   85.0    0.07327   -22.0211  0.99944 
   -16.8772  0.06223    1.528     13.26183  1.45584  0.66715   9.23629    0.296     0.01034  6900.61765   5541.39161  3.84091         2473.14928     19.03316    0.006  59952.42687  2.62362  0.57481   9451729.14285   45.0882  18.05571   60053.2066    51.41656        44.3881   73.80463  79.15068   84.0    0.06805  -22.03121  0.98928 
  -15.54198  0.39337  1.42212     12.97781  1.57544  0.99784   7.71487  0.25319     0.01032  7018.73064   4741.07522  1.00601         3175.01274     18.59941  0.00221  59953.76209  2.26711  3.03478  32770343.00859  44.64489  18.05043  60054.52212    51.53937       44.53838   64.27678  74.23691   89.0    0.07044  -22.00991  0.95191 
  -12.37806  0.11786  1.48591     12.93389   1.7192   1.3259   8.99998  0.17595     0.01091  7664.44255   4769.87258  3.28103         2178.82547     18.16758  0.00082  59956.92602  3.15377   1.0607   47790713.5536  44.48084  18.06309  60054.52212    51.50545       44.48437   68.43761  79.96992   89.0    0.07315  -22.01825  0.98276 
  -15.06023  0.06003  1.61981      13.0695  1.91964  1.14682    5.6183  0.32591     0.01733  7574.53327   4730.99622  1.41904         2276.30773     16.98477    5e-05  59954.24385  1.92284  0.33728  33959311.49562  44.60218  18.04539  60054.52212    51.44085       44.40119   72.45354  83.37437   87.5    0.07155  -22.03605  0.99465 
  -14.16434  0.00177  2.08212     13.23619  1.87878   1.5327  11.41795  0.17584     0.01226  7059.16782   5089.52505  4.85359         2754.33074      16.5475    2e-05  59955.13974  3.39408  0.02019  25487227.75241  44.49939   18.0456   60057.5719    51.52285       44.51287   70.91107  77.49646   86.0     0.0733  -22.02918   0.9995 
  -14.57789  0.01636   1.9378     13.26407  2.04921  1.07324   8.19899    0.298      0.0143  7722.67498   4543.36186  1.31667         2980.21885     16.88663    4e-05  59954.72618  2.91691   0.1341  21177403.11703  44.67994  18.03452   60057.5719    51.51261       44.49373   70.06275  78.34478   81.0    0.07267   -22.0688  0.99745 
  -13.69727  0.41626  1.17871     12.75974  1.37385   1.1556   7.33544  0.24846     0.01219  7819.42778   4957.74684  1.43383         2453.77274     18.20239  0.00089   59955.6068  2.67549  3.05344  53589521.36187  44.53489  18.05645  60054.52212    51.49014          44.46   70.06275  80.81824   87.5    0.07414   -22.0298  0.95591 
  -12.00767   0.1447  1.42668     12.87621  1.15452  1.46898   6.43848  0.31249     0.02074  7491.71877   4800.04932  2.63262         3381.89098     18.10787  0.00071   59957.2964  2.15563  0.93164  38587754.44217  44.43615  18.04965   60053.2066    51.49848       44.48846   68.43761  77.49646   82.0    0.08071  -22.06519  0.97747 
  -14.55593  0.00155  1.37755     12.93483  1.74855   1.3255   7.79436  0.33393      0.0103  7846.92021   4936.68535  1.20177         2647.14726     17.97305  0.00052  59954.74815   2.8629  0.01211  41595581.12254  44.61426   18.0535  60056.29316    51.52565       44.51659   66.78339  76.67722   85.0    0.07192   -22.0465  0.99984 
  -13.94513  0.00452  1.11955     12.79664  1.48137  0.98932   6.26497  0.26785     0.01058  7324.87128   4766.29907  1.26167         2152.46008     18.08669  0.00068  59955.35895  2.00515  0.02831  43983084.97253  44.69814  18.05305  60055.31023    51.48539       44.49441   66.85348  74.13367   90.5    0.07096  -21.99431  0.99965 
  -14.55601  0.00247  1.54568     13.12551  1.71884  0.92075   8.11699  0.33452     0.01185  7588.74563   4202.91017  4.01235         2368.11707     16.47998    2e-05  59954.74806  2.78844  0.02008  21392970.72389  44.79557  18.05866  60054.52212    51.48487       44.45303   69.96308  80.91791   84.5    0.06783  -22.06011  0.99968 
  -15.47048  0.00233  1.21185     12.98814  1.44816  0.70254   6.92556  0.28532     0.01152  7593.67357   4723.00679  1.81708         2006.40341     16.89952    4e-05  59953.83359  2.38224  0.01617  20856564.36661  44.94352  18.05082   60057.5719    51.51053       44.49566    71.7303  76.67722   86.5    0.07187  -22.02426  0.99978 
  -15.67085  0.00149  1.64362      13.4661  1.81482  0.40874    7.8249  0.23634     0.01181  7133.73333   4742.45652   2.4486         2108.68977     17.88314  0.00042  59953.63322  2.37542  0.01167   5321610.67363  45.37003  18.03559   60057.5719    51.59927       44.61287   66.83316  71.68053   87.5    0.07088  -22.01199   0.9998 
  -12.00918  0.00142  1.37325     13.16182   1.6828  0.43246   5.48535  0.31482      0.0132  6669.16549   5260.30348   4.9032         3322.23145     17.76025  0.00032  59957.29489  1.45537  0.00781  13986197.63923  45.07368  18.01013   60057.5719    51.48435       44.45723   72.45354  78.42745   91.0    0.08071  -22.00289  0.99987 
  -12.29659  0.03617  1.66065     13.24729  1.78037  0.68846   9.35945   0.2179     0.01204  7953.79975   4504.39423  4.91708         2169.31247     18.24744  0.00098  59957.00748  3.53205  0.33858  14598039.68366   44.9145  18.04055  60056.29316    51.54286       44.55529   68.43761  72.54954   84.0    0.07592  -22.05697  0.99393 
  -12.85501  0.01301   1.7895     13.21382  1.94855  0.79452   7.29257  0.28251     0.01013  6364.71943   5033.00518   4.1468         3310.24998     16.11098    1e-05  59956.44907  1.76225  0.09486  21644625.12598  44.71774  18.05727   60053.2066    51.42873       44.38461   74.13976   84.1616   88.0    0.07342  -22.01217  0.99818 
  -13.73281   0.2844  1.82535     13.40616  1.78211  0.67669   12.6276  0.18702     0.01031  7979.47196   5945.70092  0.58994         3269.37683     20.27865  0.10553  59955.57127  4.79619  3.59123   8494200.36453  45.06796  18.04052  60055.18355    51.50079       44.49422   68.03847  77.49646   79.0    0.07596   -22.1661  0.93367 
  -13.13823  0.00835  1.68659     13.05978  1.79735  1.29369   6.40729  0.32913     0.01109  6375.97497   5369.61642  4.87454         3131.59062     19.07504   0.0066  59956.16585   1.5538  0.05352  36050960.46569  44.51254  18.00848   60057.5719    51.56416       44.56261   70.91107    75.023   87.5    0.07429  -22.03287    0.999 
  -13.01889  0.02534  1.32456     13.09587  1.35359  0.54459   6.76541  0.23987       0.019  7912.12065   4637.41418  2.46318         2391.09827     16.66322    3e-05  59956.28518  2.52643  0.17147  14180780.31727  45.00449  18.06913  60054.52212    51.60044       44.63259   60.30134  70.79198   90.0    0.07251  -22.04426  0.99686 
  -16.83048  0.11955  1.54426     13.07408  1.62384  1.43842   7.18716  0.27162     0.01184  6927.51929   5123.17261    0.147         3859.81466     19.47208  0.01647   59952.4736   2.0575  0.85919   25564340.2667  44.69431  18.07148   60053.2066    51.49629       44.48144   70.91107  77.49646   82.5    0.07246  -22.04076  0.98591 
  -17.66511  0.01692  1.74192     13.26538  1.63137  0.81605   8.01538  0.22292     0.01909  7607.49648   5059.41758  0.04669          4713.9361     16.39239    1e-05  59951.63897  2.76716  0.13559  13541409.89674  44.86768  18.03459  60056.29316    51.50119       44.48772   68.43761  77.49646   84.5    0.06953  -22.06025  0.99717 
  -12.46366  0.00197  1.81396     13.33951  1.83099  0.67555   6.71688  0.28595     0.01816  7300.89314   4945.41973  3.42896         2993.09567     20.35884  0.12693  59956.84042  2.13573   0.0132  11715020.05871  44.94553  18.07968  60054.52212    51.54187       44.55012   66.83316  74.15399   86.0    0.07775  -22.17011  0.99974 
  -17.89525  0.00159  1.54517     13.22021  1.49788  0.88377  10.18438  0.27473     0.01103  7321.23047   4499.95903  0.43933         2759.94627     18.74116  0.00306  59951.40883  3.25634  0.01615   12045739.1397  44.98554  18.06712  60055.31023    51.54126       44.53907    62.7876  75.72609   79.0    0.07021  -22.06994  0.99971 
  -14.37429  0.00315  1.31316     12.85018  1.61678  1.49796   7.93377  0.21435     0.01168  7910.47505   4772.06587  0.22887         2549.73602     18.22459  0.00093  59954.92979   2.9615    0.025  51609911.50774  44.52813  18.05418  60056.29316    51.48932       44.47353    72.5362  78.34478   86.0    0.07299  -22.05306  0.99965 
  -15.52714  0.00231  1.94323     13.53194  1.82356  0.47481   9.80548  0.27649     0.01082  6761.96973    5039.1476  4.35225         3210.28769     16.18108    1e-05  59953.77694   2.6745  0.02265   5519518.97726  45.21082  18.06178  60055.20359     51.5081       44.51299   68.43761  72.54954   84.5    0.07086  -22.04729  0.99949 
  -15.89919  0.11379  1.85154     13.26703  1.65928  1.19347  10.79686  0.29217     0.01115  7356.78199   5968.36177  1.36687         3445.38193     18.52649  0.00187  59953.40488  3.48578  1.22863  15443083.18966  44.76496   18.0674  60054.52212    51.50341       44.51489   69.25685   71.7303   78.0    0.07358  -22.07186  0.97373 
  -14.07067  0.03356  1.79099     13.44268  1.74777  0.45778    7.8152  0.29604     0.01029  6361.44871   5303.88668  3.08138         3588.48971     16.87214    4e-05  59955.23341   1.8866   0.2623   6778322.10276  45.17402  18.08288  60052.24728    51.48378       44.50978   66.78339  69.25685   85.5     0.0734  -22.02183  0.99444 
  -15.23469  0.01418  1.58586      13.0595   1.4162  1.22006   6.14349  0.33779     0.01609  6934.81209   9473.15155  4.95353         2501.27542     16.52262    2e-05  59954.06939  1.76243  0.08712  25146309.36996  44.61897  18.04987  60054.52212    51.51758       44.51265   66.83316  76.62744   69.5    0.07201  -21.98759  0.99812 
  -12.05901  0.00253  1.42817     12.99804  1.36608  1.53008   9.21866  0.24522     0.01121  7869.19995   9235.85146  1.17159         2066.46217     18.09154  0.00069  59957.24506  3.40531   0.0233  26108164.18876  44.67799   18.0582   60057.5719    51.52478       44.50957   70.91107  77.49646   62.5    0.07914  -22.05217  0.99958 
  -14.08546  0.31582  1.75653     13.08788  1.79224   1.4251   7.69089  0.29015     0.01475  7677.62658   5021.30287  1.13648         3390.20789     19.22883  0.00941  59955.21862  2.70432  2.42896  34257707.30846  44.49817   18.0511   60053.2066    51.48038       44.49295   68.43761  72.54954   82.5    0.07326  -22.07111  0.95399 
  -15.24925  0.00653   1.5579     13.05628  1.72747  1.14498   6.77589  0.33475     0.01179   6953.5456   4964.32594   0.9357         3742.35025     18.94344  0.00488  59954.05482  1.95437  0.04426  30043148.04181  44.64343  18.03919   60057.5719    51.55891        44.5677    62.7876  73.25263   86.0    0.07185  -22.04611  0.99927 
  -16.22793  0.00167   1.8377     13.36754  1.87692  0.70002   7.34946    0.208     0.01559  7316.18916   4886.87956  0.03464         5679.27216      17.7258   0.0003  59953.07614  2.34667  0.01228  10832716.00056  44.97901  18.04963   60053.2066    51.48462       44.46145   69.25685  79.15068   83.5    0.07268  -22.02865  0.99976 
  -13.80484  0.25106  1.36694      13.0425   1.5019  0.73322    8.7808  0.22617     0.01042  7639.21834   4574.55656  0.57359         3679.15648     17.89753  0.00044  59955.49923  3.05674  2.20453  21426898.86619  44.84303  18.03067   60057.5719    51.52566       44.50947   73.38453  77.49646   84.5     0.0764  -22.05228   0.9648 
  -12.91374  0.02917  1.51572      13.2001  1.81121   0.5767   6.50356  0.31454     0.01163  7078.94946    4536.7122   3.0493         3064.89349      17.2777  0.00011  59956.39034  1.94409  0.18969  15374983.19674  44.97876  18.02901   60053.2066    51.55601       44.57126   61.83647  74.20376   89.0    0.07483  -22.01787  0.99695 
  -14.81408   0.0041  1.46413     13.29944   1.9228    0.448   6.41562  0.33066      0.0112  7227.31463   4355.57846  1.92297         2851.94786     17.14267    8e-05  59954.48999  1.99903  0.02629   9638723.43274   45.2376  18.03962  60056.29316    51.50332       44.48468   70.88784  77.51968   90.0    0.07042  -22.01263  0.99964 
  -14.93377  0.00253  1.30807     13.07925  1.74983  0.70339   6.41644  0.32364     0.01009  7420.62385    4761.1797  1.42148         2070.50086     17.01788    6e-05   59954.3703  2.10767  0.01627  19300932.21309    44.993  18.06242  60052.24728    51.47223       44.43289   69.25685  81.62414   86.0    0.06889   -22.0156   0.9998 
  -15.51346  0.00372  1.60682     13.30154  1.63387  0.62147   7.44222  0.31718     0.01456  7488.51215     4775.971  4.88409         2030.84869      16.8162    4e-05  59953.79062  2.48955  0.02769    9769854.5454  45.08024  18.05847   60053.2066    51.50274       44.49169   66.45434  79.08059   82.5    0.07143  -22.04252   0.9995 
  -13.19837  0.03366  1.69757     13.22494  1.89316  0.63688   7.88986  0.17279     0.01157  6935.46421   4376.22113  1.68694           3350.121     18.65156  0.00249   59956.1057  2.26385   0.2656  17979235.28074   44.8316  18.03233  60054.52212     51.5564       44.58145    62.7876  70.77917   92.5    0.07828  -21.99682  0.99499 
  -13.50825  0.11968  1.82753     13.22556  1.85098  1.01614   8.65698   0.1705     0.01398  7565.42472   4854.40609   0.1662           2993.975     19.14175   0.0077  59955.79582   2.9557  1.03607  20315465.52657  44.70469  18.05676  60056.29316    51.52012       44.52014   66.85348  74.13367   85.0    0.07458  -22.04322  0.98006 
  -16.40087  0.00187  1.60263     13.09198  1.40048  1.31637  12.04676  0.20634     0.01025   7026.7181   5102.22026  1.53193         3085.16016     17.22782    9e-05   59952.9032  3.54816  0.02256  21867121.03469  44.66566  18.06912  60051.47235    51.36652       44.35216   74.13976  76.74122   82.5    0.07185  -22.04767  0.99951 
  -18.35849  0.00432  1.89194     13.55425  2.09858  0.44805   8.62482  0.23157     0.01391  7644.91497   4383.16723  0.56966         2214.79984     18.52589  0.00186  59950.94558  3.00693  0.03728   5433178.11803   45.3019  18.04476  60054.52212    51.47606       44.44514   72.45354  80.90091   85.5    0.06987  -22.05958  0.99934 
  -17.78508  0.00156  1.42278     13.04698  1.66846  0.87125   6.96435  0.32257     0.01385  7677.98243   4562.69474  0.86816         2680.01983     18.73077  0.00299  59951.51899  2.44907  0.01089  25261246.19114  44.78243  18.00457  60060.62167     51.5465       44.55218   70.91107  72.54954   86.5    0.06788  -22.05535  0.99984 
  -13.31701  0.01016  2.16689     13.55125  1.80982  0.68529   8.91771  0.27343     0.01431  6613.70275   5973.24842  4.82564         2856.80125     18.14724  0.00078  59955.98706  2.32686  0.09064   6231971.73937  45.06018  18.01561   60057.5719    51.54125       44.56041   66.78339  69.25685   81.5    0.07321  -22.01545  0.99764 
  -14.07908   0.1338  1.47999     12.95946  1.29729   1.2085   7.00099  0.33656     0.01831  7422.97869   4952.51531   2.5634          3203.6747      17.3487  0.00012  59955.22499  2.30114  0.93675  31801989.34159  44.53891  18.06049  60055.18355    51.56824        44.6064   64.27678  66.81653   84.0    0.07231  -22.06881  0.97954 
  -13.72512  0.00528  1.85586     13.14074  2.01635  1.23143   7.30206  0.28324     0.01137  6849.00784   5249.19204  3.36823         3144.59802     17.15969    8e-05  59955.57895  2.04328  0.03856  33727965.45851  44.50833  18.07137   60053.2066    51.42167       44.41919   72.45354  73.48053   87.5    0.07321  -22.01279  0.99926 
  -14.84347  0.00134  1.65298      13.3507  1.69731   0.6985   8.13777  0.21557     0.01232  7193.03074   4750.82052  0.05619         5718.92312     20.00258  0.05589  59954.46061  2.51164  0.01087    8564674.0771  45.12936   18.0649  60054.52212    51.45809        44.4449    71.7303  76.67722   81.0     0.0768  -22.10099  0.99981 
  -15.04877  0.01692  1.62593     13.31343  1.65227  0.57048   6.98988  0.27628     0.01777  7742.36977   5172.11219   0.4311         3266.42782     17.19944    9e-05   59954.2553  2.49945  0.11829   9577386.34846  45.08348  18.03706  60056.29316    51.54079       44.54744   66.75024  74.23691   83.0    0.07563  -22.07103  0.99778 
  -17.49079  0.06827  1.61134     13.44966  1.60426  0.48221    9.4308  0.21765     0.01054  6897.87656   4763.29112  0.09953         5175.38268     19.58977   0.0216  59951.81328  2.67674  0.64383   4876910.44828   45.3716  18.03677  60056.29316    51.48833       44.47391   71.55763   76.8499   83.5    0.06874  -22.05418  0.98852 
  -14.75731   0.0116  1.56128     13.19692  1.66916  0.86956    6.5051   0.2525     0.01941  7852.63734   4975.50435  0.07388         5387.45385     20.42386  0.14743  59954.54677  2.39283  0.07544  15255773.27906  44.92095  18.05479   60053.2066    51.45091       44.42381   71.55763  79.32336   84.0    0.07582  -22.20922  0.99877 
  -15.69768  0.00318   1.6778     13.31195  1.56444  0.62813   7.17551  0.23762     0.02216  7900.67753   4589.97451  0.03897         5464.53768     18.58604  0.00214   59953.6064  2.67183  0.02281    9722099.2517  45.02597  18.03429  60054.52212    51.59565       44.61051   64.35971  74.15399   84.5    0.07479  -22.07282  0.99952 
  -14.85945  0.00377  1.69397     13.21084  1.42969   0.9319  10.45476  0.20856     0.01874  8035.44626   4732.05631  0.45422         3225.51766     17.14212    8e-05  59954.44463  4.02681  0.03939  14427484.09831  44.80708  18.06902  60056.29316     51.5394       44.53907   66.83316  74.15399   81.0     0.0713   -22.0958  0.99908 
  -13.10803  0.00275  1.75227     13.24042   1.9494  0.72358   9.34238  0.16775     0.01297  7884.54911   5105.45114  0.89016          2930.6906     17.96472  0.00051  59956.19605  3.46448  0.02573  18369113.96004  44.80746  18.06004   60057.5719    51.48698        44.4502   77.40045  80.90091   86.5    0.07548  -22.04183  0.99953 
  -12.13507  0.00228   1.9339     13.52971  1.79267  0.49026   7.04689  0.24827     0.02039  7671.62499    4952.4219  1.89683         2408.38094     18.99359  0.00547    59957.169    2.474  0.01606    5429547.2475  45.21471  18.07178   60053.2066    51.49966       44.49278   68.43761    75.023   83.0    0.07498  -22.04077  0.99964 
  -12.89772  0.42689  1.39432     12.98648  1.81545  1.01985   7.11271  0.27772     0.01094  7927.76798   4804.79079  0.92816            2019.29     19.33691  0.01207  59956.40636  2.66664  3.03633  34879469.49642  44.69654  18.05404  60056.29316    51.48296       44.47225   74.03108  74.37644   83.5    0.07541  -22.05326  0.96114 
  -14.50882  0.00369   1.9432     13.31819   1.8445  1.04058   8.04082  0.30384     0.01314  6842.48216   5172.12583  2.70815         2844.02912     16.68054    3e-05  59954.79526  2.24572  0.02967  14939919.56792  44.78334  18.05392   60057.5719     51.5186       44.52226   69.32694  74.13367   81.5    0.07336  -22.04772  0.99937 
  -14.08987   0.1641  1.17518     12.92505  1.32029  0.71773   5.42602   0.3051     0.01852  7994.96685   5000.31202  0.00485         4234.44153     16.24646    1e-05   59955.2142  2.06891  0.89043  23910322.42948  44.87072  18.07158  60054.52212     51.4882       44.47776   66.85348  76.60713   85.0    0.07246   -22.0468  0.98667 
  -17.07124  0.00994   2.1797      13.6713  2.16457  0.57741   8.37767  0.32309     0.01088  6515.76287   6445.71071  1.53312         3046.56145      18.9096  0.00451  59952.23283  2.12169  0.08327    4338922.0823  45.29004  18.05553  60055.31023    51.49656       44.48334    72.5362  78.34478   80.5    0.07047  -22.00752  0.99832 
  -12.21086  0.12185  1.71063     13.33449  1.61048  0.55788   7.72271  0.29989     0.01032  6462.17113   4829.63495  4.75039         3223.18586      19.0078  0.00566  59957.09322  1.92377  0.94103   9377978.33889  45.03738  18.07063   60053.2066    51.50925       44.49346   69.25685  76.67722   84.0    0.07508   -22.0216  0.98004 
   -15.2952  0.00366  1.63509      13.2672  1.95048  0.64558   7.11948  0.24718     0.01347  7645.86823   4741.90883  1.72553         2007.25266     17.59925  0.00022  59954.00887  2.48273  0.02603  14146418.37348  44.98125  18.06826  60052.24728    51.51855       44.50795   66.78339  76.67722   86.5    0.07204  -22.03847  0.99959 
  -15.11469  0.41316  1.47787      12.9781  1.63194  1.19368   6.63383  0.32377     0.01208  6957.24925    4934.9521  1.13864         3403.11372     19.64829  0.02472  59954.18939  1.91543  2.74082  36610095.49098  44.57867  18.05454  60055.31023    51.53367       44.52281   66.78339  76.67722   88.0    0.06961  -22.04312  0.95615 
  -14.24428  0.01399   1.7303     13.32166  1.44626  0.56344   9.04721  0.20907      0.0138  6733.49871   4961.00689    2.706         3459.97838     17.46061  0.00016  59955.05979  2.44694  0.12661   9140945.71424  44.99186  18.05948  60056.29316    51.46597       44.43161   72.45354  80.90091   85.5    0.07244  -22.03804  0.99678 
   -15.5825  0.13366  1.49691     13.39299  1.62543  0.41188   7.84466  0.30428     0.01261  7623.58416   5142.10918   0.6851         2696.37167     16.56614    2e-05  59953.72158  2.71969  1.04852   5535915.54653  45.38623  18.03296   60057.5719     51.4913        44.4761   70.06275  78.34478   84.0    0.07104  -22.05306  0.98302 
  -14.90674  0.11134  1.90059     13.19701  2.00039  1.32606   9.58754  0.24963     0.01394  8003.40936   5072.59352  3.31943         2154.17587     18.92038  0.00462  59954.39733   3.6634  1.06744  27082521.88897  44.57949  18.06368   60053.2066    51.51914        44.5077   64.35971  76.62744   82.0    0.07127  -22.07924  0.97998 
  -15.33069  0.00214  1.19049     12.74964  1.11624  1.55075   6.07161  0.33998     0.01659  7076.72919   5318.24009  3.31602         2708.45067     16.81669    4e-05  59953.97338  1.81383    0.013   46531745.5381   44.4974  18.03187  60054.52212    51.43572       44.40847    72.0544  80.90091   89.0    0.06966   -22.0283  0.99976 
  -14.10061  0.01451  1.60053     13.09198   1.6898  1.05159    7.6404  0.27351     0.01264  7345.67226    5230.1747  4.02801         2386.97299     16.14989    1e-05  59955.20347  2.45927  0.11084  26315861.13252  44.66794  18.05613  60056.29316    51.50789       44.49145   66.85348  79.08059   85.0    0.07019  -22.03368  0.99802 
  -13.96146   0.3417  1.52415     12.96085  1.65536  1.34601   8.62183  0.20217     0.01242  7768.22735   4965.08894  0.17061         4354.41643     16.83054    4e-05  59955.34262  3.10363  2.94607  42762122.72414  44.49062   18.0824   60053.2066    51.54466        44.5448    62.7876  75.72609   85.0    0.07462  -22.04406  0.95037 
  -14.68074  0.09193  1.69594     13.14372  1.66304  1.25045   9.53326  0.24952      0.0104  7478.52068   6237.01334  0.76225         3247.35307     17.37791  0.00013  59954.62333  3.18053  0.87635  22913517.76968  44.67084  18.03739   60057.5719    51.50192       44.48081   70.88784  79.99314   80.5    0.07778  -22.03714  0.98335 
  -13.69038  0.03093  1.37114     13.00198   1.5512  0.79741   7.99905  0.27423     0.01243  7747.49108   4678.97778  3.37652         2627.71835     17.64885  0.00025   59955.6137   2.8641  0.24743  26833869.05766  44.75667  18.06513  60054.52212    51.53318        44.5313   66.05774  74.92941   87.0    0.07164  -22.04132  0.99597 
  -17.54783  0.00215  2.19264     13.79386  2.15749   0.3698    7.9544  0.30046     0.01737  7349.78101    4635.5486  0.73777         2995.32211     17.16855    8e-05  59951.75624  2.56321  0.01706    2488695.9452  45.52489  18.06648  60054.52212    51.53405       44.52949   69.25685  74.20376   82.0    0.07141  -22.04735  0.99964 
  -15.51133  0.03349  1.73893     13.19591  1.87608  1.30011   6.74743  0.29338     0.01898  7821.16337   5075.37319  0.12565         2237.71578     20.26757  0.10287  59953.79275  2.46212  0.22599   21370674.1076  44.73171  18.07207  60049.19606     51.4217        44.3631   71.33117  86.57106   81.5    0.07545  -22.16393  0.99621 
   -13.9118  0.00568  1.84342     13.40906  1.65344  0.56145   8.31836  0.28657     0.01438   7091.9675   5006.59678  3.02789         3277.27478     17.47774  0.00017  59955.39228  2.49573  0.04722    7931151.2271  45.05665    18.057  60055.31023    51.58219       44.59056   66.83316  74.15399   82.5    0.07511  -22.05305   0.9989 
  -13.85165  0.08077  1.94289      13.2714  1.91909  0.94415   9.09431  0.25027     0.01522  7768.32434   4769.14704  1.51606         3266.00634     17.35566  0.00013  59955.45243   3.2738  0.73458  19275806.72913  44.69003   18.0641  60054.52212    51.51571       44.50536   66.78339  76.67722   83.0    0.07542  -22.09419  0.98461 
  -16.05433  0.05164  1.66385     13.22674  1.78885  0.90249   7.35489  0.33744     0.01175  7048.80042   4716.56325  2.91442         2256.00249     19.35046  0.01245  59953.24975  2.17988  0.37977   16185510.6262  44.87007  18.05285  60055.18355    51.49512       44.48729   68.43761    75.023   85.0    0.06667  -22.02475  0.99363 
  -12.01052  0.42751  1.58993     13.11599  1.68123  1.18073   7.78921  0.33045     0.01047  7880.14896   6556.39913  2.73609         2147.55814     16.45958    2e-05  59957.29356  2.88529  3.32994   23132613.2482  44.72749  18.05175  60054.52212    51.49067       44.47703   69.25685  79.15068   77.0    0.07753  -22.03747  0.94672 
  -13.68453  0.00134  1.76822     13.14515  1.77131  1.01524   6.37134   0.2662     0.01336  6559.19171   5124.25188  2.71153         3052.84602     18.47674  0.00167  59955.61954  1.63515  0.00851  26355790.94266  44.60119  18.04649  60055.18355    51.52854       44.53104   66.83316  76.62744   89.0    0.07523  -21.97944  0.99982 
  -17.59343  0.00943   1.5866       13.446  1.62255  0.46157   8.47816  0.22031     0.01067  6719.32976    4984.3899  0.04225          4911.5235     16.46245    2e-05  59951.71065  2.28339  0.07992   4863461.94171  45.39117  18.06887  60049.98359    51.54735       44.54115    62.7876  75.72609   85.0    0.06685  -22.00694  0.99861 
  -16.03096  0.00271  2.06281     13.61544  1.89042  0.52053  10.45351  0.19124      0.0141  7726.22091   7355.17586  0.24314          3073.8281     17.14531    8e-05  59953.27312  3.72241  0.02829   4389469.02903  45.27407  18.08428   60053.2066    51.48606       44.45087   69.25685  81.62414   74.5    0.07837  -22.04309  0.99936 
  -16.71317  0.00857  2.07989     13.35828   1.8854  1.20785   8.34455  0.27234     0.01774  7559.96542   5845.22609  0.55753         2876.06067     18.34813  0.00124   59952.5909  2.84492  0.07151  14545859.81937  44.74543  18.06091  60055.18355    51.49863       44.48311   70.91107  77.49646   79.5    0.07702  -22.03722  0.99837 
  -14.70511  0.26311  1.58461     13.15254  1.71249   0.8589   7.21915  0.33343     0.01235   7233.5055   4944.21301  4.80735          2302.3477     18.61252  0.00228  59954.59896  2.25326  1.89941  19778788.75808  44.80643  18.04236  60056.29316     51.4922       44.48655   69.25685  76.67722   85.5     0.0698  -22.02868  0.96843 
  -14.11608  0.00286  1.88085      13.1961  1.88737  1.38447   7.58789  0.28944     0.01631  7679.37036   5202.58218  1.38853         2785.08012      19.3364  0.01205    59955.188  2.66931  0.02172  25128903.07618  44.59582  18.06586  60054.52212    51.53373       44.53414   64.35971  76.62744   81.5    0.07611  -22.06928  0.99957 
  -13.36956  0.45026  1.55966     13.12167  1.75983   0.8813   5.70692  0.28147     0.01672  7637.65393      4515.51  0.81896         2354.29721     19.89824  0.04395  59955.93451  1.98586  2.56957  22699299.11897  44.77225  18.05078  60056.29316    51.53353       44.53007   66.83316  76.62744   86.5    0.07554  -22.07093  0.95963 
  -13.08238   0.0061  1.54588     12.96551  1.52231  1.28659   6.87754  0.28938     0.01126  6510.51495   4918.40527  3.85053         3246.94847     16.47044    2e-05   59956.2217  1.73896  0.04196  39595496.09118  44.47535  18.05846   60053.2066    51.47425       44.45308   70.06275  78.34478   87.5    0.07421  -22.00329  0.99915 
  -13.03584  0.12107  2.09801     13.53767  1.87123  0.66209  11.13557   0.2115     0.01352  7588.24494   5452.42717  3.90869         2166.38818     16.96047    5e-05  59956.26823  3.82492  1.34814   6430033.80833  45.08914  18.04878  60056.29316     51.5088        44.5052   66.85348  76.60713   79.5    0.07113  -22.04965  0.96919 
  -12.44102  0.15183  1.56101     13.19298  1.76721  0.66272   6.97368  0.29272     0.01273   7427.8318   4597.00259  2.47385         2761.62294     19.14425  0.00774  59956.86306  2.29516  1.05879   16441659.3952  44.91338  18.02595  60056.29316    51.53672       44.52803   66.78339  76.67722   87.0    0.07407  -22.03633  0.98248 
   -14.3325  0.06276  1.27801     12.92686  1.69508  0.87248   6.13442  0.24908      0.0132  7802.03806    4868.5974  0.27593         2148.65604      16.6829    3e-05  59954.97158   2.2275  0.38498  36004231.16564  44.72861  18.05849   60053.2066    51.41558       44.38008   74.13976  81.68814   87.0    0.07303  -22.00852  0.99494 
  -16.90671  0.00165  1.78295     13.30807  1.76904  0.91333  10.39333  0.20779     0.01082  7515.93988   9001.07678  0.00541         4934.91947     18.74404  0.00308  59952.39736  3.50226  0.01714  12638149.03144  44.91262  18.04011   60057.5719     51.5369       44.54218   69.25685  74.20376   63.5    0.07717  -22.04587  0.99968 
   -17.6304  0.00708  1.54861     13.14414  1.63195  0.99089   7.58932  0.27951     0.01544  7601.97731   9792.22593  0.05161         5943.94268     19.99089   0.0544  59951.67367  2.61627  0.05371  18711915.30587  44.82955  18.05881   60053.2066    51.48237       44.43927   70.06275   83.2917   62.5    0.07049  -22.13626   0.9991 
  -14.82675  0.01438  1.33383     12.86425  1.42293  1.27924   6.60473  0.33557     0.02037  8348.74009   4810.84046  2.28309         2186.19803     18.06823  0.00065  59954.47733  2.74615  0.09498  43924672.52131  44.52912  18.07274  60054.52212    51.47843       44.45851    72.5362  78.34478   84.0    0.07209  -22.08781  0.99839 
  -13.45598  0.33705  1.84351      13.4078    1.689  0.63992   8.19074  0.23216     0.01286  6697.63668   5133.31305  1.44315         3105.11562     19.92581  0.04683  59955.84809  2.19176  2.76066   8149549.77448  45.05405  18.03226   60057.5719    51.50999       44.49953    71.7303  76.67722   85.5    0.07056  -22.06198  0.94285 
  -13.11657  0.02373  1.50848     12.97437  1.67749  1.54494   6.36178  0.30312     0.01248  7051.35544   5198.31175  2.82775         2508.99522     17.60676  0.00022   59956.1875  1.88691  0.15093  39885451.60411  44.53561  18.04702  60056.29316    51.45162       44.41903   77.27949  81.02187   89.0    0.07202   -22.0006  0.99751 
  -13.92129  0.00157  1.67219     13.05099  1.75609  1.40809   7.73046  0.24428     0.01345  7354.84578   4913.69708  2.48388         2714.84194     16.63984    2e-05  59955.38279  2.49448  0.01212  36054421.95732  44.50986  18.04582   60053.2066    51.49486       44.47872   68.43761  77.49646   87.5    0.07385  -22.03851  0.99977 
