# STATUS =
# OBJECT = 1999as
# TELESCOPE = ctio
# INSTRUMENT = Unknown
# DATE-OBS = 1999-03-15 00:00:00.000
# MJD = 51252.0
# EXPTIME =
# AIRMASS =
# SLIT =
# DISPERSER =
# SOURCE =
# FILTER =
# RESOLUTION =
# FLUX_STANDARD =
# EXTINCTION_CORRECTED = True
# PHOTOMETRY_CALIBRATED =
# TELLURIC_CORRECTED = True
# FLUX_UNITS =
# WAVE_UNITS =
# QUALITY =
# MIN_WAVE = 2981.86
# MAX_WAVE = 9300.96
# COMMENT =
 Wavelength         Flux 
    2983.61  1.02345e-16 
    2985.37   1.0234e-16 
    2987.12  9.15656e-17 
    2988.88  8.77537e-17 
    2990.63  9.02105e-17 
    2992.39  7.30643e-17 
    2994.14  7.58672e-17 
     2995.9  5.83721e-17 
    2997.66  6.46399e-17 
    2999.41  5.85661e-17 
    3001.17  6.04605e-17 
    3002.92  6.92808e-17 
    3004.68  6.86954e-17 
    3006.43  8.04223e-17 
    3008.19  6.63641e-17 
    3009.95  6.52032e-17 
     3011.7  4.27346e-17 
    3013.46  3.18905e-17 
    3015.21   2.7343e-17 
    3016.97   3.9318e-17 
    3018.72  5.88974e-17 
    3020.48  7.33391e-17 
    3022.23  8.60957e-17 
    3023.99  9.24978e-17 
    3025.75  8.07775e-17 
     3027.5  9.01951e-17 
    3029.26  6.70734e-17 
    3031.01  7.69279e-17 
    3032.77  7.71549e-17 
    3034.52  8.33505e-17 
    3036.28  7.92985e-17 
    3038.03  7.33987e-17 
    3039.79  8.89744e-17 
    3041.55  9.37948e-17 
     3043.3  8.71638e-17 
    3045.06  7.07642e-17 
    3046.81  6.45281e-17 
    3048.57  7.10266e-17 
    3050.32  8.21808e-17 
    3052.08  8.90615e-17 
    3053.83  7.89928e-17 
    3055.59  7.72609e-17 
    3057.35  6.51711e-17 
     3059.1  7.05445e-17 
    3060.86  6.87598e-17 
    3062.61  6.52686e-17 
    3064.37  7.47223e-17 
    3066.12   7.9613e-17 
    3067.88  9.16138e-17 
    3069.63  8.96714e-17 
    3071.39   1.0131e-16 
    3073.15  9.27924e-17 
     3074.9  8.70963e-17 
    3076.66  7.65905e-17 
    3078.41  7.69792e-17 
    3080.17   7.8366e-17 
    3081.92  8.51933e-17 
    3083.68  9.54886e-17 
    3085.43  9.36109e-17 
    3087.19  8.52563e-17 
    3088.95  8.62695e-17 
     3090.7  9.26699e-17 
    3092.46  9.43743e-17 
    3094.21  7.86683e-17 
    3095.97  6.74037e-17 
    3097.72  6.89209e-17 
    3099.48  7.85818e-17 
    3101.23  8.05849e-17 
    3102.99  7.87925e-17 
    3104.75  8.22257e-17 
     3106.5  9.05226e-17 
    3108.26  9.36204e-17 
    3110.01  9.77691e-17 
    3111.77  9.86909e-17 
    3113.52  9.07385e-17 
    3115.28  8.46702e-17 
    3117.03  7.60376e-17 
    3118.79  7.29274e-17 
    3120.55  6.70679e-17 
     3122.3  6.55607e-17 
    3124.06  7.93944e-17 
    3125.81  9.26739e-17 
    3127.57  9.73648e-17 
    3129.32  9.58805e-17 
    3131.08  7.57188e-17 
    3132.83  6.74503e-17 
    3134.59  6.40629e-17 
    3136.35  8.99554e-17 
     3138.1  1.06412e-16 
    3139.86  1.14864e-16 
    3141.61  1.05027e-16 
    3143.37  1.06267e-16 
    3145.12  1.15589e-16 
    3146.88  1.13578e-16 
    3148.64  1.04007e-16 
    3150.39  8.98222e-17 
    3152.15  8.91525e-17 
     3153.9  1.04131e-16 
    3155.66  1.02297e-16 
    3157.41  1.05498e-16 
    3159.17  9.87853e-17 
    3160.92  1.01178e-16 
    3162.68  1.08956e-16 
    3164.44  1.05709e-16 
    3166.19  1.09228e-16 
    3167.95  1.18007e-16 
     3169.7  1.31318e-16 
    3171.46  1.33694e-16 
    3173.21  1.25396e-16 
    3174.97  1.15491e-16 
    3176.72  1.10942e-16 
    3178.48   1.1057e-16 
    3180.24  1.16509e-16 
    3181.99  1.22135e-16 
    3183.75  1.19741e-16 
     3185.5   1.1696e-16 
    3187.26  1.15384e-16 
    3189.01  1.19306e-16 
    3190.77  1.17608e-16 
    3192.52  1.16357e-16 
    3194.28   1.1868e-16 
    3196.04  1.14224e-16 
    3197.79  1.21467e-16 
    3199.55  1.26028e-16 
     3201.3  1.32486e-16 
    3203.06  1.28657e-16 
    3204.81  1.16538e-16 
    3206.57   1.1465e-16 
    3208.32  1.12969e-16 
    3210.08  1.12671e-16 
    3211.84  1.08527e-16 
    3213.59  1.13404e-16 
    3215.35  1.13556e-16 
     3217.1  1.06701e-16 
    3218.86  9.57571e-17 
    3220.61  7.98507e-17 
    3222.37  6.21281e-17 
    3224.12  4.29399e-17 
    3225.88   3.2711e-17 
    3227.64  5.49136e-17 
    3229.39  6.99996e-17 
    3231.15  8.63649e-17 
     3232.9  8.90408e-17 
    3234.66  9.76878e-17 
    3236.41  1.08159e-16 
    3238.17  1.04448e-16 
    3239.92   9.7834e-17 
    3241.68  9.23932e-17 
    3243.44  8.97836e-17 
    3245.19   8.6472e-17 
    3246.95  8.06054e-17 
     3248.7  8.43027e-17 
    3250.46  9.32145e-17 
    3252.21  9.25558e-17 
    3253.97  9.14937e-17 
    3255.72  8.39881e-17 
    3257.48  8.98026e-17 
    3259.24  9.21896e-17 
    3260.99  9.77883e-17 
    3262.75  9.79133e-17 
     3264.5  1.00448e-16 
    3266.26  1.01729e-16 
    3268.01  1.00801e-16 
    3269.77  9.28402e-17 
    3271.52  9.65705e-17 
    3273.28  1.03271e-16 
    3275.04  1.09817e-16 
    3276.79  1.08007e-16 
    3278.55  1.05477e-16 
     3280.3  1.11479e-16 
    3282.06  1.16973e-16 
    3283.81  1.27632e-16 
    3285.57  1.25443e-16 
    3287.32  1.22403e-16 
    3289.08  1.20057e-16 
    3290.84  1.24992e-16 
    3292.59  1.30736e-16 
    3294.35  1.32379e-16 
     3296.1   1.2994e-16 
    3297.86   1.2229e-16 
    3299.61  1.15848e-16 
    3301.37  1.15711e-16 
    3303.13  1.19224e-16 
    3304.88  1.21671e-16 
    3306.64  1.19511e-16 
    3308.39  1.18133e-16 
    3310.15  1.21187e-16 
     3311.9  1.22428e-16 
    3313.66  1.27038e-16 
    3315.41  1.31429e-16 
    3317.17  1.31356e-16 
    3318.93  1.32896e-16 
    3320.68  1.32686e-16 
    3322.44  1.38355e-16 
    3324.19  1.43966e-16 
    3325.95  1.42932e-16 
     3327.7   1.3862e-16 
    3329.46   1.3416e-16 
    3331.21  1.28714e-16 
    3332.97  1.21643e-16 
    3334.73  1.17463e-16 
    3336.48  1.19817e-16 
    3338.24  1.27767e-16 
    3339.99  1.35529e-16 
    3341.75  1.36244e-16 
     3343.5  1.38258e-16 
    3345.26  1.31606e-16 
    3347.01  1.32844e-16 
    3348.77  1.36127e-16 
    3350.53   1.4496e-16 
    3352.28  1.49259e-16 
    3354.04  1.50531e-16 
    3355.79  1.48037e-16 
    3357.55  1.43497e-16 
     3359.3  1.46103e-16 
    3361.06  1.49602e-16 
    3362.81  1.51231e-16 
    3364.57  1.49124e-16 
    3366.33  1.45073e-16 
    3368.08  1.51636e-16 
    3369.84   1.4572e-16 
    3371.59  1.44235e-16 
    3373.35  1.30058e-16 
     3375.1  1.30208e-16 
    3376.86  1.25985e-16 
    3378.61   1.2766e-16 
    3380.37  1.28811e-16 
    3382.13  1.32336e-16 
    3383.88  1.41205e-16 
    3385.64  1.43322e-16 
    3387.39   1.4442e-16 
    3389.15  1.39377e-16 
     3390.9  1.42782e-16 
    3392.66  1.51606e-16 
    3394.41  1.57219e-16 
    3396.17   1.5517e-16 
    3397.93  1.51017e-16 
    3399.68  1.56448e-16 
    3401.44  1.60093e-16 
    3403.19  1.58553e-16 
    3404.95   1.5639e-16 
     3406.7  1.55069e-16 
    3408.46  1.59272e-16 
    3410.21  1.54668e-16 
    3411.97  1.55484e-16 
    3413.73  1.46758e-16 
    3415.48  1.51763e-16 
    3417.24  1.54206e-16 
    3418.99  1.56021e-16 
    3420.75  1.54027e-16 
     3422.5  1.55756e-16 
    3424.26   1.6231e-16 
    3426.01  1.67731e-16 
    3427.77  1.70214e-16 
    3429.53  1.62347e-16 
    3431.28  1.49375e-16 
    3433.04  1.38864e-16 
    3434.79  1.46141e-16 
    3436.55  1.51639e-16 
     3438.3  1.51918e-16 
    3440.06  1.47911e-16 
    3441.82  1.48867e-16 
    3443.57  1.54366e-16 
    3445.33  1.54432e-16 
    3447.08  1.57066e-16 
    3448.84  1.55482e-16 
    3450.59  1.56626e-16 
    3452.35  1.55657e-16 
     3454.1  1.55658e-16 
    3455.86  1.58238e-16 
    3457.62  1.59255e-16 
    3459.37  1.62022e-16 
    3461.13  1.57334e-16 
    3462.88  1.58284e-16 
    3464.64  1.66538e-16 
    3466.39  1.75819e-16 
    3468.15  1.80966e-16 
     3469.9  1.73365e-16 
    3471.66  1.66818e-16 
    3473.42  1.60064e-16 
    3475.17    1.507e-16 
    3476.93  1.44267e-16 
    3478.68  1.47619e-16 
    3480.44  1.51788e-16 
    3482.19  1.61756e-16 
    3483.95  1.65998e-16 
     3485.7  1.71133e-16 
    3487.46  1.66903e-16 
    3489.22  1.57928e-16 
    3490.97  1.50549e-16 
    3492.73  1.47429e-16 
    3494.48  1.55438e-16 
    3496.24  1.64152e-16 
    3497.99  1.71117e-16 
    3499.75  1.73654e-16 
     3501.5   1.7441e-16 
    3503.26  1.78183e-16 
    3505.02  1.84701e-16 
    3506.77  1.92835e-16 
    3508.53  1.90514e-16 
    3510.28  1.79719e-16 
    3512.04  1.76657e-16 
    3513.79  1.79551e-16 
    3515.55  1.82575e-16 
     3517.3  1.82111e-16 
    3519.06  1.81566e-16 
    3520.82  1.84714e-16 
    3522.57   1.9251e-16 
    3524.33  2.05001e-16 
    3526.08  2.01918e-16 
    3527.84  1.93934e-16 
    3529.59  1.86209e-16 
    3531.35  1.89528e-16 
     3533.1  1.90189e-16 
    3534.86    1.936e-16 
    3536.62  1.87593e-16 
    3538.37  1.87577e-16 
    3540.13  1.89699e-16 
    3541.88  1.98021e-16 
    3543.64  1.96642e-16 
    3545.39  1.85989e-16 
    3547.15  1.80059e-16 
     3548.9  1.82737e-16 
    3550.66  1.91874e-16 
    3552.42  1.98309e-16 
    3554.17  1.96493e-16 
    3555.93  1.93969e-16 
    3557.68  2.02856e-16 
    3559.44  2.15334e-16 
    3561.19   2.1775e-16 
    3562.95  2.09538e-16 
     3564.7  2.06087e-16 
    3566.46   2.0197e-16 
    3568.22  2.02813e-16 
    3569.97  1.97626e-16 
    3571.73  2.07281e-16 
    3573.48  2.16853e-16 
    3575.24  2.15381e-16 
    3576.99  2.02679e-16 
    3578.75  1.89309e-16 
    3580.51  1.88987e-16 
    3582.26  1.90966e-16 
    3584.02  1.93662e-16 
    3585.77  2.02041e-16 
    3587.53  2.11402e-16 
    3589.28  2.11092e-16 
    3591.04  2.00196e-16 
    3592.79   1.9407e-16 
    3594.55  1.89983e-16 
    3596.31  1.94786e-16 
    3598.06  1.94299e-16 
    3599.82  1.95078e-16 
    3601.57  1.87959e-16 
    3603.33  1.76343e-16 
    3605.08  1.69959e-16 
    3606.84  1.68211e-16 
    3608.59  1.72627e-16 
    3610.35  1.78773e-16 
    3612.11   1.8229e-16 
    3613.86  1.81614e-16 
    3615.62  1.74017e-16 
    3617.37  1.72444e-16 
    3619.13  1.73971e-16 
    3620.88  1.76824e-16 
    3622.64  1.75208e-16 
    3624.39  1.73803e-16 
    3626.15  1.75821e-16 
    3627.91  1.79342e-16 
    3629.66  1.88645e-16 
    3631.42  1.91192e-16 
    3633.17  1.89681e-16 
    3634.93  1.85622e-16 
    3636.68  1.92127e-16 
    3638.44  1.97221e-16 
    3640.19  1.96577e-16 
    3641.95  1.99009e-16 
    3643.71  2.09922e-16 
    3645.46  2.23793e-16 
    3647.22   2.2972e-16 
    3648.97  2.29949e-16 
    3650.73  2.30292e-16 
    3652.48  2.27908e-16 
    3654.24  2.26039e-16 
    3655.99  2.25773e-16 
    3657.75  2.31689e-16 
    3659.51  2.40622e-16 
    3661.26  2.39982e-16 
    3663.02  2.36136e-16 
    3664.77  2.31282e-16 
    3666.53  2.36763e-16 
    3668.28   2.3916e-16 
    3670.04  2.40483e-16 
    3671.79  2.40099e-16 
    3673.55  2.36639e-16 
    3675.31  2.31792e-16 
    3677.06  2.23716e-16 
    3678.82  2.24829e-16 
    3680.57  2.33979e-16 
    3682.33  2.46037e-16 
    3684.08  2.45484e-16 
    3685.84  2.42515e-16 
    3687.59  2.32877e-16 
    3689.35  2.29063e-16 
    3691.11   2.1943e-16 
    3692.86  2.18843e-16 
    3694.62  2.15921e-16 
    3696.37  2.17941e-16 
    3698.13  2.15398e-16 
    3699.88  2.19932e-16 
    3701.64  2.14329e-16 
    3703.39  2.12387e-16 
    3705.15  2.05973e-16 
    3706.91  2.07378e-16 
    3708.66  2.08742e-16 
    3710.42  2.15618e-16 
    3712.17  2.18705e-16 
    3713.93  2.14189e-16 
    3715.68  2.04824e-16 
    3717.44  1.99586e-16 
    3719.19  2.02648e-16 
    3720.95  2.00409e-16 
    3722.71  1.98531e-16 
    3724.46  1.93696e-16 
    3726.22  2.00499e-16 
    3727.97  2.05141e-16 
    3729.73  2.07465e-16 
    3731.48  2.12556e-16 
    3733.24  2.15865e-16 
     3735.0  2.15289e-16 
    3736.75  2.09527e-16 
    3738.51  2.13185e-16 
    3740.26  2.19711e-16 
    3742.02  2.21682e-16 
    3743.77  2.15854e-16 
    3745.53  2.06372e-16 
    3747.28   1.9381e-16 
    3749.04  1.88317e-16 
     3750.8  1.89385e-16 
    3752.55  1.94994e-16 
    3754.31  1.97778e-16 
    3756.06  1.89248e-16 
    3757.82  1.84833e-16 
    3759.57  1.79764e-16 
    3761.33   1.8024e-16 
    3763.08  1.75864e-16 
    3764.84  1.62867e-16 
     3766.6  1.62108e-16 
    3768.35  1.67743e-16 
    3770.11  1.75038e-16 
    3771.86  1.74493e-16 
    3773.62  1.67729e-16 
    3775.37  1.64618e-16 
    3777.13  1.65439e-16 
    3778.88  1.58639e-16 
    3780.64  1.54731e-16 
     3782.4  1.43024e-16 
    3784.15  1.42939e-16 
    3785.91  1.38074e-16 
    3787.66  1.37236e-16 
    3789.42  1.36297e-16 
    3791.17  1.40949e-16 
    3792.93  1.45158e-16 
    3794.68  1.44075e-16 
    3796.44  1.37896e-16 
     3798.2   1.3207e-16 
    3799.95  1.27024e-16 
    3801.71  1.27695e-16 
    3803.46  1.34051e-16 
    3805.22  1.45421e-16 
    3806.97  1.50232e-16 
    3808.73  1.44037e-16 
    3810.48  1.33024e-16 
    3812.24  1.29134e-16 
     3814.0  1.34147e-16 
    3815.75  1.39279e-16 
    3817.51  1.42644e-16 
    3819.26  1.42736e-16 
    3821.02  1.43974e-16 
    3822.77    1.418e-16 
    3824.53  1.42707e-16 
    3826.28  1.42677e-16 
    3828.04  1.48765e-16 
     3829.8  1.55615e-16 
    3831.55  1.61662e-16 
    3833.31   1.6569e-16 
    3835.06  1.61601e-16 
    3836.82  1.66298e-16 
    3838.57  1.70804e-16 
    3840.33  1.79223e-16 
    3842.08  1.79678e-16 
    3843.84  1.80855e-16 
     3845.6  1.84277e-16 
    3847.35  1.90353e-16 
    3849.11  1.94647e-16 
    3850.86  1.90881e-16 
    3852.62   1.9148e-16 
    3854.37  1.91244e-16 
    3856.13  1.99946e-16 
    3857.88  2.01077e-16 
    3859.64  2.03974e-16 
     3861.4  2.08986e-16 
    3863.15  2.13706e-16 
    3864.91  2.14619e-16 
    3866.66  2.11033e-16 
    3868.42  2.13395e-16 
    3870.17  2.17305e-16 
    3871.93  2.18894e-16 
    3873.69  2.21745e-16 
    3875.44  2.24464e-16 
     3877.2  2.26203e-16 
    3878.95  2.18479e-16 
    3880.71  2.12935e-16 
    3882.46  2.19021e-16 
    3884.22  2.26829e-16 
    3885.97  2.26075e-16 
    3887.73  2.27683e-16 
    3889.49  2.34173e-16 
    3891.24  2.42646e-16 
     3893.0   2.3712e-16 
    3894.75  2.31104e-16 
    3896.51  2.32698e-16 
    3898.26  2.34761e-16 
    3900.02  2.36752e-16 
    3901.77  2.35305e-16 
    3903.53  2.36374e-16 
    3905.29  2.39513e-16 
    3907.04  2.43561e-16 
     3908.8  2.51334e-16 
    3910.55  2.53498e-16 
    3912.31  2.51398e-16 
    3914.06  2.49773e-16 
    3915.82   2.4843e-16 
    3917.57   2.5961e-16 
    3919.33  2.67121e-16 
    3921.09  2.72697e-16 
    3922.84  2.70621e-16 
     3924.6  2.64192e-16 
    3926.35  2.64885e-16 
    3928.11  2.66675e-16 
    3929.86  2.74806e-16 
    3931.62  2.82078e-16 
    3933.37  2.84216e-16 
    3935.13  2.83994e-16 
    3936.89   2.9214e-16 
    3938.64  2.96582e-16 
     3940.4   2.9766e-16 
    3942.15  2.94203e-16 
    3943.91  2.99754e-16 
    3945.66   2.9968e-16 
    3947.42  2.98054e-16 
    3949.17  2.93825e-16 
    3950.93  3.04401e-16 
    3952.69  3.09359e-16 
    3954.44  3.10848e-16 
     3956.2  3.05344e-16 
    3957.95  2.97404e-16 
    3959.71  2.92524e-16 
    3961.46  2.99401e-16 
    3963.22  2.97779e-16 
    3964.97  3.00725e-16 
    3966.73  2.90066e-16 
    3968.49  2.88486e-16 
    3970.24  2.93808e-16 
     3972.0  2.92325e-16 
    3973.75  2.93455e-16 
    3975.51  2.89312e-16 
    3977.26  2.84998e-16 
    3979.02   2.8106e-16 
    3980.77   2.7343e-16 
    3982.53  2.70813e-16 
    3984.29  2.70684e-16 
    3986.04  2.64158e-16 
     3987.8  2.57206e-16 
    3989.55   2.5298e-16 
    3991.31  2.55333e-16 
    3993.06  2.57314e-16 
    3994.82  2.59342e-16 
    3996.57  2.60464e-16 
    3998.33  2.62519e-16 
    4000.09  2.60178e-16 
    4001.84  2.54669e-16 
     4003.6  2.53365e-16 
    4005.35  2.46523e-16 
    4007.11  2.41362e-16 
    4008.86  2.36249e-16 
    4010.62  2.39006e-16 
    4012.38  2.46345e-16 
    4014.13  2.48739e-16 
    4015.89   2.4693e-16 
    4017.64  2.41863e-16 
     4019.4  2.35425e-16 
    4021.15  2.32751e-16 
    4022.91  2.32735e-16 
    4024.66   2.3817e-16 
    4026.42  2.36345e-16 
    4028.18  2.29687e-16 
    4029.93  2.27448e-16 
    4031.69  2.33565e-16 
    4033.44  2.37611e-16 
     4035.2  2.42143e-16 
    4036.95  2.43476e-16 
    4038.71  2.49948e-16 
    4040.46  2.54204e-16 
    4042.22  2.54734e-16 
    4043.98  2.52788e-16 
    4045.73  2.52756e-16 
    4047.49  2.37865e-16 
    4049.24  2.33056e-16 
     4051.0  2.31045e-16 
    4052.75   2.4176e-16 
    4054.51  2.47206e-16 
    4056.26  2.48989e-16 
    4058.02  2.51293e-16 
    4059.78  2.53939e-16 
    4061.53  2.49433e-16 
    4063.29  2.45416e-16 
    4065.04  2.35683e-16 
     4066.8  2.29654e-16 
    4068.55  2.31506e-16 
    4070.31  2.34625e-16 
    4072.06  2.37362e-16 
    4073.82  2.31059e-16 
    4075.58  2.28944e-16 
    4077.33  2.33213e-16 
    4079.09   2.3215e-16 
    4080.84  2.27459e-16 
     4082.6  2.18742e-16 
    4084.35  2.18831e-16 
    4086.11  2.21819e-16 
    4087.86  2.24786e-16 
    4089.62  2.31592e-16 
    4091.38  2.35864e-16 
    4093.13  2.36354e-16 
    4094.89  2.35994e-16 
    4096.64  2.37075e-16 
     4098.4  2.39244e-16 
    4100.15  2.42234e-16 
    4101.91   2.4166e-16 
    4103.66  2.40692e-16 
    4105.42  2.35786e-16 
    4107.18   2.3043e-16 
    4108.93  2.30001e-16 
    4110.69  2.31291e-16 
    4112.44  2.36004e-16 
     4114.2  2.34684e-16 
    4115.95  2.30199e-16 
    4117.71   2.2712e-16 
    4119.46  2.24146e-16 
    4121.22    2.248e-16 
    4122.98  2.23512e-16 
    4124.73  2.21121e-16 
    4126.49  2.17822e-16 
    4128.24  2.12014e-16 
     4130.0  2.06947e-16 
    4131.75  1.99855e-16 
    4133.51  1.94347e-16 
    4135.26  1.95541e-16 
    4137.02  2.02501e-16 
    4138.78  2.07081e-16 
    4140.53  2.09002e-16 
    4142.29  2.08764e-16 
    4144.04  2.06251e-16 
     4145.8  2.07134e-16 
    4147.55  2.03391e-16 
    4149.31  1.99137e-16 
    4151.06  2.00358e-16 
    4152.82  2.01081e-16 
    4154.58  2.02665e-16 
    4156.33  1.96464e-16 
    4158.09  1.99222e-16 
    4159.84  2.03105e-16 
     4161.6  2.05979e-16 
    4163.35  2.00825e-16 
    4165.11  2.02369e-16 
    4166.87  1.97556e-16 
    4168.62  2.01351e-16 
    4170.38  2.03773e-16 
    4172.13   2.1863e-16 
    4173.89  2.18597e-16 
    4175.64  2.17343e-16 
     4177.4   2.1015e-16 
    4179.15  2.12101e-16 
    4180.91   2.1652e-16 
    4182.67  2.18501e-16 
    4184.42  2.23377e-16 
    4186.18   2.2248e-16 
    4187.93  2.19903e-16 
    4189.69  2.11399e-16 
    4191.44   2.1092e-16 
     4193.2  2.11101e-16 
    4194.95  2.12143e-16 
    4196.71  2.12017e-16 
    4198.47  2.13696e-16 
    4200.22  2.14753e-16 
    4201.98  2.10603e-16 
    4203.73  2.02352e-16 
    4205.49  1.91735e-16 
    4207.24  1.84928e-16 
     4209.0  1.88205e-16 
    4210.75   1.9265e-16 
    4212.51  1.97526e-16 
    4214.27  2.01064e-16 
    4216.02  2.02403e-16 
    4217.78  1.96193e-16 
    4219.53  1.86479e-16 
    4221.29  1.80826e-16 
    4223.04  1.81346e-16 
     4224.8  1.84984e-16 
    4226.55   1.8969e-16 
    4228.31  1.94568e-16 
    4230.07  1.97202e-16 
    4231.82  1.96336e-16 
    4233.58  1.92682e-16 
    4235.33  1.88984e-16 
    4237.09  1.90109e-16 
    4238.84  1.91123e-16 
     4240.6  1.89242e-16 
    4242.35  1.91137e-16 
    4244.11  1.90988e-16 
    4245.87  1.96333e-16 
    4247.62   1.9985e-16 
    4249.38  1.98468e-16 
    4251.13  1.97938e-16 
    4252.89  1.91882e-16 
    4254.64   1.9629e-16 
     4256.4  1.97952e-16 
    4258.15  2.05266e-16 
    4259.91  2.06715e-16 
    4261.67   2.0419e-16 
    4263.42  1.98177e-16 
    4265.18  1.93239e-16 
    4266.93  1.93707e-16 
    4268.69  1.98138e-16 
    4270.44  2.01424e-16 
     4272.2  2.02805e-16 
    4273.95  2.01021e-16 
    4275.71  2.01436e-16 
    4277.47  2.03755e-16 
    4279.22  2.00146e-16 
    4280.98  1.94872e-16 
    4282.73  1.86606e-16 
    4284.49   1.9138e-16 
    4286.24  1.97823e-16 
     4288.0  1.98719e-16 
    4289.75  1.97367e-16 
    4291.51  1.91924e-16 
    4293.27  1.89509e-16 
    4295.02  1.83269e-16 
    4296.78  1.84071e-16 
    4298.53  1.85265e-16 
    4300.29  1.86153e-16 
    4302.04  1.83619e-16 
     4303.8  1.83283e-16 
    4305.56  1.82442e-16 
    4307.31  1.80481e-16 
    4309.07  1.75111e-16 
    4310.82  1.72007e-16 
    4312.58  1.72317e-16 
    4314.33  1.69013e-16 
    4316.09  1.65476e-16 
    4317.84  1.65129e-16 
     4319.6  1.68952e-16 
    4321.36  1.68308e-16 
    4323.11  1.63911e-16 
    4324.87  1.58639e-16 
    4326.62  1.56169e-16 
    4328.38  1.54759e-16 
    4330.13  1.55652e-16 
    4331.89  1.56836e-16 
    4333.64   1.6228e-16 
     4335.4  1.67873e-16 
    4337.16  1.67165e-16 
    4338.91  1.58863e-16 
    4340.67  1.56786e-16 
    4342.42  1.67242e-16 
    4344.18  1.73307e-16 
    4345.93  1.70088e-16 
    4347.69  1.64079e-16 
    4349.44  1.60303e-16 
     4351.2  1.60552e-16 
    4352.96  1.61204e-16 
    4354.71  1.68434e-16 
    4356.47  1.69098e-16 
    4358.22  1.70523e-16 
    4359.98  1.73842e-16 
    4361.73   1.7259e-16 
    4363.49  1.68448e-16 
    4365.24  1.62438e-16 
     4367.0  1.63494e-16 
    4368.76  1.57747e-16 
    4370.51  1.49057e-16 
    4372.27  1.47568e-16 
    4374.02  1.57498e-16 
    4375.78  1.69625e-16 
    4377.53  1.69645e-16 
    4379.29  1.62985e-16 
    4381.04  1.59328e-16 
     4382.8    1.661e-16 
    4384.56  1.76026e-16 
    4386.31  1.72947e-16 
    4388.07  1.67953e-16 
    4389.82  1.61688e-16 
    4391.58  1.61126e-16 
    4393.33  1.60954e-16 
    4395.09  1.62965e-16 
    4396.84  1.62958e-16 
     4398.6  1.62059e-16 
    4400.36  1.61016e-16 
    4402.11  1.61523e-16 
    4403.87  1.65804e-16 
    4405.62  1.64815e-16 
    4407.38   1.6665e-16 
    4409.13  1.68225e-16 
    4410.89  1.71608e-16 
    4412.64   1.6844e-16 
     4414.4  1.67019e-16 
    4416.16  1.68849e-16 
    4417.91  1.76944e-16 
    4419.67  1.76428e-16 
    4421.42  1.75268e-16 
    4423.18  1.76003e-16 
    4424.93  1.82076e-16 
    4426.69  1.82359e-16 
    4428.44  1.81552e-16 
     4430.2   1.8427e-16 
    4431.96  1.93362e-16 
    4433.71   1.9684e-16 
    4435.47  1.93172e-16 
    4437.22  1.90972e-16 
    4438.98  1.93405e-16 
    4440.73  1.99854e-16 
    4442.49  2.02987e-16 
    4444.25  2.05866e-16 
     4446.0  2.05998e-16 
    4447.76   2.0456e-16 
    4449.51  2.03621e-16 
    4451.27  2.02368e-16 
    4453.02  2.00206e-16 
    4454.78  1.95666e-16 
    4456.53  2.00928e-16 
    4458.29  1.97993e-16 
    4460.05  2.02273e-16 
     4461.8  2.03185e-16 
    4463.56  2.10623e-16 
    4465.31  2.11611e-16 
    4467.07   2.1277e-16 
    4468.82  2.15574e-16 
    4470.58  2.19854e-16 
    4472.33  2.22591e-16 
    4474.09  2.23193e-16 
    4475.85  2.22883e-16 
     4477.6  2.24184e-16 
    4479.36  2.26891e-16 
    4481.11  2.22966e-16 
    4482.87  2.11708e-16 
    4484.62  2.09027e-16 
    4486.38  2.14661e-16 
    4488.13  2.22611e-16 
    4489.89  2.23627e-16 
    4491.65  2.25241e-16 
     4493.4  2.26537e-16 
    4495.16   2.2981e-16 
    4496.91  2.26333e-16 
    4498.67  2.29425e-16 
    4500.42  2.35542e-16 
    4502.18  2.44424e-16 
    4503.93  2.48868e-16 
    4505.69  2.41049e-16 
    4507.45  2.37774e-16 
     4509.2  2.34995e-16 
    4510.96  2.43332e-16 
    4512.71  2.48514e-16 
    4514.47   2.5169e-16 
    4516.22  2.43834e-16 
    4517.98  2.39022e-16 
    4519.73   2.3895e-16 
    4521.49  2.46151e-16 
    4523.25  2.49768e-16 
     4525.0  2.52863e-16 
    4526.76  2.59079e-16 
    4528.51  2.62921e-16 
    4530.27  2.60033e-16 
    4532.02  2.51615e-16 
    4533.78  2.50724e-16 
    4535.53  2.47037e-16 
    4537.29  2.48562e-16 
    4539.05  2.52435e-16 
     4540.8  2.59835e-16 
    4542.56  2.63345e-16 
    4544.31  2.61546e-16 
    4546.07  2.59971e-16 
    4547.82   2.6089e-16 
    4549.58   2.6083e-16 
    4551.33  2.60361e-16 
    4553.09  2.56648e-16 
    4554.85  2.54032e-16 
     4556.6  2.55624e-16 
    4558.36  2.62223e-16 
    4560.11  2.65564e-16 
    4561.87  2.65505e-16 
    4563.62  2.66401e-16 
    4565.38   2.6944e-16 
    4567.13  2.70284e-16 
    4568.89  2.64927e-16 
    4570.65  2.68076e-16 
     4572.4  2.68093e-16 
    4574.16  2.72683e-16 
    4575.91  2.69245e-16 
    4577.67  2.64008e-16 
    4579.42  2.65058e-16 
    4581.18  2.63751e-16 
    4582.93  2.69858e-16 
    4584.69  2.63766e-16 
    4586.45  2.61288e-16 
     4588.2  2.59675e-16 
    4589.96  2.57337e-16 
    4591.71  2.59385e-16 
    4593.47  2.63082e-16 
    4595.22  2.64901e-16 
    4596.98  2.56135e-16 
    4598.74  2.48544e-16 
    4600.49  2.51019e-16 
    4602.25  2.57129e-16 
     4604.0  2.61401e-16 
    4605.76  2.56062e-16 
    4607.51  2.58005e-16 
    4609.27   2.6157e-16 
    4611.02  2.61981e-16 
    4612.78  2.59513e-16 
    4614.54  2.62412e-16 
    4616.29  2.69256e-16 
    4618.05  2.70631e-16 
     4619.8  2.64589e-16 
    4621.56  2.61657e-16 
    4623.31  2.63927e-16 
    4625.07  2.66652e-16 
    4626.82  2.70898e-16 
    4628.58  2.68906e-16 
    4630.34  2.61805e-16 
    4632.09  2.58395e-16 
    4633.85  2.51927e-16 
     4635.6  2.51408e-16 
    4637.36  2.51397e-16 
    4639.11  2.53414e-16 
    4640.87  2.47202e-16 
    4642.62  2.41306e-16 
    4644.38  2.41577e-16 
    4646.14  2.52679e-16 
    4647.89  2.52988e-16 
    4649.65  2.50447e-16 
     4651.4  2.42584e-16 
    4653.16  2.40987e-16 
    4654.91  2.38494e-16 
    4656.67  2.36755e-16 
    4658.42  2.31473e-16 
    4660.18  2.29368e-16 
    4661.94  2.33802e-16 
    4663.69  2.40057e-16 
    4665.45  2.40675e-16 
     4667.2  2.29351e-16 
    4668.96  2.26262e-16 
    4670.71  2.26847e-16 
    4672.47  2.32081e-16 
    4674.22  2.36377e-16 
    4675.98  2.44512e-16 
    4677.74  2.46402e-16 
    4679.49  2.38609e-16 
    4681.25  2.28476e-16 
     4683.0  2.27359e-16 
    4684.76   2.3388e-16 
    4686.51  2.33044e-16 
    4688.27  2.33589e-16 
    4690.02  2.34872e-16 
    4691.78  2.38237e-16 
    4693.54  2.36918e-16 
    4695.29  2.29738e-16 
    4697.05  2.29779e-16 
     4698.8  2.30599e-16 
    4700.56  2.27865e-16 
    4702.31  2.26206e-16 
    4704.07  2.20036e-16 
    4705.82  2.21327e-16 
    4707.58  2.19214e-16 
    4709.34  2.19413e-16 
    4711.09  2.15542e-16 
    4712.85  2.13223e-16 
     4714.6  2.15027e-16 
    4716.36  2.12482e-16 
    4718.11  2.07187e-16 
    4719.87  2.05981e-16 
    4721.62  2.10366e-16 
    4723.38  2.10447e-16 
    4725.14  2.06148e-16 
    4726.89  2.04984e-16 
    4728.65  2.03293e-16 
     4730.4  1.98416e-16 
    4732.16   1.9534e-16 
    4733.91  1.98711e-16 
    4735.67   2.0211e-16 
    4737.43  1.95192e-16 
    4739.18  1.87819e-16 
    4740.94  1.85785e-16 
    4742.69  1.89135e-16 
    4744.45   1.8929e-16 
     4746.2  1.89591e-16 
    4747.96  1.92799e-16 
    4749.71  1.96182e-16 
    4751.47  1.98307e-16 
    4753.23   1.9554e-16 
    4754.98  1.97873e-16 
    4756.74  1.99629e-16 
    4758.49  2.01619e-16 
    4760.25  2.00508e-16 
     4762.0  2.03096e-16 
    4763.76  2.06209e-16 
    4765.51  2.08804e-16 
    4767.27  2.05601e-16 
    4769.03  2.03426e-16 
    4770.78  2.05161e-16 
    4772.54  2.09654e-16 
    4774.29  2.13557e-16 
    4776.05  2.11929e-16 
     4777.8  2.10423e-16 
    4779.56  2.08753e-16 
    4781.31   2.1238e-16 
    4783.07  2.19914e-16 
    4784.83  2.25537e-16 
    4786.58  2.25664e-16 
    4788.34  2.20495e-16 
    4790.09  2.15427e-16 
    4791.85  2.16886e-16 
     4793.6  2.17506e-16 
    4795.36  2.22509e-16 
    4797.11  2.22043e-16 
    4798.87  2.16183e-16 
    4800.63   2.0894e-16 
    4802.38  2.03542e-16 
    4804.14  2.02992e-16 
    4805.89   2.0706e-16 
    4807.65   2.0926e-16 
     4809.4  2.11977e-16 
    4811.16  2.09079e-16 
    4812.91  2.07187e-16 
    4814.67  1.97201e-16 
    4816.43  1.94024e-16 
    4818.18  1.89824e-16 
    4819.94  1.92404e-16 
    4821.69  1.86357e-16 
    4823.45  1.82035e-16 
     4825.2  1.80103e-16 
    4826.96  1.78856e-16 
    4828.71   1.8154e-16 
    4830.47  1.81886e-16 
    4832.23  1.86052e-16 
    4833.98  1.90259e-16 
    4835.74  1.84381e-16 
    4837.49  1.80538e-16 
    4839.25  1.76199e-16 
     4841.0  1.82847e-16 
    4842.76   1.8539e-16 
    4844.51  1.82398e-16 
    4846.27  1.84467e-16 
    4848.03  1.89361e-16 
    4849.78  1.91699e-16 
    4851.54  1.91219e-16 
    4853.29  1.87967e-16 
    4855.05  1.91708e-16 
     4856.8  1.95916e-16 
    4858.56   1.9922e-16 
    4860.31  2.00194e-16 
    4862.07  2.02896e-16 
    4863.83  2.11818e-16 
    4865.58  2.17229e-16 
    4867.34  2.17523e-16 
    4869.09  2.10993e-16 
    4870.85  2.06902e-16 
     4872.6  2.08587e-16 
    4874.36  2.11486e-16 
    4876.12  2.10735e-16 
    4877.87  2.06631e-16 
    4879.63  2.03298e-16 
    4881.38  2.07858e-16 
    4883.14  2.11333e-16 
    4884.89   2.1475e-16 
    4886.65  2.12667e-16 
     4888.4  2.09909e-16 
    4890.16  2.08052e-16 
    4891.92  2.08748e-16 
    4893.67  2.09814e-16 
    4895.43    2.096e-16 
    4897.18  2.09815e-16 
    4898.94  2.14297e-16 
    4900.69  2.15822e-16 
    4902.45  2.13709e-16 
     4904.2  2.13846e-16 
    4905.96  2.15065e-16 
    4907.72  2.13903e-16 
    4909.47   2.0978e-16 
    4911.23  2.10582e-16 
    4912.98  2.16452e-16 
    4914.74  2.17635e-16 
    4916.49  2.15282e-16 
    4918.25   2.1299e-16 
     4920.0  2.11123e-16 
    4921.76  2.13366e-16 
    4923.52  2.14359e-16 
    4925.27  2.16872e-16 
    4927.03  2.15633e-16 
    4928.78  2.12318e-16 
    4930.54  2.13322e-16 
    4932.29  2.11015e-16 
    4934.05  2.12437e-16 
     4935.8  2.09425e-16 
    4937.56  2.04544e-16 
    4939.32  2.01447e-16 
    4941.07  1.98101e-16 
    4942.83  2.01768e-16 
    4944.58  2.00845e-16 
    4946.34  2.05098e-16 
    4948.09  2.14292e-16 
    4949.85  2.17215e-16 
     4951.6  2.10907e-16 
    4953.36  1.97929e-16 
    4955.12  1.92645e-16 
    4956.87  1.90419e-16 
    4958.63  1.91404e-16 
    4960.38   1.9798e-16 
    4962.14  2.04517e-16 
    4963.89  2.00127e-16 
    4965.65  1.89627e-16 
     4967.4  1.83419e-16 
    4969.16  1.81582e-16 
    4970.92  1.76814e-16 
    4972.67  1.77493e-16 
    4974.43  1.72475e-16 
    4976.18  1.72244e-16 
    4977.94  1.63007e-16 
    4979.69  1.62684e-16 
    4981.45  1.62684e-16 
     4983.2  1.62845e-16 
    4984.96  1.63651e-16 
    4986.72  1.65672e-16 
    4988.47  1.71806e-16 
    4990.23  1.78046e-16 
    4991.98  1.79385e-16 
    4993.74  1.76249e-16 
    4995.49  1.74319e-16 
    4997.25  1.74921e-16 
     4999.0  1.69342e-16 
    5000.76  1.65716e-16 
    5002.52  1.64658e-16 
    5004.27  1.70143e-16 
    5006.03  1.72363e-16 
    5007.78  1.72846e-16 
    5009.54  1.73491e-16 
    5011.29  1.73813e-16 
    5013.05  1.74296e-16 
     5014.8  1.72294e-16 
    5016.56  1.73993e-16 
    5018.32   1.7983e-16 
    5020.07  1.88774e-16 
    5021.83  1.92193e-16 
    5023.58  1.91762e-16 
    5025.34  1.85803e-16 
    5027.09  1.81874e-16 
    5028.85  1.73187e-16 
    5030.61  1.75518e-16 
    5032.36  1.76231e-16 
    5034.12  1.78126e-16 
    5035.87  1.74099e-16 
    5037.63  1.68671e-16 
    5039.38  1.68715e-16 
    5041.14  1.67809e-16 
    5042.89  1.69204e-16 
    5044.65  1.77349e-16 
    5046.41  1.86535e-16 
    5048.16  1.94343e-16 
    5049.92  1.86406e-16 
    5051.67  1.78303e-16 
    5053.43  1.74021e-16 
    5055.18  1.81411e-16 
    5056.94   1.8676e-16 
    5058.69  1.84852e-16 
    5060.45  1.80923e-16 
    5062.21  1.76826e-16 
    5063.96  1.74896e-16 
    5065.72  1.74633e-16 
    5067.47  1.75202e-16 
    5069.23  1.83833e-16 
    5070.98  1.87861e-16 
    5072.74  1.90951e-16 
    5074.49  1.83597e-16 
    5076.25  1.79315e-16 
    5078.01  1.80347e-16 
    5079.76  1.83313e-16 
    5081.52  1.83405e-16 
    5083.27  1.77153e-16 
    5085.03  1.75121e-16 
    5086.78  1.73148e-16 
    5088.54  1.72164e-16 
    5090.29  1.73918e-16 
    5092.05  1.71767e-16 
    5093.81   1.7188e-16 
    5095.56  1.70301e-16 
    5097.32  1.75124e-16 
    5099.07  1.81229e-16 
    5100.83  1.86949e-16 
    5102.58   1.9399e-16 
    5104.34  1.88778e-16 
    5106.09  1.78704e-16 
    5107.85  1.72199e-16 
    5109.61  1.77812e-16 
    5111.36  1.83064e-16 
    5113.12  1.76632e-16 
    5114.87  1.68285e-16 
    5116.63   1.6813e-16 
    5118.38  1.70305e-16 
    5120.14   1.7585e-16 
    5121.89  1.84663e-16 
    5123.65  1.82151e-16 
    5125.41  1.74868e-16 
    5127.16  1.69478e-16 
    5128.92  1.77859e-16 
    5130.67  1.84708e-16 
    5132.43  1.81062e-16 
    5134.18  1.78611e-16 
    5135.94  1.79068e-16 
    5137.69   1.7948e-16 
    5139.45  1.81778e-16 
    5141.21  1.86339e-16 
    5142.96  1.85977e-16 
    5144.72   1.8072e-16 
    5146.47  1.78367e-16 
    5148.23  1.84274e-16 
    5149.98  1.91456e-16 
    5151.74  1.93589e-16 
    5153.49  1.93921e-16 
    5155.25  1.92715e-16 
    5157.01  1.86583e-16 
    5158.76  1.85858e-16 
    5160.52  1.91305e-16 
    5162.27  1.98938e-16 
    5164.03  2.01544e-16 
    5165.78  1.97756e-16 
    5167.54  1.98056e-16 
     5169.3  2.03871e-16 
    5171.05  2.03316e-16 
    5172.81  2.03225e-16 
    5174.56  2.01317e-16 
    5176.32   2.0758e-16 
    5178.07  2.10083e-16 
    5179.83  2.07381e-16 
    5181.58  2.04235e-16 
    5183.34  2.03079e-16 
     5185.1  2.04445e-16 
    5186.85  2.08969e-16 
    5188.61  2.12804e-16 
    5190.36  2.09456e-16 
    5192.12  2.07087e-16 
    5193.87  2.07167e-16 
    5195.63  2.14383e-16 
    5197.38  2.17349e-16 
    5199.14  2.14892e-16 
     5200.9  2.12677e-16 
    5202.65   2.1419e-16 
    5204.41  2.17847e-16 
    5206.16  2.15713e-16 
    5207.92  2.13496e-16 
    5209.67  2.12905e-16 
    5211.43  2.16465e-16 
    5213.18  2.11233e-16 
    5214.94  2.09195e-16 
     5216.7  2.09399e-16 
    5218.45  2.09439e-16 
    5220.21  2.09099e-16 
    5221.96  2.04974e-16 
    5223.72  2.06178e-16 
    5225.47  2.06246e-16 
    5227.23   2.0104e-16 
    5228.98  2.01038e-16 
    5230.74  1.96356e-16 
     5232.5  2.05622e-16 
    5234.25  2.09582e-16 
    5236.01  2.13656e-16 
    5237.76  2.09035e-16 
    5239.52  2.05493e-16 
    5241.27  2.08009e-16 
    5243.03  2.12119e-16 
    5244.78  2.16507e-16 
    5246.54  2.23681e-16 
     5248.3  2.24749e-16 
    5250.05  2.20289e-16 
    5251.81  2.16854e-16 
    5253.56  2.23907e-16 
    5255.32  2.34974e-16 
    5257.07  2.37732e-16 
    5258.83  2.29269e-16 
    5260.58  2.20374e-16 
    5262.34  2.18535e-16 
     5264.1  2.19354e-16 
    5265.85  2.24875e-16 
    5267.61  2.22043e-16 
    5269.36  2.22469e-16 
    5271.12   2.1693e-16 
    5272.87  2.18311e-16 
    5274.63  2.17205e-16 
    5276.38  2.17443e-16 
    5278.14   2.1926e-16 
     5279.9  2.24845e-16 
    5281.65  2.32124e-16 
    5283.41  2.32046e-16 
    5285.16  2.28709e-16 
    5286.92   2.2289e-16 
    5288.67  2.20287e-16 
    5290.43  2.19682e-16 
    5292.18  2.19593e-16 
    5293.94  2.16984e-16 
     5295.7   2.1154e-16 
    5297.45  2.09314e-16 
    5299.21  2.09519e-16 
    5300.96   2.0935e-16 
    5302.72  2.09873e-16 
    5304.47  2.10389e-16 
    5306.23   2.1036e-16 
    5307.98  2.10855e-16 
    5309.74  2.08944e-16 
     5311.5  2.11855e-16 
    5313.25  2.11451e-16 
    5315.01   2.1415e-16 
    5316.76  2.17137e-16 
    5318.52  2.15348e-16 
    5320.27    2.136e-16 
    5322.03  2.06147e-16 
    5323.79  2.02856e-16 
    5325.54  2.03787e-16 
     5327.3  2.13846e-16 
    5329.05  2.19521e-16 
    5330.81  2.16381e-16 
    5332.56  2.08608e-16 
    5334.32  2.11456e-16 
    5336.07  2.14754e-16 
    5337.83  2.17884e-16 
    5339.59  2.15795e-16 
    5341.34  2.09232e-16 
     5343.1  2.04856e-16 
    5344.85  2.00522e-16 
    5346.61  2.06851e-16 
    5348.36  2.08605e-16 
    5350.12  2.11072e-16 
    5351.87  2.09538e-16 
    5353.63  2.12859e-16 
    5355.39  2.14991e-16 
    5357.14  2.17086e-16 
     5358.9  2.12559e-16 
    5360.65  2.15503e-16 
    5362.41  2.17417e-16 
    5364.16  2.23413e-16 
    5365.92  2.20743e-16 
    5367.67  2.17146e-16 
    5369.43  2.13727e-16 
    5371.19  2.13063e-16 
    5372.94  2.14331e-16 
     5374.7  2.13542e-16 
    5376.45  2.10668e-16 
    5378.21  2.11648e-16 
    5379.96  2.15125e-16 
    5381.72  2.17542e-16 
    5383.47  2.13064e-16 
    5385.23   2.1267e-16 
    5386.99  2.14872e-16 
    5388.74  2.18775e-16 
     5390.5   2.2212e-16 
    5392.25   2.1836e-16 
    5394.01  2.15768e-16 
    5395.76  2.12397e-16 
    5397.52   2.1514e-16 
    5399.27  2.12105e-16 
    5401.03  2.08424e-16 
    5402.79  2.03361e-16 
    5404.54  2.08324e-16 
     5406.3  2.12407e-16 
    5408.05  2.17468e-16 
    5409.81  2.13946e-16 
    5411.56  2.10401e-16 
    5413.32  2.05351e-16 
    5415.07  2.05382e-16 
    5416.83  2.04535e-16 
    5418.59  2.03915e-16 
    5420.34  2.03701e-16 
     5422.1  2.05955e-16 
    5423.85  2.09183e-16 
    5425.61  2.08121e-16 
    5427.36  2.05358e-16 
    5429.12  2.03108e-16 
    5430.87  2.05799e-16 
    5432.63  2.05478e-16 
    5434.39  2.03812e-16 
    5436.14  2.01941e-16 
     5437.9  2.01599e-16 
    5439.65  2.02912e-16 
    5441.41  2.02214e-16 
    5443.16  2.00752e-16 
    5444.92  2.02823e-16 
    5446.67  2.02005e-16 
    5448.43  2.01818e-16 
    5450.19  1.97619e-16 
    5451.94  1.99128e-16 
     5453.7  1.97707e-16 
    5455.45  1.96839e-16 
    5457.21  1.96508e-16 
    5458.96  1.99182e-16 
    5460.72  1.99685e-16 
    5462.48  2.02761e-16 
    5464.23  2.04465e-16 
    5465.99  2.09208e-16 
    5467.74  2.04541e-16 
     5469.5  2.00406e-16 
    5471.25  1.93862e-16 
    5473.01  1.92221e-16 
    5474.76  1.90829e-16 
    5476.52  1.95342e-16 
    5478.28  1.97766e-16 
    5480.03  1.98862e-16 
    5481.79  1.98449e-16 
    5483.54  1.96132e-16 
     5485.3  1.95747e-16 
    5487.05  1.93429e-16 
    5488.81  1.95993e-16 
    5490.56    1.952e-16 
    5492.32  1.96987e-16 
    5494.08   1.9412e-16 
    5495.83  2.02187e-16 
    5497.59   1.9752e-16 
    5499.34  1.96165e-16 
     5501.1   1.9333e-16 
    5502.85  1.98008e-16 
    5504.61  2.00698e-16 
    5506.36  1.98243e-16 
    5508.12  1.99169e-16 
    5509.88  1.98365e-16 
    5511.63  1.95923e-16 
    5513.39  1.94525e-16 
    5515.14  1.95288e-16 
     5516.9  1.95254e-16 
    5518.65  1.95687e-16 
    5520.41  1.99509e-16 
    5522.16  2.03556e-16 
    5523.92  2.02458e-16 
    5525.68  1.96173e-16 
    5527.43  1.89509e-16 
    5529.19  1.87258e-16 
    5530.94  1.88915e-16 
     5532.7  1.95162e-16 
    5534.45  1.96634e-16 
    5536.21   1.9381e-16 
    5537.96  1.91398e-16 
    5539.72  1.91174e-16 
    5541.48  1.94707e-16 
    5543.23  1.92555e-16 
    5544.99  1.88124e-16 
    5546.74  1.87283e-16 
     5548.5  1.91813e-16 
    5550.25  1.99204e-16 
    5552.01  1.98991e-16 
    5553.76  1.92724e-16 
    5555.52  1.85522e-16 
    5557.28  1.83737e-16 
    5559.03  1.83187e-16 
    5560.79   1.8194e-16 
    5562.54  1.82156e-16 
     5564.3  1.86182e-16 
    5566.05  1.90363e-16 
    5567.81  1.89456e-16 
    5569.56  1.85422e-16 
    5571.32  1.79008e-16 
    5573.08  1.76141e-16 
    5574.83  1.68391e-16 
    5576.59  1.69534e-16 
    5578.34  1.73111e-16 
     5580.1  1.83053e-16 
    5581.85  1.86884e-16 
    5583.61  1.85394e-16 
    5585.36  1.78602e-16 
    5587.12  1.73777e-16 
    5588.88  1.74264e-16 
    5590.63  1.68931e-16 
    5592.39  1.76563e-16 
    5594.14  1.74862e-16 
     5595.9   1.8274e-16 
    5597.65  1.82503e-16 
    5599.41  1.82689e-16 
    5601.17  1.87488e-16 
    5602.92  1.82833e-16 
    5604.68  1.80021e-16 
    5606.43   1.7438e-16 
    5608.19  1.71452e-16 
    5609.94  1.72135e-16 
     5611.7  1.76822e-16 
    5613.45  1.80461e-16 
    5615.21  1.81202e-16 
    5616.97  1.75047e-16 
    5618.72  1.78556e-16 
    5620.48  1.81225e-16 
    5622.23   1.8198e-16 
    5623.99  1.71363e-16 
    5625.74  1.66928e-16 
     5627.5  1.71662e-16 
    5629.25  1.78065e-16 
    5631.01  1.78644e-16 
    5632.77  1.75781e-16 
    5634.52  1.72263e-16 
    5636.28   1.7119e-16 
    5638.03  1.69435e-16 
    5639.79  1.71178e-16 
    5641.54  1.71514e-16 
     5643.3  1.72572e-16 
    5645.05  1.77114e-16 
    5646.81  1.76176e-16 
    5648.57  1.73803e-16 
    5650.32  1.72498e-16 
    5652.08  1.73696e-16 
    5653.83  1.73527e-16 
    5655.59  1.69304e-16 
    5657.34  1.69125e-16 
     5659.1  1.67961e-16 
    5660.85  1.65294e-16 
    5662.61  1.65224e-16 
    5664.37  1.62844e-16 
    5666.12  1.58018e-16 
    5667.88  1.55108e-16 
    5669.63  1.58553e-16 
    5671.39  1.64728e-16 
    5673.14  1.66352e-16 
     5674.9  1.62424e-16 
    5676.65  1.57075e-16 
    5678.41  1.55458e-16 
    5680.17  1.54872e-16 
    5681.92  1.56472e-16 
    5683.68  1.52266e-16 
    5685.43  1.52807e-16 
    5687.19   1.5118e-16 
    5688.94  1.52647e-16 
     5690.7  1.53172e-16 
    5692.45  1.52768e-16 
    5694.21  1.54577e-16 
    5695.97  1.57487e-16 
    5697.72  1.64953e-16 
    5699.48  1.65654e-16 
    5701.23  1.60513e-16 
    5702.99  1.51925e-16 
    5704.74  1.47628e-16 
     5706.5  1.51824e-16 
    5708.25  1.54375e-16 
    5710.01  1.59776e-16 
    5711.77  1.58331e-16 
    5713.52  1.60797e-16 
    5715.28  1.59487e-16 
    5717.03  1.57699e-16 
    5718.79  1.56259e-16 
    5720.54  1.55011e-16 
     5722.3  1.57637e-16 
    5724.05  1.56978e-16 
    5725.81  1.54046e-16 
    5727.57  1.48778e-16 
    5729.32  1.47085e-16 
    5731.08  1.49044e-16 
    5732.83  1.53536e-16 
    5734.59  1.53086e-16 
    5736.34  1.53965e-16 
     5738.1  1.52888e-16 
    5739.85  1.51917e-16 
    5741.61  1.46348e-16 
    5743.37  1.44427e-16 
    5745.12  1.42019e-16 
    5746.88  1.42543e-16 
    5748.63  1.40461e-16 
    5750.39  1.41151e-16 
    5752.14  1.44564e-16 
     5753.9    1.459e-16 
    5755.66  1.48186e-16 
    5757.41   1.4807e-16 
    5759.17  1.48862e-16 
    5760.92  1.45295e-16 
    5762.68  1.37664e-16 
    5764.43  1.32452e-16 
    5766.19  1.34093e-16 
    5767.94  1.39385e-16 
     5769.7  1.42655e-16 
    5771.46  1.45023e-16 
    5773.21  1.46352e-16 
    5774.97  1.49469e-16 
    5776.72  1.45359e-16 
    5778.48     1.42e-16 
    5780.23  1.38329e-16 
    5781.99   1.3645e-16 
    5783.74  1.37044e-16 
     5785.5  1.35613e-16 
    5787.26  1.37556e-16 
    5789.01  1.36868e-16 
    5790.77  1.36375e-16 
    5792.52  1.34803e-16 
    5794.28  1.37106e-16 
    5796.03  1.42829e-16 
    5797.79  1.44686e-16 
    5799.54   1.4436e-16 
     5801.3  1.42923e-16 
    5803.06  1.41856e-16 
    5804.81  1.39566e-16 
    5806.57  1.35541e-16 
    5808.32  1.38616e-16 
    5810.08  1.39882e-16 
    5811.83   1.4005e-16 
    5813.59  1.41276e-16 
    5815.34  1.41087e-16 
     5817.1  1.41213e-16 
    5818.86  1.39145e-16 
    5820.61  1.40395e-16 
    5822.37  1.43103e-16 
    5824.12  1.45949e-16 
    5825.88  1.44403e-16 
    5827.63  1.41118e-16 
    5829.39   1.3776e-16 
    5831.14  1.42478e-16 
     5832.9  1.49275e-16 
    5834.66  1.50014e-16 
    5836.41  1.47446e-16 
    5838.17  1.43873e-16 
    5839.92  1.42126e-16 
    5841.68  1.39814e-16 
    5843.43   1.3958e-16 
    5845.19  1.42143e-16 
    5846.94  1.45774e-16 
     5848.7  1.45493e-16 
    5850.46  1.44835e-16 
    5852.21  1.42647e-16 
    5853.97  1.42531e-16 
    5855.72  1.42531e-16 
    5857.48  1.42531e-16 
    5859.23  1.42531e-16 
    5860.99  1.42531e-16 
    5862.74    1.417e-16 
     5864.5  1.45146e-16 
    5866.26   1.4435e-16 
    5868.01  1.46691e-16 
    5869.77  1.43444e-16 
    5871.52  1.44707e-16 
    5873.28  1.43127e-16 
    5875.03  1.40636e-16 
    5876.79  1.40897e-16 
    5878.54  1.42601e-16 
     5880.3  1.45478e-16 
    5882.06  1.46072e-16 
    5883.81  1.42298e-16 
    5885.57  1.42096e-16 
    5887.32  1.42952e-16 
    5889.08  1.47508e-16 
    5890.83  1.48687e-16 
    5892.59   1.4466e-16 
    5894.35  1.39302e-16 
     5896.1     1.34e-16 
    5897.86  1.35295e-16 
    5899.61  1.36745e-16 
    5901.37  1.42647e-16 
    5903.12  1.43584e-16 
    5904.88  1.44826e-16 
    5906.63  1.43722e-16 
    5908.39  1.43404e-16 
    5910.15  1.38646e-16 
     5911.9  1.34716e-16 
    5913.66  1.32443e-16 
    5915.41  1.37493e-16 
    5917.17   1.4679e-16 
    5918.92  1.48969e-16 
    5920.68  1.49174e-16 
    5922.43  1.43027e-16 
    5924.19  1.37871e-16 
    5925.95   1.3513e-16 
     5927.7  1.34162e-16 
    5929.46  1.36543e-16 
    5931.21  1.37894e-16 
    5932.97  1.32504e-16 
    5934.72  1.30975e-16 
    5936.48  1.29248e-16 
    5938.23  1.29665e-16 
    5939.99   1.2954e-16 
    5941.75  1.27952e-16 
     5943.5  1.29356e-16 
    5945.26  1.29356e-16 
    5947.01  1.29556e-16 
    5948.77  1.27141e-16 
    5950.52  1.27059e-16 
    5952.28  1.26795e-16 
    5954.03  1.28833e-16 
    5955.79  1.33074e-16 
    5957.55  1.38539e-16 
     5959.3  1.41534e-16 
    5961.06  1.36831e-16 
    5962.81  1.33302e-16 
    5964.57  1.34316e-16 
    5966.32  1.37866e-16 
    5968.08  1.38349e-16 
    5969.83  1.36779e-16 
    5971.59  1.37001e-16 
    5973.35  1.38929e-16 
     5975.1  1.42844e-16 
    5976.86  1.43405e-16 
    5978.61  1.39941e-16 
    5980.37  1.37324e-16 
    5982.12  1.36754e-16 
    5983.88  1.37923e-16 
    5985.63  1.38798e-16 
    5987.39  1.39227e-16 
    5989.15  1.36006e-16 
     5990.9  1.34383e-16 
    5992.66   1.3041e-16 
    5994.41  1.31494e-16 
    5996.17  1.30563e-16 
    5997.92  1.28798e-16 
    5999.68  1.29729e-16 
    6001.43  1.29616e-16 
    6003.19  1.33055e-16 
    6004.95  1.31836e-16 
     6006.7  1.28786e-16 
    6008.46  1.28572e-16 
    6010.21  1.30605e-16 
    6011.97  1.35303e-16 
    6013.72  1.35238e-16 
    6015.48  1.31411e-16 
    6017.23  1.30493e-16 
    6018.99  1.30917e-16 
    6020.75  1.35319e-16 
     6022.5  1.34883e-16 
    6024.26  1.34371e-16 
    6026.01  1.34807e-16 
    6027.77  1.36091e-16 
    6029.52  1.36892e-16 
    6031.28  1.35171e-16 
    6033.04  1.31179e-16 
    6034.79  1.30396e-16 
    6036.55  1.32044e-16 
     6038.3  1.31008e-16 
    6040.06  1.26841e-16 
    6041.81  1.25493e-16 
    6043.57  1.30117e-16 
    6045.32  1.36122e-16 
    6047.08  1.38838e-16 
    6048.84  1.37533e-16 
    6050.59  1.35767e-16 
    6052.35  1.33957e-16 
     6054.1  1.35082e-16 
    6055.86  1.33758e-16 
    6057.61  1.35084e-16 
    6059.37  1.37283e-16 
    6061.12  1.42276e-16 
    6062.88  1.43624e-16 
    6064.64  1.39008e-16 
    6066.39   1.3686e-16 
    6068.15  1.35837e-16 
     6069.9  1.41652e-16 
    6071.66  1.43607e-16 
    6073.41  1.48131e-16 
    6075.17  1.43784e-16 
    6076.92  1.42001e-16 
    6078.68  1.38226e-16 
    6080.44  1.40164e-16 
    6082.19  1.41136e-16 
    6083.95  1.37556e-16 
     6085.7  1.38174e-16 
    6087.46  1.45179e-16 
    6089.21  1.43764e-16 
    6090.97  1.33487e-16 
    6092.72  1.15934e-16 
    6094.48  1.09084e-16 
    6096.24  1.07941e-16 
    6097.99  1.04169e-16 
    6099.75  1.01403e-16 
     6101.5  9.76449e-17 
    6103.26  1.02908e-16 
    6105.01  1.11007e-16 
    6106.77  1.17102e-16 
    6108.52  1.17531e-16 
    6110.28  1.16558e-16 
    6112.04  1.17595e-16 
    6113.79  1.18295e-16 
    6115.55  1.15403e-16 
     6117.3  1.10601e-16 
    6119.06  1.06374e-16 
    6120.81  1.04442e-16 
    6122.57  1.03943e-16 
    6124.32  1.04646e-16 
    6126.08  1.05034e-16 
    6127.84  1.09341e-16 
    6129.59  1.12955e-16 
    6131.35   1.1203e-16 
     6133.1  1.07442e-16 
    6134.86  1.01066e-16 
    6136.61  1.01928e-16 
    6138.37  1.04355e-16 
    6140.12  1.08198e-16 
    6141.88  1.12035e-16 
    6143.64    1.154e-16 
    6145.39  1.19423e-16 
    6147.15  1.16685e-16 
     6148.9  1.13118e-16 
    6150.66  1.10231e-16 
    6152.41  1.12426e-16 
    6154.17  1.12581e-16 
    6155.92  1.12852e-16 
    6157.68  1.11838e-16 
    6159.44  1.17513e-16 
    6161.19  1.17765e-16 
    6162.95  1.17168e-16 
     6164.7  1.06709e-16 
    6166.46  1.09909e-16 
    6168.21  1.14308e-16 
    6169.97  1.23297e-16 
    6171.72  1.21206e-16 
    6173.48  1.15353e-16 
    6175.24  1.14848e-16 
    6176.99  1.18939e-16 
    6178.75  1.23074e-16 
     6180.5  1.22583e-16 
    6182.26  1.23385e-16 
    6184.01  1.22675e-16 
    6185.77  1.21519e-16 
    6187.53  1.15073e-16 
    6189.28  1.13615e-16 
    6191.04  1.14004e-16 
    6192.79  1.13041e-16 
    6194.55  1.12716e-16 
     6196.3  1.15145e-16 
    6198.06   1.1805e-16 
    6199.81  1.18982e-16 
    6201.57     1.17e-16 
    6203.33  1.14315e-16 
    6205.08  1.12147e-16 
    6206.84  1.13376e-16 
    6208.59  1.18219e-16 
    6210.35  1.20243e-16 
     6212.1  1.16765e-16 
    6213.86  1.10125e-16 
    6215.61  1.09193e-16 
    6217.37  1.13134e-16 
    6219.13  1.16404e-16 
    6220.88  1.18545e-16 
    6222.64  1.21297e-16 
    6224.39  1.26455e-16 
    6226.15  1.25709e-16 
     6227.9  1.16867e-16 
    6229.66  1.08725e-16 
    6231.41  1.10454e-16 
    6233.17  1.16498e-16 
    6234.93  1.19727e-16 
    6236.68  1.16173e-16 
    6238.44  1.14791e-16 
    6240.19  1.13637e-16 
    6241.95   1.1478e-16 
     6243.7  1.16505e-16 
    6245.46  1.20292e-16 
    6247.21  1.21315e-16 
    6248.97  1.18265e-16 
    6250.73  1.17078e-16 
    6252.48  1.19302e-16 
    6254.24  1.18753e-16 
    6255.99  1.20295e-16 
    6257.75   1.2024e-16 
     6259.5  1.20281e-16 
    6261.26  1.17933e-16 
    6263.01  1.18715e-16 
    6264.77  1.25924e-16 
    6266.53  1.30472e-16 
    6268.28  1.28037e-16 
    6270.04  1.21776e-16 
    6271.79  1.22762e-16 
    6273.55  1.23031e-16 
     6275.3  1.22908e-16 
    6277.06  1.15753e-16 
    6278.81  1.18864e-16 
    6280.57  1.24307e-16 
    6282.33  1.26469e-16 
    6284.08  1.24237e-16 
    6285.84  1.23868e-16 
    6287.59  1.27512e-16 
    6289.35  1.31795e-16 
     6291.1  1.33989e-16 
    6292.86  1.36158e-16 
    6294.61  1.38197e-16 
    6296.37  1.38805e-16 
    6298.13  1.36551e-16 
    6299.88  1.31279e-16 
    6301.64  1.28264e-16 
    6303.39  1.27659e-16 
    6305.15  1.26307e-16 
     6306.9  1.23216e-16 
    6308.66     1.25e-16 
    6310.41   1.3417e-16 
    6312.17   1.4272e-16 
    6313.93  1.46894e-16 
    6315.68  1.44725e-16 
    6317.44  1.43933e-16 
    6319.19  1.43992e-16 
    6320.95  1.46069e-16 
     6322.7   1.4869e-16 
    6324.46  1.47429e-16 
    6326.22   1.4804e-16 
    6327.97  1.43746e-16 
    6329.73  1.41185e-16 
    6331.48  1.36913e-16 
    6333.24  1.41582e-16 
    6334.99  1.51522e-16 
    6336.75  1.56093e-16 
     6338.5  1.52272e-16 
    6340.26  1.47292e-16 
    6342.02  1.46504e-16 
    6343.77  1.46183e-16 
    6345.53  1.45148e-16 
    6347.28  1.47513e-16 
    6349.04  1.49883e-16 
    6350.79  1.50564e-16 
    6352.55  1.49441e-16 
     6354.3  1.49663e-16 
    6356.06  1.47064e-16 
    6357.82  1.44189e-16 
    6359.57   1.4086e-16 
    6361.33  1.35639e-16 
    6363.08  1.33961e-16 
    6364.84   1.3079e-16 
    6366.59  1.34655e-16 
    6368.35  1.31901e-16 
     6370.1  1.31427e-16 
    6371.86  1.33863e-16 
    6373.62  1.34472e-16 
    6375.37  1.38933e-16 
    6377.13  1.39332e-16 
    6378.88  1.41702e-16 
    6380.64  1.40772e-16 
    6382.39   1.3666e-16 
    6384.15  1.35772e-16 
     6385.9   1.3501e-16 
    6387.66  1.33233e-16 
    6389.42  1.32333e-16 
    6391.17  1.34865e-16 
    6392.93  1.40991e-16 
    6394.68  1.47789e-16 
    6396.44  1.53515e-16 
    6398.19  1.53687e-16 
    6399.95  1.47807e-16 
     6401.7  1.44228e-16 
    6403.46  1.46618e-16 
    6405.22  1.52999e-16 
    6406.97  1.55812e-16 
    6408.73  1.62192e-16 
    6410.48  1.63302e-16 
    6412.24  1.61743e-16 
    6413.99  1.56523e-16 
    6415.75  1.53706e-16 
     6417.5  1.48559e-16 
    6419.26  1.41487e-16 
    6421.02  1.40133e-16 
    6422.77  1.41639e-16 
    6424.53  1.47489e-16 
    6426.28  1.47328e-16 
    6428.04  1.49698e-16 
    6429.79  1.44861e-16 
    6431.55  1.48986e-16 
     6433.3  1.50026e-16 
    6435.06  1.49464e-16 
    6436.82  1.40277e-16 
    6438.57  1.39067e-16 
    6440.33  1.40093e-16 
    6442.08  1.41935e-16 
    6443.84  1.35305e-16 
    6445.59  1.28961e-16 
    6447.35  1.31603e-16 
     6449.1  1.37869e-16 
    6450.86  1.45336e-16 
    6452.62  1.43003e-16 
    6454.37  1.36338e-16 
    6456.13  1.34422e-16 
    6457.88   1.3525e-16 
    6459.64  1.39131e-16 
    6461.39   1.4168e-16 
    6463.15   1.4037e-16 
    6464.91  1.41236e-16 
    6466.66  1.41423e-16 
    6468.42  1.42992e-16 
    6470.17  1.41794e-16 
    6471.93  1.38252e-16 
    6473.68  1.38429e-16 
    6475.44  1.40564e-16 
    6477.19  1.43628e-16 
    6478.95  1.41756e-16 
    6480.71  1.37718e-16 
    6482.46  1.39668e-16 
    6484.22  1.42519e-16 
    6485.97  1.42431e-16 
    6487.73  1.42282e-16 
    6489.48   1.4556e-16 
    6491.24  1.49171e-16 
    6492.99  1.52193e-16 
    6494.75  1.54009e-16 
    6496.51  1.53728e-16 
    6498.26  1.50938e-16 
    6500.02  1.48986e-16 
    6501.77  1.47392e-16 
    6503.53  1.45865e-16 
    6505.28  1.40706e-16 
    6507.04  1.40374e-16 
    6508.79  1.43494e-16 
    6510.55  1.52535e-16 
    6512.31  1.60104e-16 
    6514.06  1.58272e-16 
    6515.82  1.54143e-16 
    6517.57  1.56742e-16 
    6519.33  1.58583e-16 
    6521.08  1.60501e-16 
    6522.84  1.52954e-16 
    6524.59   1.5121e-16 
    6526.35  1.55023e-16 
    6528.11   1.5989e-16 
    6529.86   1.5874e-16 
    6531.62    1.485e-16 
    6533.37  1.44433e-16 
    6535.13  1.42879e-16 
    6536.88  1.47352e-16 
    6538.64  1.44334e-16 
    6540.39  1.43844e-16 
    6542.15  1.40705e-16 
    6543.91  1.38784e-16 
    6545.66  1.40164e-16 
    6547.42  1.43751e-16 
    6549.17  1.46748e-16 
    6550.93  1.44876e-16 
    6552.68  1.43546e-16 
    6554.44  1.46733e-16 
    6556.19  1.50754e-16 
    6557.95   1.5329e-16 
    6559.71  1.52505e-16 
    6561.46   1.4876e-16 
    6563.22  1.45234e-16 
    6564.97  1.49369e-16 
    6566.73  1.59508e-16 
    6568.48   1.6009e-16 
    6570.24  1.51641e-16 
    6571.99  1.42994e-16 
    6573.75  1.38788e-16 
    6575.51  1.39189e-16 
    6577.26  1.36045e-16 
    6579.02  1.32331e-16 
    6580.77  1.29352e-16 
    6582.53  1.31233e-16 
    6584.28  1.33196e-16 
    6586.04   1.3786e-16 
    6587.79  1.39386e-16 
    6589.55   1.4194e-16 
    6591.31  1.43956e-16 
    6593.06  1.39094e-16 
    6594.82  1.39939e-16 
    6596.57   1.3803e-16 
    6598.33  1.39507e-16 
    6600.08  1.35879e-16 
    6601.84  1.34346e-16 
    6603.59  1.34991e-16 
    6605.35  1.39101e-16 
    6607.11  1.38603e-16 
    6608.86  1.34771e-16 
    6610.62  1.32139e-16 
    6612.37  1.31627e-16 
    6614.13  1.40588e-16 
    6615.88  1.45601e-16 
    6617.64  1.53084e-16 
     6619.4    1.535e-16 
    6621.15  1.54785e-16 
    6622.91  1.49375e-16 
    6624.66  1.44742e-16 
    6626.42  1.36083e-16 
    6628.17     1.31e-16 
    6629.93  1.28934e-16 
    6631.68  1.31045e-16 
    6633.44  1.36346e-16 
     6635.2  1.36485e-16 
    6636.95  1.34451e-16 
    6638.71  1.36599e-16 
    6640.46  1.40811e-16 
    6642.22  1.44572e-16 
    6643.97  1.41393e-16 
    6645.73  1.36388e-16 
    6647.48  1.36043e-16 
    6649.24  1.36909e-16 
     6651.0  1.38269e-16 
    6652.75  1.32295e-16 
    6654.51  1.24122e-16 
    6656.26  1.22681e-16 
    6658.02  1.25038e-16 
    6659.77  1.30897e-16 
    6661.53  1.31369e-16 
    6663.28  1.29992e-16 
    6665.04  1.27673e-16 
     6666.8  1.31827e-16 
    6668.55  1.36086e-16 
    6670.31  1.36732e-16 
    6672.06  1.36383e-16 
    6673.82  1.33165e-16 
    6675.57  1.32503e-16 
    6677.33  1.29087e-16 
    6679.08  1.26757e-16 
    6680.84   1.2503e-16 
     6682.6  1.21308e-16 
    6684.35  1.24187e-16 
    6686.11   1.2457e-16 
    6687.86  1.22527e-16 
    6689.62  1.19684e-16 
    6691.37  1.18641e-16 
    6693.13  1.17945e-16 
    6694.88  1.19528e-16 
    6696.64  1.22694e-16 
     6698.4  1.28167e-16 
    6700.15  1.25633e-16 
    6701.91  1.24567e-16 
    6703.66  1.27977e-16 
    6705.42  1.32701e-16 
    6707.17  1.33601e-16 
    6708.93  1.32225e-16 
    6710.68  1.27839e-16 
    6712.44  1.20382e-16 
     6714.2   1.1218e-16 
    6715.95  1.15365e-16 
    6717.71  1.23618e-16 
    6719.46  1.22845e-16 
    6721.22  1.18045e-16 
    6722.97  1.16273e-16 
    6724.73  1.20697e-16 
    6726.48  1.24181e-16 
    6728.24  1.25796e-16 
     6730.0  1.25606e-16 
    6731.75  1.21826e-16 
    6733.51   1.1091e-16 
    6735.26  1.01513e-16 
    6737.02  9.64272e-17 
    6738.77   8.5229e-17 
    6740.53  6.62668e-17 
    6742.28  4.37424e-17 
    6744.04  3.05905e-17 
     6745.8  2.74932e-17 
    6747.55  2.56112e-17 
    6749.31  2.47343e-17 
    6751.06  2.52911e-17 
    6752.82  3.08487e-17 
    6754.57  4.53224e-17 
    6756.33  5.42132e-17 
    6758.09   6.6206e-17 
    6759.84   7.2379e-17 
     6761.6  7.97354e-17 
    6763.35  7.39656e-17 
    6765.11  6.43563e-17 
    6766.86  5.81913e-17 
    6768.62  6.03657e-17 
    6770.37  6.23297e-17 
    6772.13  5.83769e-17 
    6773.89  5.53744e-17 
    6775.64  6.04233e-17 
     6777.4   6.7249e-17 
    6779.15  6.91917e-17 
    6780.91  6.77597e-17 
    6782.66  7.12802e-17 
    6784.42  7.49215e-17 
    6786.17  7.62057e-17 
    6787.93  7.83294e-17 
    6789.69  8.17907e-17 
    6791.44  8.41616e-17 
     6793.2   8.8695e-17 
    6794.95   9.1571e-17 
    6796.71  9.53978e-17 
    6798.46  9.66726e-17 
    6800.22  1.02533e-16 
    6801.97  1.01686e-16 
    6803.73   9.8615e-17 
    6805.49  9.89115e-17 
    6807.24  1.07665e-16 
     6809.0  1.10605e-16 
    6810.75  1.08722e-16 
    6812.51  1.02826e-16 
    6814.26  9.74923e-17 
    6816.02  9.61626e-17 
    6817.77  9.98345e-17 
    6819.53  1.05863e-16 
    6821.29  1.06176e-16 
    6823.04  1.03557e-16 
     6824.8  1.04353e-16 
    6826.55  1.08314e-16 
    6828.31  1.07933e-16 
    6830.06  1.03903e-16 
    6831.82  1.03609e-16 
    6833.57  1.07349e-16 
    6835.33  1.11187e-16 
    6837.09   1.1155e-16 
    6838.84  1.13622e-16 
     6840.6  1.11787e-16 
    6842.35  1.09362e-16 
    6844.11  1.09239e-16 
    6845.86  1.14199e-16 
    6847.62  1.10931e-16 
    6849.37  1.05825e-16 
    6851.13  1.06903e-16 
    6852.89  1.12102e-16 
    6854.64  1.13106e-16 
     6856.4  1.05345e-16 
    6858.15  1.06076e-16 
    6859.91  1.06542e-16 
    6861.66  1.09636e-16 
    6863.42  1.09896e-16 
    6865.17  1.15385e-16 
    6866.93  1.16329e-16 
    6868.69  1.14496e-16 
    6870.44  1.10247e-16 
     6872.2  1.11753e-16 
    6873.95  1.17072e-16 
    6875.71  1.12398e-16 
    6877.46  1.06706e-16 
    6879.22  1.04645e-16 
    6880.97  1.09338e-16 
    6882.73  1.14832e-16 
    6884.49  1.11864e-16 
    6886.24  1.10138e-16 
     6888.0  1.11572e-16 
    6889.75  1.12835e-16 
    6891.51   1.0857e-16 
    6893.26  1.07554e-16 
    6895.02  1.14795e-16 
    6896.77  1.13805e-16 
    6898.53  1.11995e-16 
    6900.29  1.13414e-16 
    6902.04  1.23954e-16 
     6903.8  1.27819e-16 
    6905.55  1.17823e-16 
    6907.31  1.11691e-16 
    6909.06  1.06513e-16 
    6910.82   1.0385e-16 
    6912.58  1.07519e-16 
    6914.33  1.11613e-16 
    6916.09  1.10852e-16 
    6917.84  1.05281e-16 
     6919.6  1.04512e-16 
    6921.35  1.10026e-16 
    6923.11  1.13274e-16 
    6924.86  1.08954e-16 
    6926.62  1.02235e-16 
    6928.38  9.82797e-17 
    6930.13  1.01272e-16 
    6931.89  1.07375e-16 
    6933.64  1.10043e-16 
     6935.4  1.01684e-16 
    6937.15  8.91519e-17 
    6938.91  9.04847e-17 
    6940.66  9.75052e-17 
    6942.42  1.01472e-16 
    6944.18  9.27746e-17 
    6945.93  8.96899e-17 
    6947.69  8.88372e-17 
    6949.44  8.82598e-17 
     6951.2  8.99687e-17 
    6952.95  9.55551e-17 
    6954.71  9.88311e-17 
    6956.46  9.51553e-17 
    6958.22  9.69639e-17 
    6959.98  9.92604e-17 
    6961.73  9.78803e-17 
    6963.49  9.51985e-17 
    6965.24  9.66628e-17 
     6967.0  1.00405e-16 
    6968.75  1.00842e-16 
    6970.51  1.03294e-16 
    6972.26  1.03975e-16 
    6974.02  1.04381e-16 
    6975.78  1.06237e-16 
    6977.53  1.06987e-16 
    6979.29  1.08976e-16 
    6981.04   1.0506e-16 
     6982.8   1.0637e-16 
    6984.55  9.71791e-17 
    6986.31  9.15074e-17 
    6988.06  8.67088e-17 
    6989.82  8.80839e-17 
    6991.58  8.79651e-17 
    6993.33  8.86523e-17 
    6995.09  9.67661e-17 
    6996.84  1.04376e-16 
     6998.6  1.09847e-16 
    7000.35  1.10717e-16 
    7002.11  1.07874e-16 
    7003.86  1.05239e-16 
    7005.62  1.01018e-16 
    7007.38  1.03251e-16 
    7009.13  1.08147e-16 
    7010.89  1.10004e-16 
    7012.64  1.10006e-16 
     7014.4   1.0475e-16 
    7016.15  1.01622e-16 
    7017.91  9.38536e-17 
    7019.66  8.64277e-17 
    7021.42  8.59356e-17 
    7023.18  9.34772e-17 
    7024.93  1.07056e-16 
    7026.69  1.06746e-16 
    7028.44   1.0076e-16 
     7030.2  9.25783e-17 
    7031.95  8.75318e-17 
    7033.71  9.14065e-17 
    7035.46  8.84962e-17 
    7037.22  9.38074e-17 
    7038.98  9.65475e-17 
    7040.73  1.03831e-16 
    7042.49  1.04752e-16 
    7044.24  9.95617e-17 
     7046.0  9.66806e-17 
    7047.75  9.89799e-17 
    7049.51  1.05478e-16 
    7051.27  1.05755e-16 
    7053.02  1.04519e-16 
    7054.78  9.71372e-17 
    7056.53  9.86089e-17 
    7058.29  9.61179e-17 
    7060.04  1.02378e-16 
     7061.8  1.00891e-16 
    7063.55  9.83583e-17 
    7065.31   9.4883e-17 
    7067.07  9.72251e-17 
    7068.82  1.00549e-16 
    7070.58  9.93675e-17 
    7072.33  1.00133e-16 
    7074.09  1.08293e-16 
    7075.84  1.10136e-16 
     7077.6  9.91078e-17 
    7079.35  8.95503e-17 
    7081.11  8.48951e-17 
    7082.87  8.97196e-17 
    7084.62  9.63877e-17 
    7086.38  1.03497e-16 
    7088.13  1.06608e-16 
    7089.89  9.55003e-17 
    7091.64  9.07346e-17 
     7093.4  9.59898e-17 
    7095.15  1.05547e-16 
    7096.91  1.09986e-16 
    7098.67  1.05296e-16 
    7100.42  1.03757e-16 
    7102.18  1.04994e-16 
    7103.93  1.06732e-16 
    7105.69  1.09675e-16 
    7107.44  1.07447e-16 
     7109.2  1.03965e-16 
    7110.95  1.01492e-16 
    7112.71  9.76745e-17 
    7114.47  1.02147e-16 
    7116.22   1.0801e-16 
    7117.98    1.138e-16 
    7119.73  1.10271e-16 
    7121.49  1.02784e-16 
    7123.24   1.0497e-16 
     7125.0  1.05729e-16 
    7126.75  1.03041e-16 
    7128.51  1.00503e-16 
    7130.27  1.02453e-16 
    7132.02  1.07253e-16 
    7133.78  1.04024e-16 
    7135.53  9.84803e-17 
    7137.29  9.55696e-17 
    7139.04  9.54661e-17 
     7140.8  9.75445e-17 
    7142.55  9.75351e-17 
    7144.31  9.48986e-17 
    7146.07  8.78085e-17 
    7147.82  9.42203e-17 
    7149.58  1.00192e-16 
    7151.33   1.0588e-16 
    7153.09  1.00805e-16 
    7154.84  1.00267e-16 
     7156.6  1.02225e-16 
    7158.35  1.03891e-16 
    7160.11  1.02201e-16 
    7161.87  1.05457e-16 
    7163.62  1.06522e-16 
    7165.38  1.04549e-16 
    7167.13  1.04319e-16 
    7168.89  1.02692e-16 
    7170.64  1.00692e-16 
     7172.4  9.35522e-17 
    7174.15  9.04835e-17 
    7175.91  9.82631e-17 
    7177.67  1.03476e-16 
    7179.42  1.03281e-16 
    7181.18  9.54937e-17 
    7182.93  9.76184e-17 
    7184.69  1.00606e-16 
    7186.44  1.00645e-16 
     7188.2  9.97978e-17 
    7189.96  9.87228e-17 
    7191.71  9.95875e-17 
    7193.47  9.73797e-17 
    7195.22  9.81931e-17 
    7196.98  1.01203e-16 
    7198.73  9.90124e-17 
    7200.49  9.23911e-17 
    7202.24  8.85194e-17 
     7204.0  8.95581e-17 
    7205.76  9.50703e-17 
    7207.51  1.03418e-16 
    7209.27  1.05746e-16 
    7211.02  1.01126e-16 
    7212.78  8.94285e-17 
    7214.53   7.9941e-17 
    7216.29  7.92422e-17 
    7218.04  8.46825e-17 
     7219.8  8.99134e-17 
    7221.56  9.87486e-17 
    7223.31  9.79876e-17 
    7225.07   9.3861e-17 
    7226.82   8.4695e-17 
    7228.58  8.23643e-17 
    7230.33  8.52246e-17 
    7232.09  8.86269e-17 
    7233.84  8.63791e-17 
     7235.6   8.4223e-17 
    7237.36  7.94445e-17 
    7239.11  8.15775e-17 
    7240.87  8.67282e-17 
    7242.62    8.663e-17 
    7244.38  8.52466e-17 
    7246.13  8.18295e-17 
    7247.89   8.2568e-17 
    7249.64  8.19992e-17 
     7251.4  7.92093e-17 
    7253.16   8.1675e-17 
    7254.91  8.65024e-17 
    7256.67   9.1793e-17 
    7258.42   9.3365e-17 
    7260.18  9.40212e-17 
    7261.93  9.33773e-17 
    7263.69  9.35432e-17 
    7265.44  9.03466e-17 
     7267.2  9.34784e-17 
    7268.96  9.36937e-17 
    7270.71  9.52851e-17 
    7272.47  9.32432e-17 
    7274.22  8.99951e-17 
    7275.98  9.33651e-17 
    7277.73  9.46264e-17 
    7279.49  1.00168e-16 
    7281.24  1.01063e-16 
     7283.0  1.01704e-16 
    7284.76  1.03169e-16 
    7286.51  1.03938e-16 
    7288.27  1.08951e-16 
    7290.02  1.06811e-16 
    7291.78  9.74036e-17 
    7293.53  8.65664e-17 
    7295.29  8.20703e-17 
    7297.04   8.3626e-17 
     7298.8   8.0293e-17 
    7300.56  7.34363e-17 
    7302.31  7.21625e-17 
    7304.07  7.96567e-17 
    7305.82  8.87485e-17 
    7307.58  9.29305e-17 
    7309.33  9.07724e-17 
    7311.09  8.53665e-17 
    7312.84  8.21562e-17 
     7314.6  8.32482e-17 
    7316.36  9.03675e-17 
    7318.11  1.03096e-16 
    7319.87  1.03573e-16 
    7321.62  1.01248e-16 
    7323.38  9.05854e-17 
    7325.13  9.52112e-17 
    7326.89  9.83733e-17 
    7328.64  1.03366e-16 
     7330.4  1.03222e-16 
    7332.16  1.07068e-16 
    7333.91  1.09122e-16 
    7335.67  1.05921e-16 
    7337.42  9.68079e-17 
    7339.18  9.63197e-17 
    7340.93  9.76133e-17 
    7342.69  9.84456e-17 
    7344.45  9.14893e-17 
     7346.2  8.89042e-17 
    7347.96  9.01806e-17 
    7349.71  9.13961e-17 
    7351.47  8.34087e-17 
    7353.22  8.73073e-17 
    7354.98  9.43741e-17 
    7356.73  1.00001e-16 
    7358.49  9.35481e-17 
    7360.25  8.38277e-17 
     7362.0  8.68108e-17 
    7363.76  8.76914e-17 
    7365.51   9.5769e-17 
    7367.27  9.83517e-17 
    7369.02  9.81445e-17 
    7370.78  9.61833e-17 
    7372.53  9.13485e-17 
    7374.29  9.48382e-17 
    7376.05  9.60171e-17 
     7377.8  9.75539e-17 
    7379.56  1.01445e-16 
    7381.31  9.85479e-17 
    7383.07  9.07669e-17 
    7384.82  8.38107e-17 
    7386.58   8.5988e-17 
    7388.33  9.57576e-17 
    7390.09  9.90323e-17 
    7391.85  9.25546e-17 
     7393.6  9.17864e-17 
    7395.36  9.45774e-17 
    7397.11  9.60894e-17 
    7398.87  9.22201e-17 
    7400.62  8.81634e-17 
    7402.38  8.45521e-17 
    7404.13  9.22904e-17 
    7405.89  1.01984e-16 
    7407.65   1.0888e-16 
     7409.4  1.02996e-16 
    7411.16  9.14411e-17 
    7412.91  8.67889e-17 
    7414.67  8.25138e-17 
    7416.42  8.07372e-17 
    7418.18  7.90685e-17 
    7419.93  8.11948e-17 
    7421.69  8.29796e-17 
    7423.45   8.2541e-17 
     7425.2  8.26038e-17 
    7426.96  8.40604e-17 
    7428.71  8.69929e-17 
    7430.47  8.72663e-17 
    7432.22  8.67457e-17 
    7433.98  8.48295e-17 
    7435.73  8.57412e-17 
    7437.49  8.78794e-17 
    7439.25  9.11844e-17 
     7441.0   9.0284e-17 
    7442.76  8.88099e-17 
    7444.51   8.4301e-17 
    7446.27  8.34091e-17 
    7448.02  8.56696e-17 
    7449.78  9.35335e-17 
    7451.53  8.89369e-17 
    7453.29  7.22231e-17 
    7455.05  6.20379e-17 
     7456.8  6.49132e-17 
    7458.56  7.18354e-17 
    7460.31  6.92576e-17 
    7462.07  6.99133e-17 
    7463.82  7.41155e-17 
    7465.58  8.01896e-17 
    7467.33  7.23297e-17 
    7469.09  6.79863e-17 
    7470.85  6.20852e-17 
     7472.6  6.52822e-17 
    7474.36  6.10147e-17 
    7476.11  5.89704e-17 
    7477.87  5.45931e-17 
    7479.62  5.66785e-17 
    7481.38  6.22934e-17 
    7483.14  6.55538e-17 
    7484.89  6.82705e-17 
    7486.65  6.88705e-17 
     7488.4  6.44118e-17 
    7490.16  5.96576e-17 
    7491.91  5.63776e-17 
    7493.67  5.48086e-17 
    7495.42  5.48507e-17 
    7497.18  5.12689e-17 
    7498.94  5.83777e-17 
    7500.69  5.61959e-17 
    7502.45  6.15477e-17 
     7504.2  6.28013e-17 
    7505.96  6.20525e-17 
    7507.71  5.61435e-17 
    7509.47  5.41015e-17 
    7511.22  6.63256e-17 
    7512.98   7.5235e-17 
    7514.74  7.81932e-17 
    7516.49    7.088e-17 
    7518.25  6.58916e-17 
     7520.0  6.07139e-17 
    7521.76   5.8839e-17 
    7523.51  6.05597e-17 
    7525.27  6.35087e-17 
    7527.02  7.05337e-17 
    7528.78  7.02022e-17 
    7530.54  7.08622e-17 
    7532.29   6.8294e-17 
    7534.05   6.6164e-17 
     7535.8   6.8149e-17 
    7537.56  6.57251e-17 
    7539.31  6.37759e-17 
    7541.07  5.45011e-17 
    7542.82  5.25757e-17 
    7544.58   6.0358e-17 
    7546.34  6.38862e-17 
    7548.09  6.52386e-17 
    7549.85  6.40954e-17 
     7551.6  6.67362e-17 
    7553.36    6.898e-17 
    7555.11  6.45682e-17 
    7556.87  6.38237e-17 
    7558.62   6.3414e-17 
    7560.38  6.28902e-17 
    7562.14  6.12207e-17 
    7563.89  6.06506e-17 
    7565.65  6.12551e-17 
     7567.4  6.35451e-17 
    7569.16  6.32892e-17 
    7570.91  5.95074e-17 
    7572.67  5.64192e-17 
    7574.42  5.74892e-17 
    7576.18  6.10277e-17 
    7577.94   6.0855e-17 
    7579.69  5.68043e-17 
    7581.45  5.83315e-17 
     7583.2  6.42253e-17 
    7584.96  6.54943e-17 
    7586.71  6.42476e-17 
    7588.47  6.09513e-17 
    7590.22  6.06243e-17 
    7591.98  6.38505e-17 
    7593.74  6.64914e-17 
    7595.49  6.68429e-17 
    7597.25   6.1742e-17 
     7599.0  6.42512e-17 
    7600.76  6.84359e-17 
    7602.51  7.26891e-17 
    7604.27  6.77826e-17 
    7606.02   6.8323e-17 
    7607.78  6.49004e-17 
    7609.54  6.16491e-17 
    7611.29  6.01793e-17 
    7613.05  6.34906e-17 
     7614.8   6.5365e-17 
    7616.56  6.38628e-17 
    7618.31  6.00534e-17 
    7620.07  6.32562e-17 
    7621.83  6.69269e-17 
    7623.58  6.86282e-17 
    7625.34  6.83763e-17 
    7627.09  6.50506e-17 
    7628.85  6.46178e-17 
     7630.6  6.35401e-17 
    7632.36  6.38122e-17 
    7634.11  6.39029e-17 
    7635.87  6.40843e-17 
    7637.63  6.40843e-17 
    7639.38  6.42657e-17 
    7641.14   6.4812e-17 
    7642.89  6.50862e-17 
    7644.65  6.56325e-17 
     7646.4  6.60859e-17 
    7648.16  6.69929e-17 
    7649.91  7.14262e-17 
    7651.67  7.36131e-17 
    7653.43  7.06726e-17 
    7655.18  6.56251e-17 
    7656.94  6.43068e-17 
    7658.69  7.08111e-17 
    7660.45  7.61509e-17 
     7662.2   7.5068e-17 
    7663.96  7.25482e-17 
    7665.71  7.23062e-17 
    7667.47  7.49558e-17 
    7669.23  7.85232e-17 
    7670.98  7.69707e-17 
    7672.74  7.16872e-17 
    7674.49  7.07753e-17 
    7676.25  7.24466e-17 
     7678.0  7.21716e-17 
    7679.76  6.32852e-17 
    7681.51  5.86882e-17 
    7683.27  6.54399e-17 
    7685.03  7.67831e-17 
    7686.78   8.5464e-17 
    7688.54  8.85714e-17 
    7690.29  8.85601e-17 
    7692.05  8.89624e-17 
     7693.8   8.2396e-17 
    7695.56  7.89914e-17 
    7697.31  7.61712e-17 
    7699.07  8.31745e-17 
    7700.83  8.77886e-17 
    7702.58  8.52775e-17 
    7704.34  8.33135e-17 
    7706.09   8.3153e-17 
    7707.85  8.50001e-17 
     7709.6  8.63278e-17 
    7711.36  8.27968e-17 
    7713.11  8.71803e-17 
    7714.87  8.73499e-17 
    7716.63  8.55402e-17 
    7718.38  7.97188e-17 
    7720.14  7.66416e-17 
    7721.89  8.05136e-17 
    7723.65  8.50885e-17 
     7725.4  9.04557e-17 
    7727.16  8.86997e-17 
    7728.91  7.92696e-17 
    7730.67  8.09256e-17 
    7732.43  8.39477e-17 
    7734.18  9.14817e-17 
    7735.94  8.68617e-17 
    7737.69  8.53708e-17 
    7739.45   8.7796e-17 
     7741.2  8.85522e-17 
    7742.96  9.17189e-17 
    7744.71   9.7852e-17 
    7746.47  1.04359e-16 
    7748.23    1.069e-16 
    7749.98  9.88196e-17 
    7751.74  9.09084e-17 
    7753.49  8.50791e-17 
    7755.25  9.02078e-17 
     7757.0  9.48542e-17 
    7758.76  9.69522e-17 
    7760.51  9.71346e-17 
    7762.27  9.27342e-17 
    7764.03  9.51021e-17 
    7765.78  9.00464e-17 
    7767.54  8.71905e-17 
    7769.29  8.47574e-17 
    7771.05  8.03541e-17 
     7772.8  8.50918e-17 
    7774.56  8.26213e-17 
    7776.32  8.89744e-17 
    7778.07  9.02617e-17 
    7779.83  8.93939e-17 
    7781.58   8.2674e-17 
    7783.34  7.82119e-17 
    7785.09  8.15467e-17 
    7786.85  8.52649e-17 
     7788.6  8.46992e-17 
    7790.36  8.19163e-17 
    7792.12  8.57863e-17 
    7793.87  9.12026e-17 
    7795.63  9.28254e-17 
    7797.38  9.32277e-17 
    7799.14   9.3909e-17 
    7800.89  9.49651e-17 
    7802.65  9.76883e-17 
     7804.4  1.03774e-16 
    7806.16  1.08508e-16 
    7807.92  1.05791e-16 
    7809.67  1.00377e-16 
    7811.43  9.92349e-17 
    7813.18  9.76137e-17 
    7814.94  9.23875e-17 
    7816.69  8.28827e-17 
    7818.45   7.5533e-17 
     7820.2  7.48427e-17 
    7821.96  7.87858e-17 
    7823.72  8.82076e-17 
    7825.47  9.23852e-17 
    7827.23  8.65815e-17 
    7828.98  7.83315e-17 
    7830.74  7.78828e-17 
    7832.49  8.67155e-17 
    7834.25  8.95374e-17 
     7836.0  8.08366e-17 
    7837.76  7.25355e-17 
    7839.52  7.26473e-17 
    7841.27  7.98463e-17 
    7843.03  8.42099e-17 
    7844.78  7.94844e-17 
    7846.54   8.0087e-17 
    7848.29  8.37897e-17 
    7850.05  9.25532e-17 
     7851.8  9.91637e-17 
    7853.56   9.7722e-17 
    7855.32  9.69813e-17 
    7857.07   8.9574e-17 
    7858.83  9.12617e-17 
    7860.58  8.98524e-17 
    7862.34  8.83469e-17 
    7864.09  8.77188e-17 
    7865.85  8.66603e-17 
     7867.6  8.64021e-17 
    7869.36  8.13419e-17 
    7871.12  8.23166e-17 
    7872.87  8.25488e-17 
    7874.63  8.11111e-17 
    7876.38  7.67473e-17 
    7878.14  6.78292e-17 
    7879.89  5.91627e-17 
    7881.65  6.03739e-17 
     7883.4  5.74661e-17 
    7885.16  6.96678e-17 
    7886.92  7.12252e-17 
    7888.67  8.84251e-17 
    7890.43  8.87992e-17 
    7892.18  8.87232e-17 
    7893.94  8.30668e-17 
    7895.69  9.01114e-17 
    7897.45  1.01437e-16 
     7899.2  9.52221e-17 
    7900.96  8.50863e-17 
    7902.72  6.70094e-17 
    7904.47  6.71365e-17 
    7906.23   6.6339e-17 
    7907.98  7.28935e-17 
    7909.74  8.36024e-17 
    7911.49   8.1619e-17 
    7913.25  8.13127e-17 
    7915.01  7.75618e-17 
    7916.76  8.43622e-17 
    7918.52  8.13207e-17 
    7920.27  8.09377e-17 
    7922.03  7.39986e-17 
    7923.78   6.9702e-17 
    7925.54  6.90615e-17 
    7927.29  7.43551e-17 
    7929.05  8.66552e-17 
    7930.81  8.74533e-17 
    7932.56  8.34953e-17 
    7934.32  7.41437e-17 
    7936.07  7.50153e-17 
    7937.83  7.36846e-17 
    7939.58  7.75948e-17 
    7941.34  7.30716e-17 
    7943.09  7.44462e-17 
    7944.85  6.85808e-17 
    7946.61  5.99361e-17 
    7948.36  5.20342e-17 
    7950.12  5.21823e-17 
    7951.87  5.56277e-17 
    7953.63  6.17241e-17 
    7955.38  6.11954e-17 
    7957.14  5.95931e-17 
    7958.89  5.75674e-17 
    7960.65  6.18627e-17 
    7962.41  7.02951e-17 
    7964.16  6.78706e-17 
    7965.92  5.96916e-17 
    7967.67  5.21778e-17 
    7969.43  5.60151e-17 
    7971.18  5.95997e-17 
    7972.94   5.6835e-17 
    7974.69  5.14297e-17 
    7976.45  4.70487e-17 
    7978.21  4.83122e-17 
    7979.96  5.02305e-17 
    7981.72  5.33316e-17 
    7983.47    6.225e-17 
    7985.23   6.7753e-17 
    7986.98   7.1544e-17 
    7988.74   6.2441e-17 
    7990.49  5.47204e-17 
    7992.25  4.50497e-17 
    7994.01  4.50579e-17 
    7995.76  4.79936e-17 
    7997.52   5.1708e-17 
    7999.27  5.49714e-17 
    8001.03  5.45938e-17 
    8002.78  5.28028e-17 
    8004.54  5.27601e-17 
    8006.29  5.46913e-17 
    8008.05  5.65957e-17 
    8009.81  5.67971e-17 
    8011.56  5.74117e-17 
    8013.32  5.90894e-17 
    8015.07  5.70929e-17 
    8016.83   5.7747e-17 
    8018.58  5.69353e-17 
    8020.34  5.12039e-17 
    8022.09  4.85203e-17 
    8023.85  5.22329e-17 
    8025.61  6.28992e-17 
    8027.36  6.89154e-17 
    8029.12  6.82678e-17 
    8030.87  6.12619e-17 
    8032.63  5.27413e-17 
    8034.38  5.08462e-17 
    8036.14  5.52314e-17 
    8037.89  5.82227e-17 
    8039.65  5.39767e-17 
    8041.41  4.80391e-17 
    8043.16  4.88784e-17 
    8044.92  4.88081e-17 
    8046.67  4.75395e-17 
    8048.43  4.42679e-17 
    8050.18   4.5805e-17 
    8051.94  5.26309e-17 
     8053.7  5.83917e-17 
    8055.45  6.10637e-17 
    8057.21  5.57835e-17 
    8058.96  4.73702e-17 
    8060.72  3.91633e-17 
    8062.47   4.2585e-17 
    8064.23  4.74728e-17 
    8065.98  5.08557e-17 
    8067.74  5.20675e-17 
     8069.5  5.29021e-17 
    8071.25  5.35805e-17 
    8073.01  4.77546e-17 
    8074.76  4.25608e-17 
    8076.52  4.20907e-17 
    8078.27   4.3576e-17 
    8080.03  4.64498e-17 
    8081.78  4.84937e-17 
    8083.54  4.78883e-17 
     8085.3  4.53115e-17 
    8087.05  4.69809e-17 
    8088.81  5.06629e-17 
    8090.56  5.32181e-17 
    8092.32  4.71298e-17 
    8094.07  4.08829e-17 
    8095.83  3.83042e-17 
    8097.58  3.90004e-17 
    8099.34  3.96252e-17 
     8101.1  3.75826e-17 
    8102.85  3.55592e-17 
    8104.61  3.29284e-17 
    8106.36  2.80599e-17 
    8108.12  2.70797e-17 
    8109.87  3.68112e-17 
    8111.63  4.83045e-17 
    8113.38  5.34444e-17 
    8115.14  4.25368e-17 
     8116.9  3.92934e-17 
    8118.65  4.48919e-17 
    8120.41  4.86051e-17 
    8122.16  4.07201e-17 
    8123.92  2.65324e-17 
    8125.67  2.69766e-17 
    8127.43  3.32469e-17 
    8129.18  4.03421e-17 
    8130.94  4.10495e-17 
     8132.7  4.37655e-17 
    8134.45  4.58707e-17 
    8136.21  4.70011e-17 
    8137.96  4.62751e-17 
    8139.72   4.0394e-17 
    8141.47  3.54823e-17 
    8143.23  3.45592e-17 
    8144.98  3.80994e-17 
    8146.74  3.97615e-17 
     8148.5  4.17728e-17 
    8150.25  4.48999e-17 
    8152.01  4.58262e-17 
    8153.76  4.11497e-17 
    8155.52  3.77497e-17 
    8157.27  4.39604e-17 
    8159.03  4.60325e-17 
    8160.78  4.96085e-17 
    8162.54  4.03413e-17 
     8164.3   2.8829e-17 
    8166.05  2.22158e-17 
    8167.81  2.60808e-17 
    8169.56  3.51413e-17 
    8171.32  3.41345e-17 
    8173.07  3.12803e-17 
    8174.83  3.43851e-17 
    8176.58  4.08342e-17 
    8178.34  4.86066e-17 
     8180.1  4.35213e-17 
    8181.85  3.92734e-17 
    8183.61  3.19064e-17 
    8185.36  3.63375e-17 
    8187.12  4.29548e-17 
    8188.87   4.7732e-17 
    8190.63  4.88349e-17 
    8192.38  4.71129e-17 
    8194.14   4.4592e-17 
     8195.9  3.75555e-17 
    8197.65  3.59415e-17 
    8199.41  3.62131e-17 
    8201.16  3.51719e-17 
    8202.92  3.22114e-17 
    8204.67  2.98657e-17 
    8206.43  3.26352e-17 
    8208.19  3.66776e-17 
    8209.94  3.41774e-17 
     8211.7  3.36538e-17 
    8213.45  3.86403e-17 
    8215.21  4.01244e-17 
    8216.96  3.74609e-17 
    8218.72   2.6957e-17 
    8220.47  2.92574e-17 
    8222.23  3.02973e-17 
    8223.99  2.78914e-17 
    8225.74  2.06282e-17 
     8227.5  1.84143e-17 
    8229.25  2.34648e-17 
    8231.01  2.39664e-17 
    8232.76   2.9638e-17 
    8234.52   2.6507e-17 
    8236.27  3.06597e-17 
    8238.03  2.43018e-17 
    8239.79   1.9307e-17 
    8241.54  2.15124e-17 
     8243.3  2.16305e-17 
    8245.05  2.45601e-17 
    8246.81  2.24317e-17 
    8248.56  2.52884e-17 
    8250.32  2.62598e-17 
    8252.07  2.54505e-17 
    8253.83  2.70452e-17 
    8255.59  3.57193e-17 
    8257.34  4.34766e-17 
     8259.1  3.44243e-17 
    8260.85  2.23249e-17 
    8262.61  1.83931e-17 
    8264.36  2.77652e-17 
    8266.12  2.94385e-17 
    8267.87  1.88296e-17 
    8269.63  9.29277e-18 
    8271.39   6.5246e-18 
    8273.14  9.61759e-18 
     8274.9  1.75687e-17 
    8276.65  1.79625e-17 
    8278.41  1.62401e-17 
    8280.16  1.31479e-17 
    8281.92  1.63334e-17 
    8283.67  1.25065e-17 
    8285.43  1.41589e-17 
    8287.19  1.28571e-17 
    8288.94  1.53575e-17 
     8290.7  1.01863e-17 
    8292.45  7.98154e-18 
    8294.21  1.63121e-17 
    8295.96  3.13957e-17 
    9300.96  1.13957e-17 
