# STATUS =
# OBJECT = PS112bqf
# TELESCOPE = MMT
# INSTRUMENT = Blue_Channel
# DATE-OBS =
# MJD = 56245.2
# EXPTIME = 3000
# AIRMASS = 1.2
# SLIT =
# DISPERSER = 300GPM
# SOURCE = 2018ApJ...852...81L
# FILTER = none
# RESOLUTION =
# FLUX_STANDARD =
# EXTINCTION_CORRECTED = True
# PHOTOMETRY_CALIBRATED =
# TELLURIC_CORRECTED =
# FLUX_UNITS =
# WAVE_UNITS = AA
# QUALITY =
# MIN_WAVE =
# MAX_WAVE =
# COMMENT = Obtained from private comm. with Lunnan
 Wavelength             Flux 
    3313.95     0.0565555021 
     3315.9     0.0292866435 
    3317.85     0.0130086811 
     3319.8     0.0426828116 
    3321.75     0.0579165407 
     3323.7     0.0177049972 
    3325.65     0.0177202318 
     3327.6     0.0250441134 
    3329.55     0.0189769063 
     3331.5     0.0297470018 
    3333.45     0.0157757998 
     3335.4     0.0160590615 
    3337.35     0.0133485673 
     3339.3     0.0145887146 
    3341.25      0.023728637 
     3343.2     0.0214746539 
    3345.15     0.0244926028 
     3347.1     0.0182452686 
    3349.05     0.0204559937 
     3351.0     0.0199093018 
    3352.95     0.0135942446 
     3354.9     0.0158228185 
    3356.85     0.0026500856 
     3358.8     0.0128277708 
    3360.75     0.0126177743 
     3362.7     0.0147072449 
    3364.65      0.062632136 
     3366.6     0.0676925927 
    3368.55     0.0250123665 
     3370.5     0.0287664775 
    3372.45     0.0312027782 
     3374.4     0.0310472995 
    3376.35     0.0370734967 
     3378.3     0.0443064682 
    3380.25     0.0217282344 
     3382.2   3.20982654e-05 
    3384.15     0.0176332183 
     3386.1    0.00723975431 
    3388.05     0.0166377779 
     3390.0     0.0531192534 
    3391.95     0.0211192574 
     3393.9    -0.0185860284 
    3395.85    -0.0016744996 
     3397.8     0.0318221711 
    3399.75      0.036030449 
     3401.7     0.0280904453 
    3403.65     0.0320166089 
     3405.6    0.00140338251 
    3407.55    0.00370284752 
     3409.5     0.0292955134 
    3411.45     0.0125064142 
     3413.4    0.00679029385 
    3415.35     0.0147414682 
     3417.3     0.0311153587 
    3419.25    0.00597353745 
     3421.2      0.010881301 
    3423.15     0.0406703502 
     3425.1     0.0482162237 
    3427.05     0.0381629057 
     3429.0     0.0551456362 
    3430.95     0.0331145935 
     3432.9     0.0322161727 
    3434.85     0.0581061505 
     3436.8     0.0136946766 
    3438.75   -0.00354737695 
     3440.7    0.00184352254 
    3442.65    0.00659610936 
     3444.6     0.0216940474 
    3446.55      0.031514667 
     3448.5     0.0406583473 
    3450.45     0.0524051525 
     3452.4     0.0353837982 
    3454.35     0.0386292525 
     3456.3     0.0522090569 
    3458.25     0.0542055555 
     3460.2     0.0202133209 
    3462.15   -0.00380468857 
     3464.1     0.0216391124 
    3466.05     0.0309348572 
     3468.0     0.0046811467 
    3469.95     0.0168528743 
     3471.9      0.039256867 
    3473.85     0.0312157497 
     3475.8     0.0506702587 
    3477.75     0.0390153341 
     3479.7     0.0110508054 
    3481.65     0.0292294715 
     3483.6     0.0441955291 
    3485.55     0.0257084426 
     3487.5    -0.0063418881 
    3489.45    0.00474264938 
     3491.4     0.0246749986 
    3493.35     0.0462542921 
     3495.3     0.0293965247 
    3497.25     0.0322265401 
     3499.2     0.0550481938 
    3501.15     0.0510235541 
     3503.1     0.0162278358 
    3505.05     0.0211976673 
     3507.0     0.0276880264 
    3508.95     0.0272358526 
     3510.9     0.0305344649 
    3512.85      0.038200736 
     3514.8     0.0387382358 
    3516.75     0.0377473682 
     3518.7     0.0245134234 
    3520.65     0.0386114158 
     3522.6     0.0553069636 
    3524.55     0.0461525768 
     3526.5     0.0327630155 
    3528.45     0.0366725102 
     3530.4     0.0274867415 
    3532.35     0.0282412171 
     3534.3     0.0339143835 
    3536.25     0.0295983274 
     3538.2    0.00530530466 
    3540.15     0.0353906676 
     3542.1     0.0377339832 
    3544.05   -0.00727439951 
     3546.0     0.0181770027 
    3547.95     0.0479294024 
     3549.9     0.0153223919 
    3551.85     0.0280604418 
     3553.8     0.0483871326 
    3555.75     0.0250013489 
     3557.7     0.0392614268 
    3559.65     0.0538172461 
     3561.6     0.0208851695 
    3563.55    0.00941227842 
     3565.5     0.0352645069 
    3567.45     0.0323398076 
     3569.4    0.00925909355 
    3571.35     0.0233938303 
     3573.3     0.0372535288 
    3575.25     0.0276873782 
     3577.2     0.0254007932 
    3579.15     0.0185341686 
     3581.1     0.0205281042 
    3583.05     0.0314137116 
     3585.0     0.0306753274 
    3586.95     0.0159326755 
     3588.9     0.0453723744 
    3590.85     0.0513889715 
     3592.8     0.0351541601 
    3594.75     0.0310280342 
     3596.7     0.0359604768 
    3598.65     0.0434467234 
     3600.6     0.0226448141 
    3602.55     0.0358750448 
     3604.5     0.0456668958 
    3606.45     0.0380166732 
     3608.4     0.0138102481 
    3610.35    0.00387368677 
     3612.3      0.023691263 
    3614.25     0.0326295868 
     3616.2     0.0317072682 
    3618.15     0.0416127518 
     3620.1     0.0334537067 
    3622.05     0.0221938323 
     3624.0     0.0387445614 
    3625.95     0.0361415409 
     3627.9     0.0415878482 
    3629.85     0.0312299747 
     3631.8    -0.0020405571 
    3633.75    -0.0085103251 
     3635.7     0.0236098617 
    3637.65     0.0430118963 
     3639.6     0.0591545068 
    3641.55      0.056251701 
     3643.5     0.0313742831 
    3645.45     0.0395398326 
     3647.4     0.0397904776 
    3649.35     0.0300752651 
     3651.3     0.0202872399 
    3653.25     0.0279589165 
     3655.2     0.0124665713 
    3657.15     0.0190818515 
     3659.1     0.0500007719 
    3661.05     0.0354796797 
     3663.0     0.0255829748 
    3664.95     0.0273814555 
     3666.9     0.0475823544 
    3668.85      0.036305733 
     3670.8     0.0283407606 
    3672.75      0.039551992 
     3674.7     0.0330884345 
    3676.65     0.0422044471 
     3678.6     0.0310894642 
    3680.55     0.0345831588 
     3682.5     0.0296213571 
    3684.45     0.0262284484 
     3686.4     0.0128743276 
    3688.35      0.032346379 
     3690.3     0.0357192867 
    3692.25     0.0201100949 
     3694.2     0.0161667801 
    3696.15     0.0229788404 
     3698.1     0.0410153233 
    3700.05     0.0312346909 
     3702.0    0.00946050137 
    3703.95     0.0229948834 
     3705.9     0.0409668386 
    3707.85     0.0371581614 
     3709.8     0.0374540053 
    3711.75     0.0440683104 
     3713.7     0.0258544441 
    3715.65     0.0291071236 
     3717.6     0.0453285612 
    3719.55      0.042656485 
     3721.5     0.0202745385 
    3723.45     0.0290572532 
     3725.4     0.0443908013 
    3727.35     0.0395425856 
     3729.3     0.0323885754 
    3731.25     0.0319489725 
     3733.2     0.0338666253 
    3735.15     0.0281330738 
     3737.1     0.0240608621 
    3739.05     0.0127426889 
     3741.0    0.00933453534 
    3742.95     0.0255243778 
     3744.9     0.0226275735 
    3746.85     0.0198789928 
     3748.8     0.0310114603 
    3750.75     0.0225433409 
     3752.7     0.0317265764 
    3754.65     0.0245569982 
     3756.6     0.0225227792 
    3758.55     0.0326898731 
     3760.5     0.0205219705 
    3762.45     0.0249220971 
     3764.4     0.0263364594 
    3766.35     0.0324270278 
     3768.3     0.0335522704 
    3770.25     0.0346375704 
     3772.2     0.0366253145 
    3774.15     0.0442573503 
     3776.1     0.0266845673 
    3778.05     0.0407691263 
     3780.0     0.0451007113 
    3781.95     0.0271965563 
     3783.9      0.039170336 
    3785.85     0.0252499245 
     3787.8     0.0394129679 
    3789.75     0.0505211726 
     3791.7     0.0323419869 
    3793.65     0.0292668585 
     3795.6     0.0244091842 
    3797.55     0.0315979421 
     3799.5     0.0383889973 
    3801.45     0.0270663332 
     3803.4     0.0259448849 
    3805.35     0.0323643535 
     3807.3     0.0328801647 
    3809.25     0.0246957336 
     3811.2     0.0317326523 
    3813.15     0.0372563004 
     3815.1     0.0418299958 
    3817.05     0.0296317637 
     3819.0     0.0492443107 
    3820.95     0.0432793461 
     3822.9     0.0368715376 
    3824.85     0.0440334305 
     3826.8     0.0359593034 
    3828.75      0.021086758 
     3830.7     0.0430596583 
    3832.65     0.0392181836 
     3834.6     0.0388489328 
    3836.55     0.0277902465 
     3838.5     0.0445621572 
    3840.45     0.0459468998 
     3842.4     0.0415866524 
    3844.35     0.0366954617 
     3846.3     0.0358354896 
    3848.25     0.0324854366 
     3850.2     0.0364356562 
    3852.15     0.0418179445 
     3854.1     0.0380018614 
    3856.05     0.0251660645 
     3858.0     0.0395214893 
    3859.95     0.0346393287 
     3861.9     0.0322036184 
    3863.85     0.0363844484 
     3865.8     0.0428093374 
    3867.75     0.0434937999 
     3869.7     0.0381933972 
    3871.65     0.0420055725 
     3873.6     0.0406952128 
    3875.55     0.0405157432 
     3877.5     0.0433189981 
    3879.45     0.0429523848 
     3881.4     0.0418526754 
    3883.35     0.0431200527 
     3885.3     0.0482936017 
    3887.25     0.0414459147 
     3889.2     0.0391171686 
    3891.15     0.0318143256 
     3893.1     0.0270747039 
    3895.05     0.0347294584 
     3897.0     0.0482227877 
    3898.95     0.0369605087 
     3900.9     0.0372677892 
    3902.85     0.0331840888 
     3904.8     0.0348576047 
    3906.75     0.0528934486 
     3908.7     0.0483769365 
    3910.65     0.0295284465 
     3912.6     0.0347913243 
    3914.55     0.0295951981 
     3916.5     0.0241836421 
    3918.45     0.0495630875 
     3920.4     0.0383829512 
    3922.35     0.0282226913 
     3924.3     0.0377601087 
    3926.25     0.0375505537 
     3928.2     0.0399256237 
    3930.15     0.0389554128 
     3932.1     0.0373555943 
    3934.05     0.0364830084 
     3936.0       0.03501793 
    3937.95     0.0399552472 
     3939.9     0.0402117111 
    3941.85     0.0422524363 
     3943.8     0.0460347049 
    3945.75     0.0435178764 
     3947.7      0.040427424 
    3949.65     0.0499044992 
     3951.6     0.0486658253 
    3953.55     0.0307866242 
     3955.5     0.0327752829 
    3957.45      0.035793867 
     3959.4     0.0269024018 
    3961.35     0.0279001445 
     3963.3     0.0302772094 
    3965.25     0.0324622989 
     3967.2     0.0380425416 
    3969.15     0.0420559645 
     3971.1     0.0505139679 
    3973.05     0.0462861694 
     3975.0     0.0464140624 
    3976.95     0.0458266512 
     3978.9     0.0400638133 
    3980.85     0.0361171477 
     3982.8     0.0405174345 
    3984.75     0.0333310179 
     3986.7     0.0155064249 
    3988.65     0.0355714634 
     3990.6     0.0431863926 
    3992.55     0.0361079499 
     3994.5     0.0369182006 
    3996.45     0.0308284704 
     3998.4     0.0231903642 
    4000.35     0.0274285581 
     4002.3     0.0297276247 
    4004.25     0.0348313935 
     4006.2     0.0233066622 
    4008.15     0.0222443063 
     4010.1     0.0309882034 
    4012.05     0.0223065168 
     4014.0     0.0313713886 
    4015.95     0.0367898121 
     4017.9     0.0217104349 
    4019.85     0.0248925015 
     4021.8     0.0287881028 
    4023.75     0.0244986061 
     4025.7     0.0360042229 
    4027.65     0.0408827588 
     4029.6     0.0413978212 
    4031.55     0.0349461697 
     4033.5     0.0247237198 
    4035.45     0.0287147816 
     4037.4     0.0311865769 
    4039.35     0.0328456536 
     4041.3     0.0426781178 
    4043.25     0.0306960773 
     4045.2     0.0288345516 
    4047.15     0.0437569208 
     4049.1     0.0459312163 
    4051.05     0.0404206999 
     4053.0     0.0186788924 
    4054.95     0.0519027449 
     4056.9     0.0479686186 
    4058.85     0.0179626718 
     4060.8     0.0331739224 
    4062.75     0.0398570038 
     4064.7     0.0316499174 
    4066.65     0.0303513668 
     4068.6     0.0325881615 
    4070.55     0.0447808206 
     4072.5     0.0361031443 
    4074.45     0.0296943821 
     4076.4     0.0316472799 
    4078.35     0.0271114204 
     4080.3     0.0164923519 
    4082.25     0.0376196355 
     4084.2     0.0295571685 
    4086.15     0.0405042805 
     4088.1     0.0447851233 
    4090.05     0.0187016651 
     4092.0     0.0184186082 
    4093.95     0.0333980396 
     4095.9     0.0289848987 
    4097.85     0.0242284574 
     4099.8     0.0373384245 
    4101.75     0.0378946327 
     4103.7     0.0381090567 
    4105.65     0.0322824046 
     4107.6     0.0381401926 
    4109.55     0.0548567735 
     4111.5     0.0474218167 
    4113.45     0.0377980098 
     4115.4     0.0361404084 
    4117.35     0.0437672026 
     4119.3     0.0405195057 
    4121.25     0.0455979295 
     4123.2     0.0425229371 
    4125.15     0.0361001305 
     4127.1     0.0398521647 
    4129.05     0.0481742322 
     4131.0     0.0462959446 
    4132.95     0.0375379957 
     4134.9     0.0444220416 
    4136.85     0.0468908474 
     4138.8     0.0485791564 
    4140.75     0.0459172614 
     4142.7     0.0393482968 
    4144.65     0.0470194556 
     4146.6     0.0339957215 
    4148.55     0.0410487764 
     4150.5     0.0562766045 
    4152.45     0.0476679578 
     4154.4     0.0455192477 
    4156.35     0.0449237861 
     4158.3     0.0549063683 
    4160.25     0.0579669811 
     4162.2     0.0438572206 
    4164.15     0.0454588719 
     4166.1     0.0548310764 
    4168.05     0.0522458777 
     4170.0     0.0467093438 
    4171.95     0.0430642962 
     4173.9     0.0491918102 
    4175.85      0.045448333 
     4177.8     0.0432500057 
    4179.75     0.0480960235 
     4181.7     0.0465454534 
    4183.65     0.0448330455 
     4185.6     0.0538481921 
    4187.55     0.0588458553 
     4189.5     0.0523317344 
    4191.45     0.0525939502 
     4193.4     0.0590381362 
    4195.35     0.0389668867 
     4197.3     0.0445490405 
    4199.25     0.0511494279 
     4201.2     0.0589055382 
    4203.15     0.0613413528 
     4205.1     0.0495763011 
    4207.05     0.0553093255 
     4209.0     0.0598794334 
    4210.95     0.0626785085 
     4212.9     0.0704586357 
    4214.85     0.0587977655 
     4216.8     0.0557268187 
    4218.75     0.0584428385 
     4220.7     0.0671706796 
    4222.65     0.0581388287 
     4224.6     0.0539678633 
    4226.55     0.0507327467 
     4228.5     0.0458347388 
    4230.45     0.0562152378 
     4232.4     0.0621921644 
    4234.35     0.0586855635 
     4236.3     0.0578433424 
    4238.25     0.0674185231 
     4240.2     0.0660466999 
    4242.15     0.0530539788 
     4244.1     0.0435733236 
    4246.05     0.0460826159 
     4248.0     0.0611302257 
    4249.95     0.0548219718 
     4251.9     0.0490303785 
    4253.85     0.0259398166 
     4255.8     0.0243545678 
    4257.75     0.0394486859 
     4259.7     0.0374284349 
    4261.65     0.0405667536 
     4263.6     0.0395245366 
    4265.55     0.0424068421 
     4267.5     0.0366715416 
    4269.45     0.0453162566 
     4271.4     0.0558091365 
    4273.35     0.0525561757 
     4275.3     0.0510895066 
    4277.25      0.054611668 
     4279.2     0.0596951284 
    4281.15     0.0643064082 
     4283.1     0.0547945499 
    4285.05     0.0565642118 
     4287.0     0.0591653436 
    4288.95     0.0449554361 
     4290.9     0.0483849272 
    4292.85     0.0553488508 
     4294.8     0.0569211654 
    4296.75     0.0540694967 
     4298.7     0.0673379526 
    4300.65     0.0573776178 
     4302.6     0.0427328274 
    4304.55     0.0485882163 
     4306.5     0.0506550483 
    4308.45     0.0585461706 
     4310.4     0.0601885095 
    4312.35     0.0430238098 
     4314.3     0.0595474206 
    4316.25     0.0546824113 
     4318.2      0.045751147 
    4320.15     0.0610780306 
     4322.1     0.0658027604 
    4324.05     0.0526865982 
     4326.0     0.0471731275 
    4327.95     0.0579000711 
     4329.9     0.0547192656 
    4331.85     0.0593330376 
     4333.8     0.0616788864 
    4335.75     0.0494299904 
     4337.7     0.0521562435 
    4339.65     0.0513372868 
     4341.6     0.0489217937 
    4343.55     0.0491658933 
     4345.5      0.063769266 
    4347.45     0.0629366934 
     4349.4     0.0483655557 
    4351.35     0.0426642895 
     4353.3     0.0463882908 
    4355.25     0.0623916164 
     4357.2     0.0620690286 
    4359.15     0.0690615326 
     4361.1     0.0728090107 
    4363.05     0.0364453197 
     4365.0     0.0360229015 
    4366.95     0.0488551669 
     4368.9     0.0590725429 
    4370.85     0.0618783198 
     4372.8     0.0561154038 
    4374.75     0.0463078432 
     4376.7     0.0562887192 
    4378.65     0.0670382604 
     4380.6     0.0550611652 
    4382.55     0.0442349166 
     4384.5     0.0489487499 
    4386.45     0.0561461523 
     4388.4     0.0651420355 
    4390.35     0.0649560243 
     4392.3     0.0490888096 
    4394.25      0.041631002 
     4396.2     0.0481799096 
    4398.15       0.05226098 
     4400.1     0.0512319654 
    4402.05     0.0528215542 
     4404.0     0.0540538356 
    4405.95     0.0538035482 
     4407.9     0.0547025725 
    4409.85     0.0604682378 
     4411.8     0.0612988956 
    4413.75     0.0618501008 
     4415.7     0.0646380559 
    4417.65     0.0555890538 
     4419.6      0.053560812 
    4421.55     0.0481813774 
     4423.5     0.0505927913 
    4425.45       0.05633571 
     4427.4     0.0492580757 
    4429.35     0.0474545062 
     4431.3     0.0534796081 
    4433.25     0.0501204692 
     4435.2     0.0453073196 
    4437.15      0.055189807 
     4439.1     0.0664693564 
    4441.05     0.0634114444 
     4443.0     0.0603368841 
    4444.95     0.0545420647 
     4446.9     0.0505771004 
    4448.85      0.056738548 
     4450.8     0.0478743054 
    4452.75     0.0517399386 
     4454.7     0.0562900603 
    4456.65     0.0544306971 
     4458.6     0.0668594763 
    4460.55     0.0599165857 
     4462.5     0.0537447818 
    4464.45     0.0576805882 
     4466.4     0.0609769411 
    4468.35     0.0619954728 
     4470.3     0.0554258712 
    4472.25     0.0481348149 
     4474.2     0.0483532734 
    4476.15     0.0551047586 
     4478.1     0.0569333285 
    4480.05     0.0535832867 
     4482.0     0.0652308613 
    4483.95     0.0586591363 
     4485.9     0.0464636683 
    4487.85     0.0542728044 
     4489.8     0.0546836182 
    4491.75     0.0490094125 
     4493.7     0.0577042587 
    4495.65     0.0655202493 
     4497.6     0.0600864775 
    4499.55     0.0557216145 
     4501.5     0.0562327094 
    4503.45     0.0696374774 
     4505.4     0.0701598302 
    4507.35     0.0707850382 
     4509.3     0.0755170956 
    4511.25     0.0630990043 
     4513.2       0.05615234 
    4515.15     0.0544370972 
     4517.1     0.0643661618 
    4519.05     0.0700858459 
     4521.0     0.0652377754 
    4522.95     0.0610648096 
     4524.9     0.0632002875 
    4526.85     0.0553017296 
     4528.8     0.0632999837 
    4530.75     0.0699563026 
     4532.7     0.0689971745 
    4534.65     0.0667269975 
     4536.6     0.0687094927 
    4538.55     0.0569813177 
     4540.5     0.0474957973 
    4542.45     0.0520973504 
     4544.4     0.0661545023 
    4546.35     0.0676922277 
     4548.3     0.0492177494 
    4550.25      0.052616287 
     4552.2     0.0594920926 
    4554.15     0.0494255573 
     4556.1     0.0595739372 
    4558.05     0.0718240067 
     4560.0     0.0574056655 
    4561.95     0.0547277443 
     4563.9     0.0677005947 
    4565.85     0.0565843545 
     4567.8     0.0384287871 
    4569.75     0.0497592315 
     4571.7     0.0613567121 
    4573.65     0.0563349165 
     4575.6     0.0553290509 
    4577.55     0.0539368875 
     4579.5     0.0535681956 
    4581.45     0.0553122908 
     4583.4     0.0537983105 
    4585.35     0.0532956384 
     4587.3     0.0557206683 
    4589.25     0.0499945208 
     4591.2     0.0538564213 
    4593.15     0.0543537922 
     4595.1     0.0524897054 
    4597.05     0.0559987277 
     4599.0     0.0652723834 
    4600.95     0.0645768344 
     4602.9     0.0581623316 
    4604.85     0.0558948368 
     4606.8     0.0518869273 
    4608.75     0.0438532047 
     4610.7     0.0508706868 
    4612.65     0.0562559627 
     4614.6     0.0552057959 
    4616.55     0.0563338473 
     4618.5     0.0527076013 
    4620.45     0.0554816537 
     4622.4     0.0551159196 
    4624.35     0.0623751171 
     4626.3     0.0685795397 
    4628.25     0.0632893965 
     4630.2     0.0582428575 
    4632.15     0.0552825518 
     4634.1     0.0536062196 
    4636.05     0.0497537218 
     4638.0     0.0531902723 
    4639.95     0.0552015565 
     4641.9      0.058807604 
    4643.85     0.0602278002 
     4645.8     0.0574313328 
    4647.75     0.0523050837 
     4649.7     0.0560471416 
    4651.65     0.0635001957 
     4653.6     0.0625617132 
    4655.55     0.0576678142 
     4657.5     0.0578769483 
    4659.45     0.0562362745 
     4661.4     0.0570568703 
    4663.35     0.0527088158 
     4665.3      0.054945834 
    4667.25     0.0568408333 
     4669.2     0.0679072067 
    4671.15     0.0697639883 
     4673.1     0.0494186841 
    4675.05     0.0544027761 
     4677.0     0.0637968034 
    4678.95     0.0639655963 
     4680.9     0.0687950477 
    4682.85     0.0654544979 
     4684.8     0.0603663512 
    4686.75     0.0561385751 
     4688.7     0.0563881993 
    4690.65     0.0585573353 
     4692.6     0.0529315323 
    4694.55     0.0606001392 
     4696.5     0.0667573065 
    4698.45     0.0546704233 
     4700.4     0.0491975099 
    4702.35     0.0513570197 
     4704.3     0.0538052358 
    4706.25     0.0548927225 
     4708.2     0.0651752427 
    4710.15     0.0642767996 
     4712.1     0.0577567406 
    4714.05     0.0644603893 
     4716.0     0.0614964366 
    4717.95      0.052221749 
     4719.9     0.0533816218 
    4721.85     0.0557310507 
     4723.8     0.0505589768 
    4725.75     0.0497338884 
     4727.7     0.0622483604 
    4729.65     0.0596650876 
     4731.6     0.0697899237 
    4733.55     0.0639511794 
     4735.5     0.0542111285 
    4737.45     0.0619442128 
     4739.4     0.0499738567 
    4741.35     0.0476398095 
     4743.3     0.0559816994 
    4745.25     0.0647118092 
     4747.2     0.0636938438 
    4749.15     0.0563795976 
     4751.1     0.0599192046 
    4753.05     0.0553591363 
     4755.0     0.0583445914 
    4756.95     0.0588536598 
     4758.9     0.0578086562 
    4760.85     0.0522967055 
     4762.8     0.0583526716 
    4764.75     0.0596322939 
     4766.7     0.0555594116 
    4768.65     0.0512472726 
     4770.6     0.0624692366 
    4772.55     0.0525702685 
     4774.5     0.0561660603 
    4776.45     0.0646163002 
     4778.4     0.0541168153 
    4780.35     0.0507810116 
     4782.3     0.0632009283 
    4784.25     0.0598764606 
     4786.2     0.0572281629 
    4788.15     0.0544882864 
     4790.1     0.0577338785 
    4792.05     0.0588491596 
     4794.0     0.0623539425 
    4795.95     0.0587081611 
     4797.9     0.0547749475 
    4799.85     0.0571701452 
     4801.8     0.0518213846 
    4803.75     0.0477542765 
     4805.7     0.0582050607 
    4807.65     0.0711500421 
     4809.6     0.0700742081 
    4811.55     0.0599113554 
     4813.5     0.0507307276 
    4815.45     0.0524210855 
     4817.4     0.0570028834 
    4819.35     0.0538747609 
     4821.3     0.0601946712 
    4823.25     0.0581920333 
     4825.2     0.0647419244 
    4827.15     0.0589500107 
     4829.1     0.0556978099 
    4831.05     0.0645371154 
     4833.0     0.0446093194 
    4834.95     0.0463783592 
     4836.9     0.0698468983 
    4838.85     0.0533856265 
     4840.8     0.0366680957 
    4842.75     0.0506562032 
     4844.7     0.0552497767 
    4846.65     0.0506818332 
     4848.6     0.0436948463 
    4850.55     0.0427312814 
     4852.5     0.0424900316 
    4854.45     0.0471776947 
     4856.4     0.0398662537 
    4858.35     0.0479489863 
     4860.3     0.0530995242 
    4862.25     0.0479854159 
     4864.2     0.0571685284 
    4866.15     0.0470111296 
     4868.1     0.0456400886 
    4870.05     0.0520134084 
     4872.0     0.0555997118 
    4873.95     0.0582833104 
     4875.9     0.0575606078 
    4877.85       0.04559182 
     4879.8     0.0540240966 
    4881.75     0.0606016964 
     4883.7      0.054901883 
    4885.65     0.0472041555 
     4887.6     0.0496502332 
    4889.55     0.0436004326 
     4891.5     0.0442161895 
    4893.45     0.0476462394 
     4895.4     0.0465474315 
    4897.35     0.0415188298 
     4899.3     0.0486788228 
    4901.25     0.0434065424 
     4903.2     0.0467972346 
    4905.15     0.0480554961 
     4907.1     0.0473289378 
    4909.05     0.0432199948 
     4911.0     0.0495816655 
    4912.95     0.0582500324 
     4914.9     0.0541305244 
    4916.85     0.0502677672 
     4918.8     0.0498415157 
    4920.75     0.0565389134 
     4922.7     0.0553678498 
    4924.65     0.0588735752 
     4926.6     0.0596363805 
    4928.55     0.0471425764 
     4930.5     0.0474212728 
    4932.45     0.0492654145 
     4934.4     0.0491569974 
    4936.35       0.04662304 
     4938.3     0.0446502641 
    4940.25     0.0521491095 
     4942.2     0.0524964742 
    4944.15     0.0550826192 
     4946.1      0.043867413 
    4948.05     0.0462378375 
     4950.0     0.0575921126 
    4951.95     0.0500737242 
     4953.9     0.0433446579 
    4955.85     0.0488432571 
     4957.8     0.0487103984 
    4959.75     0.0468943045 
     4961.7     0.0532277748 
    4963.65     0.0492677689 
     4965.6     0.0526080132 
    4967.55     0.0598392375 
     4969.5     0.0495175384 
    4971.45     0.0468689986 
     4973.4      0.055552233 
    4975.35     0.0501664616 
     4977.3     0.0431491546 
    4979.25       0.04699881 
     4981.2     0.0578538366 
    4983.15     0.0534999333 
     4985.1     0.0436943322 
    4987.05     0.0491220504 
     4989.0     0.0543847643 
    4990.95     0.0462052599 
     4992.9     0.0469367839 
    4994.85     0.0514560007 
     4996.8     0.0516584031 
    4998.75     0.0403801017 
     5000.7     0.0429171994 
    5002.65     0.0451863594 
     5004.6     0.0364409126 
    5006.55     0.0465668552 
     5008.5     0.0510993488 
    5010.45     0.0498215221 
     5012.4     0.0532119386 
    5014.35     0.0462623574 
     5016.3     0.0453756787 
    5018.25     0.0528025366 
     5020.2     0.0508709513 
    5022.15     0.0489926152 
     5024.1     0.0544378422 
    5026.05     0.0475756526 
     5028.0     0.0551273003 
    5029.95     0.0537524857 
     5031.9     0.0430550352 
    5033.85     0.0465852544 
     5035.8     0.0445876196 
    5037.75     0.0500577427 
     5039.7     0.0507578254 
    5041.65     0.0532943085 
     5043.6     0.0610376224 
    5045.55     0.0587086156 
     5047.5     0.0525184087 
    5049.45     0.0496827625 
     5051.4     0.0544097684 
    5053.35     0.0529201292 
     5055.3     0.0438496545 
    5057.25     0.0402439088 
     5059.2     0.0464234166 
    5061.15     0.0486654565 
     5063.1     0.0616491735 
    5065.05     0.0608333871 
     5067.0     0.0485431105 
    5068.95     0.0519599691 
     5070.9     0.0529852435 
    5072.85     0.0588359274 
     5074.8     0.0555048473 
    5076.75     0.0450870395 
     5078.7     0.0494843982 
    5080.65     0.0560896583 
     5082.6     0.0565849766 
    5084.55     0.0547256842 
     5086.5      0.056473013 
    5088.45     0.0531582534 
     5090.4     0.0508544892 
    5092.35     0.0489323139 
     5094.3     0.0552769378 
    5096.25     0.0504594557 
     5098.2     0.0615834929 
    5100.15     0.0631936044 
     5102.1     0.0533275194 
    5104.05     0.0524277464 
     5106.0     0.0478659309 
    5107.95      0.046910692 
     5109.9     0.0484901667 
    5111.85     0.0476032086 
     5113.8     0.0503197722 
    5115.75     0.0605992973 
     5117.7     0.0561179966 
    5119.65     0.0574444085 
     5121.6     0.0493226536 
    5123.55     0.0483237244 
     5125.5     0.0544031672 
    5127.45     0.0427694693 
     5129.4     0.0471829474 
    5131.35     0.0546345934 
     5133.3     0.0485445969 
    5135.25     0.0541445948 
     5137.2     0.0581827536 
    5139.15     0.0550315641 
     5141.1     0.0535954274 
    5143.05     0.0541495383 
     5145.0     0.0514638722 
    5146.95     0.0515862405 
     5148.9     0.0489827134 
    5150.85     0.0436379686 
     5152.8      0.048667267 
    5154.75     0.0534747206 
     5156.7     0.0482862517 
    5158.65     0.0457774885 
     5160.6      0.051854372 
    5162.55     0.0497742668 
     5164.5     0.0562017523 
    5166.45     0.0490425527 
     5168.4     0.0464899503 
    5170.35     0.0495718233 
     5172.3     0.0390998498 
    5174.25     0.0457763895 
     5176.2     0.0515415817 
    5178.15     0.0509025529 
     5180.1      0.055481188 
    5182.05     0.0665480644 
     5184.0     0.0580669604 
    5185.95     0.0447884127 
     5187.9      0.056435626 
    5189.85     0.0448900051 
     5191.8     0.0474588536 
    5193.75     0.0392799936 
     5195.7     0.0467486195 
    5197.65     0.0517460182 
     5199.6     0.0551973283 
    5201.55     0.0498586148 
     5203.5     0.0332559794 
    5205.45     0.0343811475 
     5207.4     0.0484444946 
    5209.35     0.0537016913 
     5211.3     0.0520001985 
    5213.25     0.0528229848 
     5215.2     0.0579436906 
    5217.15     0.0539481267 
     5219.1     0.0384933501 
    5221.05     0.0447877385 
     5223.0     0.0524158254 
    5224.95     0.0629967526 
     5226.9     0.0537817776 
    5228.85     0.0524045974 
     5230.8     0.0433687493 
    5232.75     0.0508226641 
     5234.7     0.0544104613 
    5236.65     0.0435778722 
     5238.6     0.0547513776 
    5240.55     0.0591395386 
     5242.5     0.0499766916 
    5244.45     0.0546872169 
     5246.4     0.0545486026 
    5248.35     0.0571727678 
     5250.3     0.0508607067 
    5252.25     0.0482456274 
     5254.2     0.0565099977 
    5256.15     0.0568502806 
     5258.1     0.0592316203 
    5260.05      0.065092653 
     5262.0     0.0510766394 
    5263.95       0.04545388 
     5265.9     0.0565521196 
    5267.85     0.0653856844 
     5269.8     0.0561763011 
    5271.75     0.0508000925 
     5273.7     0.0541929416 
    5275.65     0.0517792925 
     5277.6     0.0577898696 
    5279.55     0.0683681294 
     5281.5     0.0567211024 
    5283.45     0.0536758415 
     5285.4     0.0532213449 
    5287.35     0.0440141074 
     5289.3     0.0479512028 
    5291.25     0.0586914234 
     5293.2     0.0578335188 
    5295.15     0.0470203385 
     5297.1     0.0445674881 
    5299.05     0.0521518514 
     5301.0     0.0514044799 
    5302.95     0.0531358607 
     5304.9     0.0523509644 
    5306.85     0.0492149927 
     5308.8     0.0577855743 
    5310.75     0.0557533316 
     5312.7     0.0459967032 
    5314.65     0.0622619465 
     5316.6     0.0587560534 
    5318.55      0.046711877 
     5320.5     0.0497917794 
    5322.45     0.0481539629 
     5324.4      0.053801097 
    5326.35     0.0510904342 
     5328.3      0.053081885 
    5330.25     0.0440779626 
     5332.2     0.0412025414 
    5334.15     0.0498192944 
     5336.1     0.0460939407 
    5338.05     0.0471568368 
     5340.0     0.0466575064 
    5341.95      0.051960811 
     5343.9     0.0467115454 
    5345.85     0.0562141724 
     5347.8     0.0508042984 
    5349.75     0.0465455689 
     5351.7     0.0449174866 
    5353.65     0.0404116772 
     5355.6     0.0340804867 
    5357.55     0.0430110544 
     5359.5     0.0524036363 
    5361.45     0.0522954464 
     5363.4     0.0509076491 
    5365.35     0.0559579954 
     5367.3     0.0569308735 
    5369.25     0.0512359329 
     5371.2     0.0560819954 
    5373.15     0.0504586473 
     5375.1     0.0420107841 
    5377.05     0.0444614254 
     5379.0     0.0442219526 
    5380.95     0.0575266816 
     5382.9     0.0446544364 
    5384.85     0.0456263945 
     5386.8     0.0540110804 
    5388.75     0.0484332815 
     5390.7     0.0458054096 
    5392.65     0.0388839506 
     5394.6     0.0409233533 
    5396.55     0.0458497405 
     5398.5     0.0478610881 
    5400.45     0.0540275797 
     5402.4     0.0538188778 
    5404.35     0.0437910445 
     5406.3     0.0343010314 
    5408.25     0.0428300872 
     5410.2     0.0481732525 
    5412.15      0.050888855 
     5414.1     0.0521974452 
    5416.05     0.0486278199 
     5418.0     0.0361368284 
    5419.95     0.0386862196 
     5421.9     0.0507345274 
    5423.85      0.047857549 
     5425.8     0.0419497155 
    5427.75     0.0499732122 
     5429.7     0.0533283837 
    5431.65     0.0431930423 
     5433.6     0.0429241806 
    5435.55     0.0471654572 
     5437.5     0.0407265723 
    5439.45     0.0391729213 
     5441.4     0.0476552509 
    5443.35     0.0463441275 
     5445.3     0.0481567346 
    5447.25     0.0534861684 
     5449.2     0.0455384366 
    5451.15      0.036257796 
     5453.1     0.0484191962 
    5455.05     0.0618201233 
     5457.0      0.037844222 
    5458.95     0.0331082903 
     5460.9     0.0537599549 
    5462.85     0.0402546898 
     5464.8     0.0337091349 
    5466.75     0.0545198768 
     5468.7     0.0576569177 
    5470.65     0.0426355191 
     5472.6     0.0313616246 
    5474.55      0.038756296 
     5476.5     0.0432376377 
    5478.45     0.0461741015 
     5480.4     0.0568850525 
    5482.35     0.0489004105 
     5484.3     0.0423201434 
    5486.25     0.0426575243 
     5488.2     0.0440037549 
    5490.15     0.0447488464 
     5492.1     0.0465270802 
    5494.05     0.0509574637 
     5496.0     0.0429029614 
    5497.95     0.0406812578 
     5499.9     0.0536030978 
    5501.85     0.0517934151 
     5503.8     0.0373750068 
    5505.75     0.0318967998 
     5507.7     0.0393571258 
    5509.65     0.0483640134 
     5511.6     0.0491065755 
    5513.55     0.0444093198 
     5515.5     0.0468597449 
    5517.45     0.0455882289 
     5519.4     0.0339339115 
    5521.35     0.0393887796 
     5523.3     0.0489281155 
    5525.25     0.0466311425 
     5527.2     0.0538708381 
    5529.15     0.0559130423 
     5531.1     0.0427188277 
    5533.05     0.0354969203 
     5535.0     0.0295353569 
    5536.95     0.0380497016 
     5538.9     0.0570895858 
    5540.85      0.049787771 
     5542.8     0.0387157016 
    5544.75     0.0385299772 
     5546.7     0.0432753153 
    5548.65      0.044664409 
     5550.6     0.0473773703 
    5552.55     0.0514358878 
     5554.5     0.0453306325 
    5556.45     0.0387583971 
     5558.4     0.0439259112 
    5560.35     0.0422153622 
     5562.3     0.0440304764 
    5564.25     0.0503486507 
     5566.2     0.0480134226 
    5568.15      0.043891415 
     5570.1     0.0416195281 
    5572.05     0.0412246734 
     5574.0     0.0408298187 
    5575.95      0.040434964 
     5577.9     0.0400401093 
    5579.85     0.0396452546 
     5581.8     0.0392503999 
    5583.75     0.0388555452 
     5585.7     0.0389070064 
    5587.65     0.0462684296 
     5589.6     0.0487871096 
    5591.55     0.0405440703 
     5593.5     0.0419850126 
    5595.45     0.0429978184 
     5597.4     0.0362834148 
    5599.35     0.0463961214 
     5601.3     0.0615893416 
    5603.25     0.0542139672 
     5605.2     0.0420994535 
    5607.15     0.0393988453 
     5609.1     0.0341257825 
    5611.05     0.0375424288 
     5613.0     0.0442829467 
    5614.95     0.0410710461 
     5616.9     0.0425346904 
    5618.85     0.0390392803 
     5620.8     0.0362487286 
    5622.75     0.0410370156 
     5624.7     0.0371684581 
    5626.65     0.0361502618 
     5628.6     0.0463839695 
    5630.55     0.0509903654 
     5632.5     0.0498323403 
    5634.45     0.0465694666 
     5636.4     0.0544537529 
    5638.35     0.0499597117 
     5640.3     0.0407288484 
    5642.25     0.0453656837 
     5644.2     0.0561900325 
    5646.15     0.0564206652 
     5648.1     0.0483867228 
    5650.05     0.0437378511 
     5652.0     0.0439813137 
    5653.95     0.0404345728 
     5655.9     0.0488070548 
    5657.85     0.0514574051 
     5659.8     0.0417223983 
    5661.75     0.0360014513 
     5663.7     0.0421119332 
    5665.65      0.051885955 
     5667.6     0.0592779182 
    5669.55     0.0508879274 
     5671.5     0.0563022941 
    5673.45     0.0662182644 
     5675.4     0.0671881586 
    5677.35     0.0583083853 
     5679.3      0.050431814 
    5681.25     0.0425473861 
     5683.2     0.0354252756 
    5685.15      0.050429821 
     5687.1     0.0457957275 
    5689.05     0.0371615514 
     5691.0     0.0406878218 
    5692.95     0.0462501869 
     5694.9     0.0427312143 
    5696.85     0.0460402258 
     5698.8     0.0546524487 
    5700.75     0.0556338131 
     5702.7     0.0483282655 
    5704.65     0.0408517383 
     5706.6     0.0361704901 
    5708.55     0.0245996676 
     5710.5     0.0316070542 
    5712.45     0.0423407815 
     5714.4     0.0420862064 
    5716.35     0.0493994914 
     5718.3     0.0421538576 
    5720.25     0.0287726391 
     5722.2     0.0378477313 
    5724.15     0.0457762666 
     5726.1     0.0479542688 
    5728.05     0.0447880626 
     5730.0     0.0477586314 
    5731.95     0.0304661281 
     5733.9     0.0348371118 
    5735.85     0.0389692821 
     5737.8     0.0329209603 
    5739.75     0.0441582724 
     5741.7     0.0456033014 
    5743.65     0.0388804935 
     5745.6     0.0413125753 
    5747.55     0.0443416946 
     5749.5     0.0517463535 
    5751.45     0.0420349836 
     5753.4     0.0374277644 
    5755.35     0.0364242755 
     5757.3     0.0292901378 
    5759.25     0.0297864694 
     5761.2     0.0429898612 
    5763.15     0.0537710004 
     5765.1     0.0592367463 
    5767.05     0.0615630113 
     5769.0     0.0559862442 
    5770.95     0.0471454598 
     5772.9     0.0499433093 
    5774.85     0.0482220985 
     5776.8     0.0413871557 
    5778.75     0.0338476636 
     5780.7     0.0338359326 
    5782.65     0.0387835912 
     5784.6     0.0494680926 
    5786.55     0.0404993892 
     5788.5     0.0457551479 
    5790.45     0.0670359135 
     5792.4     0.0629274175 
    5794.35     0.0412420444 
     5796.3     0.0380565636 
    5798.25     0.0449789912 
     5800.2     0.0492373034 
    5802.15     0.0487171374 
     5804.1     0.0562044308 
    5806.05     0.0535298474 
     5808.0     0.0506553948 
    5809.95     0.0344626568 
     5811.9     0.0274375975 
    5813.85     0.0445739254 
     5815.8     0.0520881638 
    5817.75      0.044707872 
     5819.7     0.0463989526 
    5821.65     0.0451954417 
     5823.6     0.0427543223 
    5825.55     0.0519391932 
     5827.5     0.0466352664 
    5829.45     0.0345806554 
     5831.4     0.0517034046 
    5833.35     0.0461355858 
     5835.3     0.0506681129 
    5837.25     0.0564823858 
     5839.2     0.0534259006 
    5841.15     0.0469269268 
     5843.1     0.0488782972 
    5845.05     0.0275969598 
     5847.0      0.030880589 
    5848.95     0.0296934973 
     5850.9     0.0444072857 
    5852.85     0.0493850298 
     5854.8     0.0453521498 
    5856.75     0.0493929721 
     5858.7     0.0434220433 
    5860.65     0.0511440188 
     5862.6     0.0411924645 
    5864.55     0.0454896688 
     5866.5     0.0448577292 
    5868.45     0.0525230765 
     5870.4     0.0555805154 
    5872.35      0.050781332 
     5874.3     0.0340336785 
    5876.25     0.0271807145 
     5878.2     0.0541780405 
    5880.15     0.0607681051 
     5882.1     0.0559575185 
    5884.05     0.0453182049 
     5886.0     0.0268368833 
    5887.95     0.0189619381 
     5889.9     0.0497076884 
    5891.85     0.0390286595 
     5893.8     0.0461483747 
    5895.75     0.0574726984 
     5897.7     0.0414308794 
    5899.65     0.0382415764 
     5901.6     0.0441686623 
    5903.55     0.0515176058 
     5905.5     0.0410562456 
    5907.45     0.0393563062 
     5909.4     0.0499902405 
    5911.35     0.0515833423 
     5913.3     0.0383162573 
    5915.25     0.0307196714 
     5917.2     0.0464340933 
    5919.15     0.0414673053 
     5921.1     0.0404294245 
    5923.05      0.035900142 
     5925.0     0.0395840667 
    5926.95     0.0325895026 
     5928.9     0.0356422514 
    5930.85     0.0365334377 
     5932.8     0.0579582304 
    5934.75     0.0479298942 
     5936.7     0.0355037376 
    5938.65     0.0528975055 
     5940.6     0.0493966974 
    5942.55     0.0412966982 
     5944.5     0.0260109864 
    5946.45     0.0280512813 
     5948.4     0.0404035412 
    5950.35     0.0570390187 
     5952.3     0.0586239733 
    5954.25      0.070542112 
     5956.2     0.0633339733 
    5958.15     0.0368696786 
     5960.1     0.0429514535 
    5962.05     0.0508164614 
     5964.0     0.0476050191 
    5965.95     0.0357580297 
     5967.9     0.0554105304 
    5969.85     0.0473960601 
     5971.8     0.0308043975 
    5973.75     0.0575091094 
     5975.7     0.0527713895 
    5977.65     0.0651031137 
     5979.6     0.0442219228 
    5981.55     0.0322424397 
     5983.5     0.0384230837 
    5985.45     0.0692308396 
     5987.4     0.0702157915 
    5989.35     0.0480386317 
     5991.3     0.0456684195 
    5993.25     0.0386606678 
     5995.2     0.0354902223 
    5997.15     0.0625892356 
     5999.1     0.0557870716 
    6001.05     0.0283815283 
     6003.0     0.0341471285 
    6004.95     0.0483455248 
     6006.9     0.0486379676 
    6008.85     0.0307750739 
     6010.8     0.0489246473 
    6012.75     0.0640451759 
     6014.7     0.0578104965 
    6016.65     0.0493656024 
     6018.6     0.0504527465 
    6020.55     0.0364398398 
     6022.5     0.0378061496 
    6024.45     0.0348640569 
     6026.4     0.0447315201 
    6028.35     0.0375149958 
     6030.3     0.0404020548 
    6032.25     0.0451077633 
     6034.2     0.0431582257 
    6036.15     0.0556071922 
     6038.1     0.0317944288 
    6040.05     0.0313781686 
     6042.0      0.050229568 
    6043.95     0.0383714288 
     6045.9     0.0365689173 
    6047.85     0.0294675101 
     6049.8     0.0305123497 
    6051.75     0.0550112426 
     6053.7     0.0513546765 
    6055.65      0.056344863 
     6057.6     0.0443445332 
    6059.55     0.0288967304 
     6061.5     0.0542982593 
    6063.45     0.0460332595 
     6065.4     0.0390859544 
    6067.35     0.0361304134 
     6069.3     0.0481550656 
    6071.25     0.0449433923 
     6073.2     0.0399402529 
    6075.15     0.0413192995 
     6077.1     0.0445936695 
    6079.05     0.0500113666 
     6081.0     0.0614486784 
    6082.95     0.0613636374 
     6084.9     0.0542195179 
    6086.85     0.0502035096 
     6088.8     0.0281456131 
    6090.75     0.0337298177 
     6092.7      0.033157777 
    6094.65     0.0447044894 
     6096.6     0.0433664955 
    6098.55     0.0567698553 
     6100.5     0.0511736609 
    6102.45     0.0389569029 
     6104.4     0.0299179032 
    6106.35     0.0310378149 
     6108.3     0.0452355705 
    6110.25     0.0346087962 
     6112.2     0.0469018556 
    6114.15     0.0406504869 
     6116.1     0.0309051536 
    6118.05     0.0322404653 
     6120.0     0.0320026204 
    6121.95     0.0435772836 
     6123.9     0.0474085025 
    6125.85     0.0317212753 
     6127.8     0.0274407323 
    6129.75     0.0372635722 
     6131.7      0.035160251 
    6133.65      0.034193825 
     6135.6     0.0430927947 
    6137.55     0.0427756086 
     6139.5     0.0453379378 
    6141.45     0.0531095415 
     6143.4     0.0475580804 
    6145.35     0.0525806472 
     6147.3     0.0494932197 
    6149.25     0.0422570445 
     6151.2     0.0459335223 
    6153.15     0.0476816557 
     6155.1     0.0357320718 
    6157.05     0.0579309054 
     6159.0     0.0564841367 
    6160.95      0.051276084 
     6162.9     0.0477397442 
    6164.85     0.0296769217 
     6166.8     0.0346850827 
    6168.75     0.0430644713 
     6170.7     0.0579315275 
    6172.65     0.0446558446 
     6174.6     0.0388426706 
    6176.55     0.0493057258 
     6178.5     0.0436463766 
    6180.45     0.0510927588 
     6182.4     0.0492739044 
    6184.35     0.0411910526 
     6186.3     0.0507284477 
    6188.25     0.0479898788 
     6190.2      0.037967097 
    6192.15     0.0433972515 
     6194.1     0.0439161807 
    6196.05     0.0402987562 
     6198.0     0.0381003357 
    6199.95     0.0403282978 
     6201.9     0.0552098267 
    6203.85     0.0509661175 
     6205.8     0.0472438335 
    6207.75     0.0469434671 
     6209.7     0.0269315336 
    6211.65     0.0461342931 
     6213.6     0.0512017086 
    6215.55     0.0464861356 
     6217.5     0.0415514447 
    6219.45     0.0258852411 
     6221.4     0.0359461568 
    6223.35     0.0414429642 
     6225.3     0.0468794368 
    6227.25     0.0415375009 
     6229.2     0.0354696997 
    6231.15     0.0488052033 
     6233.1     0.0466546267 
    6235.05      0.040393997 
     6237.0     0.0421661995 
    6238.95     0.0310679302 
     6240.9     0.0438099578 
    6242.85     0.0455580428 
     6244.8     0.0464484207 
    6246.75     0.0483512357 
     6248.7     0.0472474806 
    6250.65     0.0434321575 
     6252.6     0.0605971888 
    6254.55     0.0538692921 
     6256.5     0.0385604352 
    6258.45     0.0408690423 
     6260.4     0.0389418043 
    6262.35     0.0290371682 
     6264.3     0.0267149024 
    6266.25     0.0232314449 
     6268.2     0.0386738442 
    6270.15     0.0478296876 
     6272.1     0.0329797082 
    6274.05     0.0366194807 
     6276.0     0.0374741964 
    6277.95     0.0374659002 
     6279.9     0.0319333598 
    6281.85     0.0309583507 
     6283.8     0.0439896807 
    6285.75     0.0397508331 
     6287.7     0.0390933864 
    6289.65     0.0380784795 
     6291.6     0.0339269824 
    6293.55     0.0404091366 
     6295.5     0.0379847884 
    6297.45     0.0122773536 
     6299.4     0.0450500175 
    6301.35     0.0231790785 
     6303.3    0.00400105538 
    6305.25     0.0486472808 
     6307.2     0.0579151511 
    6309.15     0.0326616652 
     6311.1     0.0368249044 
    6313.05     0.0370457284 
     6315.0     0.0404869691 
    6316.95     0.0401249826 
     6318.9     0.0381745584 
    6320.85     0.0379521064 
     6322.8     0.0321508907 
    6324.75     0.0479559042 
     6326.7     0.0435097925 
    6328.65      0.042291455 
     6330.6     0.0410560407 
    6332.55     0.0315947942 
     6334.5     0.0411585569 
    6336.45     0.0413013883 
     6338.4     0.0361084566 
    6340.35     0.0354965366 
     6342.3     0.0418902747 
    6344.25     0.0415965468 
     6346.2     0.0350463316 
    6348.15     0.0312371831 
     6350.1     0.0339244679 
    6352.05     0.0438069962 
     6354.0     0.0371917859 
    6355.95     0.0298764296 
     6357.9     0.0310444068 
    6359.85     0.0367420465 
     6361.8     0.0550527982 
    6363.75     0.0553966127 
     6365.7     0.0268474203 
    6367.65     0.0310950521 
     6369.6     0.0308669265 
    6371.55     0.0241150986 
     6373.5       0.03172509 
    6375.45     0.0339822732 
     6377.4     0.0394388959 
    6379.35     0.0298774727 
     6381.3     0.0396696962 
    6383.25     0.0375572257 
     6385.2     0.0354061425 
    6387.15     0.0269853957 
     6389.1     0.0382842086 
    6391.05     0.0438095108 
     6393.0     0.0350215584 
    6394.95     0.0373901278 
     6396.9     0.0275807325 
    6398.85     0.0328419395 
     6400.8     0.0373094864 
    6402.75     0.0370633937 
     6404.7     0.0351706222 
    6406.65     0.0391269736 
     6408.6     0.0331760608 
    6410.55     0.0310090948 
     6412.5     0.0276938565 
    6414.45     0.0358338431 
     6416.4     0.0385921635 
    6418.35     0.0313990526 
     6420.3      0.031756524 
    6422.25     0.0294989757 
     6424.2     0.0292479899 
    6426.15     0.0366479605 
     6428.1     0.0330871977 
    6430.05     0.0414230525 
     6432.0     0.0367653593 
    6433.95     0.0308281593 
     6435.9      0.035860464 
    6437.85     0.0344059505 
     6439.8     0.0255700946 
    6441.75     0.0252998248 
     6443.7     0.0234375745 
    6445.65     0.0306651331 
     6447.6     0.0288871024 
    6449.55     0.0211582221 
     6451.5     0.0362258479 
    6453.45     0.0439599007 
     6455.4     0.0353540741 
    6457.35     0.0371698737 
     6459.3     0.0417248718 
    6461.25     0.0297068264 
     6463.2     0.0386355296 
    6465.15      0.045169428 
     6467.1     0.0293168277 
    6469.05     0.0321384035 
     6471.0     0.0307932682 
    6472.95     0.0219960306 
     6474.9     0.0272354055 
    6476.85     0.0266393255 
     6478.8     0.0270148274 
    6480.75     0.0287403073 
     6482.7      0.032572668 
    6484.65     0.0312417615 
     6486.6     0.0282439943 
    6488.55     0.0315465592 
     6490.5     0.0269230809 
    6492.45     0.0298518259 
     6494.4     0.0388715304 
    6496.35     0.0444495864 
     6498.3     0.0423358716 
    6500.25     0.0314123407 
     6502.2     0.0304200985 
    6504.15     0.0275736954 
     6506.1     0.0410563536 
    6508.05     0.0396100767 
     6510.0     0.0303706639 
    6511.95     0.0414454639 
     6513.9     0.0309745297 
    6515.85     0.0244726967 
     6517.8     0.0388003848 
    6519.75     0.0446326882 
     6521.7     0.0370117575 
    6523.65     0.0306762531 
     6525.6     0.0285660625 
    6527.55     0.0286379252 
     6529.5     0.0336578488 
    6531.45     0.0325262994 
     6533.4     0.0231798235 
    6535.35     0.0261007547 
     6537.3     0.0296694972 
    6539.25     0.0341355316 
     6541.2     0.0346295536 
    6543.15     0.0263884161 
     6545.1     0.0220253654 
    6547.05     0.0226781424 
     6549.0     0.0428332947 
    6550.95     0.0422182754 
     6552.9     0.0343042761 
    6554.85     0.0467243865 
     6556.8     0.0393744968 
    6558.75     0.0287741628 
     6560.7     0.0391382799 
    6562.65     0.0345328078 
     6564.6     0.0343841538 
    6566.55     0.0416815132 
     6568.5      0.031624265 
    6570.45     0.0317986272 
     6572.4      0.035620939 
    6574.35     0.0284549948 
     6576.3     0.0245033205 
    6578.25     0.0324659124 
     6580.2     0.0370919295 
    6582.15     0.0289623383 
     6584.1     0.0273965336 
    6586.05      0.034563072 
     6588.0     0.0374972038 
    6589.95     0.0330235176 
     6591.9     0.0331354812 
    6593.85     0.0413229875 
     6595.8     0.0427605882 
    6597.75     0.0370163545 
     6599.7     0.0377559327 
    6601.65     0.0479304418 
     6603.6     0.0397945307 
    6605.55     0.0257354919 
     6607.5     0.0365444161 
    6609.45     0.0367671065 
     6611.4     0.0294692088 
    6613.35     0.0290292818 
     6615.3     0.0252305269 
    6617.25     0.0333242007 
     6619.2     0.0295523629 
    6621.15     0.0239980184 
     6623.1     0.0351805538 
    6625.05     0.0317926556 
     6627.0     0.0249664001 
    6628.95     0.0299616754 
     6630.9     0.0321765207 
    6632.85      0.036132548 
     6634.8     0.0433904864 
    6636.75     0.0348135717 
     6638.7     0.0288545433 
    6640.65     0.0286899544 
     6642.6     0.0346829183 
    6644.55     0.0376609154 
     6646.5     0.0324487016 
    6648.45     0.0317590907 
     6650.4     0.0264969021 
    6652.35     0.0283654518 
     6654.3     0.0358842276 
    6656.25     0.0387042239 
     6658.2     0.0344876163 
    6660.15     0.0258577447 
     6662.1     0.0314105749 
    6664.05     0.0375719555 
     6666.0     0.0278907232 
    6667.95     0.0274414793 
     6669.9     0.0338365994 
    6671.85     0.0293268468 
     6673.8     0.0265807696 
    6675.75      0.031328138 
     6677.7     0.0329163857 
    6679.65     0.0229093134 
     6681.6     0.0238355212 
    6683.55     0.0291345026 
     6685.5     0.0260059331 
    6687.45     0.0303190295 
     6689.4     0.0348574705 
    6691.35     0.0366534702 
     6693.3     0.0381821394 
    6695.25     0.0401397645 
     6697.2     0.0345304534 
    6699.15     0.0288703497 
     6701.1     0.0425224937 
    6703.05     0.0450015962 
     6705.0     0.0267064795 
    6706.95     0.0265548881 
     6708.9     0.0299041849 
    6710.85     0.0322286114 
     6712.8     0.0331641361 
    6714.75     0.0282239038 
     6716.7     0.0288787857 
    6718.65     0.0328189135 
     6720.6      0.033960335 
    6722.55     0.0256073307 
     6724.5     0.0219761841 
    6726.45     0.0267795958 
     6728.4     0.0228549372 
    6730.35     0.0243514515 
     6732.3     0.0361280553 
    6734.25      0.039033249 
     6736.2     0.0282147415 
    6738.15     0.0250289328 
     6740.1     0.0293564294 
    6742.05     0.0355424322 
     6744.0     0.0301692095 
    6745.95     0.0260600466 
     6747.9     0.0239795968 
    6749.85     0.0210029352 
     6751.8     0.0333552025 
    6753.75     0.0328141525 
     6755.7     0.0356651582 
    6757.65     0.0303039514 
     6759.6     0.0168059655 
    6761.55     0.0166064426 
     6763.5     0.0202144962 
    6765.45     0.0356572308 
     6767.4     0.0288523417 
    6769.35     0.0271177143 
     6771.3     0.0271703023 
    6773.25     0.0232478213 
     6775.2     0.0230851527 
    6777.15     0.0256018173 
     6779.1      0.037935894 
    6781.05     0.0373578034 
     6783.0     0.0304130744 
    6784.95     0.0236104261 
     6786.9     0.0255721472 
    6788.85     0.0387612768 
     6790.8     0.0375254937 
    6792.75     0.0412076414 
     6794.7     0.0429077484 
    6796.65     0.0328094922 
     6798.6     0.0305050723 
    6800.55     0.0389904976 
     6802.5     0.0399225987 
    6804.45     0.0304313619 
     6806.4     0.0346418694 
    6808.35     0.0303803459 
     6810.3     0.0252224077 
    6812.25     0.0227091089 
     6814.2     0.0313249603 
    6816.15     0.0383976884 
     6818.1     0.0293727051 
    6820.05     0.0246047396 
     6822.0      0.031914033 
    6823.95     0.0382565297 
     6825.9     0.0430061631 
    6827.85     0.0351908952 
     6829.8     0.0248053558 
    6831.75     0.0135478452 
     6833.7      0.034428861 
    6835.65     0.0391428098 
     6837.6     0.0299121011 
    6839.55     0.0238495972 
     6841.5      0.033937525 
    6843.45     0.0325238146 
     6845.4     0.0348893553 
    6847.35     0.0330832042 
     6849.3     0.0225435421 
    6851.25     0.0290512275 
     6853.2     0.0350891836 
    6855.15     0.0365882516 
     6857.1     0.0372510366 
    6859.05     0.0367938057 
     6861.0     0.0245077759 
    6862.95     0.0225358382 
     6864.9     0.0191783998 
    6866.85     0.0120860105 
     6868.8     0.0177935269 
    6870.75     0.0308255292 
     6872.7     0.0419735797 
    6874.65     0.0385946557 
     6876.6     0.0327762328 
    6878.55     0.0243838709 
     6880.5     0.0263926107 
    6882.45     0.0244213846 
     6884.4     0.0180944297 
    6886.35     0.0290580429 
     6888.3     0.0323097333 
    6890.25     0.0318707004 
     6892.2     0.0370493717 
    6894.15     0.0299779214 
     6896.1     0.0327107795 
    6898.05     0.0361814387 
     6900.0     0.0253192447 
    6901.95     0.0206423029 
     6903.9      0.028871296 
    6905.85     0.0254337676 
     6907.8     0.0271205138 
    6909.75     0.0296799764 
     6911.7     0.0281884093 
    6913.65     0.0245488063 
     6915.6     0.0204162616 
    6917.55     0.0340170898 
     6919.5     0.0336487256 
    6921.45     0.0343146771 
     6923.4     0.0397170372 
    6925.35     0.0346271507 
     6927.3     0.0295294505 
    6929.25     0.0393493697 
     6931.2     0.0373664685 
    6933.15     0.0325216763 
     6935.1     0.0323715806 
    6937.05     0.0367274396 
     6939.0     0.0328480266 
    6940.95     0.0369303264 
     6942.9     0.0409075022 
    6944.85     0.0358993113 
     6946.8     0.0412067734 
    6948.75      0.033034116 
     6950.7     0.0204536561 
    6952.65     0.0248222295 
     6954.6     0.0329067148 
    6956.55     0.0344599448 
     6958.5     0.0300999898 
    6960.45     0.0358160585 
     6962.4     0.0423607156 
    6964.35     0.0359182134 
     6966.3     0.0301588308 
    6968.25     0.0127447117 
     6970.2     0.0132474573 
    6972.15     0.0315849595 
     6974.1     0.0346920416 
    6976.05     0.0333487876 
     6978.0     0.0435261726 
    6979.95     0.0343231633 
     6981.9     0.0175923351 
    6983.85     0.0319334716 
     6985.8     0.0390021689 
    6987.75     0.0279226117 
     6989.7     0.0239950418 
    6991.65       0.02452996 
     6993.6     0.0307705067 
    6995.55     0.0339386463 
     6997.5      0.031405814 
    6999.45     0.0389843844 
     7001.4      0.041076012 
    7003.35     0.0264070239 
     7005.3     0.0245858748 
    7007.25     0.0327441767 
     7009.2     0.0391616486 
    7011.15     0.0434379056 
     7013.1     0.0367449485 
    7015.05     0.0269214939 
     7017.0     0.0249724016 
    7018.95     0.0229627937 
     7020.9     0.0163376685 
    7022.85     0.0252068117 
     7024.8     0.0389258899 
    7026.75     0.0324251056 
     7028.7     0.0265260246 
    7030.65     0.0211047195 
     7032.6     0.0199858993 
    7034.55     0.0338965952 
     7036.5     0.0352114066 
    7038.45     0.0372840986 
     7040.4     0.0383262001 
    7042.35     0.0369943343 
     7044.3     0.0383915193 
    7046.25     0.0342077799 
     7048.2     0.0333020389 
    7050.15     0.0275759269 
     7052.1     0.0301086605 
    7054.05     0.0395318195 
     7056.0     0.0259228647 
    7057.95     0.0211907458 
     7059.9     0.0339392647 
    7061.85     0.0251666047 
     7063.8     0.0258412715 
    7065.75     0.0298906211 
     7067.7     0.0237354916 
    7069.65     0.0420880057 
     7071.6     0.0406280048 
    7073.55     0.0208798889 
     7075.5     0.0250053983 
    7077.45     0.0309767928 
     7079.4     0.0274284072 
    7081.35     0.0249874387 
     7083.3     0.0299926382 
    7085.25     0.0389885791 
     7087.2     0.0358546451 
    7089.15     0.0355829634 
     7091.1     0.0393684916 
    7093.05     0.0394659266 
     7095.0     0.0402143486 
    7096.95     0.0402787738 
     7098.9     0.0304962043 
    7100.85     0.0297127217 
     7102.8     0.0256397855 
    7104.75     0.0329495817 
     7106.7     0.0407261774 
    7108.65     0.0345025696 
     7110.6     0.0263813362 
    7112.55     0.0303118974 
     7114.5     0.0327123366 
    7116.45      0.040148396 
     7118.4     0.0393480249 
    7120.35     0.0382254273 
     7122.3     0.0185340773 
    7124.25     0.0287317242 
     7126.2     0.0487472899 
    7128.15     0.0415037386 
     7130.1     0.0395972356 
    7132.05     0.0407531224 
     7134.0     0.0309080295 
    7135.95     0.0301310755 
     7137.9     0.0350922607 
    7139.85     0.0390167534 
     7141.8     0.0323742181 
    7143.75      0.024133455 
     7145.7     0.0297456589 
    7147.65     0.0200104732 
     7149.6     0.0231336448 
    7151.55     0.0397890396 
     7153.5     0.0296943225 
    7155.45     0.0326787643 
     7157.4     0.0367850624 
    7159.35     0.0305841751 
     7161.3     0.0425125845 
    7163.25     0.0361210369 
     7165.2     0.0219844226 
    7167.15     0.0415932275 
     7169.1     0.0388784036 
    7171.05     0.0205951296 
     7173.0     0.0459852368 
    7174.95     0.0356463231 
     7176.9     0.0212817285 
    7178.85     0.0339898206 
     7180.8     0.0270309169 
    7182.75     0.0342347138 
     7184.7     0.0299730282 
    7186.65     0.0353333391 
     7188.6     0.0357912406 
    7190.55     0.0317103788 
     7192.5     0.0353130177 
    7194.45     0.0368057936 
     7196.4      0.028062107 
    7198.35     0.0295945685 
     7200.3     0.0273637027 
    7202.25     0.0372345746 
     7204.2     0.0346672758 
    7206.15     0.0419374853 
     7208.1     0.0329782329 
    7210.05     0.0337361805 
     7212.0     0.0359839797 
    7213.95     0.0279989149 
     7215.9     0.0370297842 
    7217.85     0.0283257589 
     7219.8     0.0356927663 
    7221.75     0.0288805477 
     7223.7     0.0197607744 
    7225.65     0.0260442924 
     7227.6     0.0365115255 
    7229.55      0.046869874 
     7231.5     0.0241223145 
    7233.45      0.012712013 
     7235.4     0.0386506617 
    7237.35     0.0133646578 
     7239.3     0.0306115579 
    7241.25     0.0354705602 
     7243.2      0.048400972 
    7245.15     0.0541103929 
     7247.1     0.0221633874 
    7249.05     0.0222632922 
     7251.0     0.0367669016 
    7252.95     0.0406825244 
     7254.9     0.0334779136 
    7256.85     0.0219425485 
     7258.8     0.0372224376 
    7260.75     0.0335492231 
     7262.7     0.0302707385 
    7264.65     0.0390173942 
     7266.6     0.0353124514 
    7268.55     0.0233741347 
     7270.5     0.0177201759 
    7272.45      0.012336975 
     7274.4     0.0177466627 
    7276.35     0.0360273346 
     7278.3     0.0342152864 
    7280.25     0.0226632971 
     7282.2     0.0207494106 
    7284.15      0.033997491 
     7286.1     0.0234690942 
    7288.05    0.00461686309 
     7290.0     0.0142542226 
    7291.95     0.0426331498 
     7293.9     0.0430271439 
    7295.85     0.0239668041 
     7297.8     0.0213465318 
    7299.75      0.034293551 
     7301.7     0.0381611586 
    7303.65     0.0315289274 
     7305.6     0.0311443005 
    7307.55     0.0350707546 
     7309.5     0.0323141515 
    7311.45     0.0181991551 
     7313.4     0.0240235887 
    7315.35     0.0270734783 
     7317.3    0.00732477708 
    7319.25     0.0159352105 
     7321.2     0.0359443538 
    7323.15     0.0327232853 
     7325.1     0.0272664633 
    7327.05    0.00786534604 
     7329.0     0.0273604151 
    7330.95     0.0517941974 
     7332.9     0.0291119386 
    7334.85     0.0213354044 
     7336.8     0.0172509123 
    7338.75       0.02616526 
     7340.7     0.0299755353 
    7342.65     0.0230837353 
     7344.6     0.0370614603 
    7346.55     0.0301233735 
     7348.5      0.023215862 
    7350.45     0.0305773206 
     7352.4     0.0224926174 
    7354.35     0.0176869575 
     7356.3      0.018514907 
    7358.25     0.0210806504 
     7360.2     0.0257644597 
    7362.15     0.0329558887 
     7364.1     0.0343701504 
    7366.05     0.0253321156 
     7368.0     0.0257206261 
    7369.95     0.0349271335 
     7371.9     0.0209280346 
    7373.85     0.0277107507 
     7375.8     0.0323794112 
    7377.75     0.0308351517 
     7379.7     0.0356744938 
    7381.65     0.0355095565 
     7383.6     0.0392718017 
    7385.55     0.0267018061 
     7387.5     0.0257778838 
    7389.45     0.0299633685 
     7391.4     0.0297099166 
    7393.35     0.0290850922 
     7395.3     0.0200768076 
    7397.25      0.032030534 
     7399.2     0.0624236465 
    7401.15     0.0585101992 
     7403.1     0.0276263282 
    7405.05     0.0181580838 
     7407.0     0.0175945312 
    7408.95     0.0352716409 
     7410.9     0.0299372692 
    7412.85     0.0252637267 
     7414.8     0.0125895459 
    7416.75    0.00527558103 
     7418.7     0.0170411877 
    7420.65     0.0183642879 
     7422.6     0.0353207774 
    7424.55     0.0377600454 
     7426.5     0.0392785445 
    7428.45     0.0189370047 
     7430.4     0.0365816206 
    7432.35     0.0308361445 
     7434.3     0.0294837393 
    7436.25     0.0310768206 
     7438.2    0.00705036568 
    7440.15     0.0317120105 
     7442.1     0.0292649455 
    7444.05     0.0276714228 
     7446.0     0.0287474692 
    7447.95     0.0219024327 
     7449.9     0.0264425054 
    7451.85      0.030174816 
     7453.8     0.0309829377 
    7455.75     0.0260732044 
     7457.7     0.0247506965 
    7459.65     0.0333324336 
     7461.6     0.0338265486 
    7463.55     0.0342801958 
     7465.5     0.0317350551 
    7467.45     0.0244313274 
     7469.4     0.0179252084 
    7471.35     0.0341709293 
     7473.3     0.0383741185 
    7475.25    0.00684636412 
     7477.2      0.013945017 
    7479.15     0.0337154306 
     7481.1     0.0380628034 
    7483.05     0.0299817938 
     7485.0     0.0369324237 
    7486.95     0.0431192964 
     7488.9     0.0145237315 
    7490.85     0.0151813552 
     7492.8     0.0278569013 
    7494.75      0.016177468 
     7496.7     0.0304364506 
    7498.65     0.0302263778 
     7500.6     0.0249945372 
    7502.55     0.0273560602 
     7504.5     0.0359256454 
    7506.45     0.0391104892 
     7508.4     0.0229112264 
    7510.35     0.0195852518 
     7512.3     0.0160823576 
    7514.25     0.0295160543 
     7516.2     0.0330295414 
    7518.15     0.0467597842 
     7520.1     0.0221521985 
    7522.05     0.0252042618 
     7524.0     0.0408412144 
    7525.95     0.0283862595 
     7527.9     0.0340799987 
    7529.85     0.0417240858 
     7531.8     0.0409597494 
    7533.75     0.0439413339 
     7535.7     0.0266063008 
    7537.65     0.0311923474 
     7539.6     0.0312803201 
    7541.55     0.0361344181 
     7543.5     0.0373176448 
    7545.45     0.0228051115 
     7547.4     0.0257907026 
    7549.35     0.0381744392 
     7551.3     0.0356439427 
    7553.25     0.0230956264 
     7555.2     0.0197564885 
    7557.15     0.0295810532 
     7559.1     0.0389671847 
    7561.05      0.025712572 
     7563.0     0.0176763032 
    7564.95     0.0278130416 
     7566.9     0.0248444695 
    7568.85     0.0142018897 
     7570.8     0.0145259146 
    7572.75     0.0287157595 
     7574.7      0.023661416 
    7576.65     0.0101258736 
     7578.6     0.0105337538 
    7580.55     0.0200511683 
     7582.5      0.033901725 
    7584.45       0.03104694 
     7586.4     0.0189684834 
    7588.35     0.0144275492 
     7590.3     0.0226398073 
    7592.25     0.0329027735 
     7594.2     0.0541462824 
    7596.15     0.0605598986 
     7598.1     0.0698293149 
    7600.05     0.0547675975 
     7602.0     0.0364427641 
    7603.95     0.0557811037 
     7605.9     0.0391578488 
    7607.85     0.0277701002 
     7609.8      0.026606923 
    7611.75     0.0206028856 
     7613.7     0.0138375768 
    7615.65     0.0336363353 
     7617.6     0.0455069095 
    7619.55     0.0290941261 
     7621.5     0.0150001571 
    7623.45     0.0329987481 
     7625.4     0.0289070643 
    7627.35     0.0548294596 
     7629.3     0.0548065342 
    7631.25     0.0232942719 
     7633.2     0.0096572144 
    7635.15     0.0241050497 
     7637.1      0.012035911 
    7639.05     0.0416727625 
     7641.0     0.0353093147 
    7642.95     0.0336567722 
     7644.9     0.0295341294 
    7646.85     0.0339990668 
     7648.8     0.0441930108 
    7650.75     0.0355550125 
     7652.7     0.0481189713 
    7654.65     0.0478768162 
     7656.6     0.0425085723 
    7658.55      0.014086118 
     7660.5     0.0146360081 
    7662.45     0.0222669393 
     7664.4     0.0202985741 
    7666.35     0.0320653953 
     7668.3     0.0294147413 
    7670.25     0.0371777415 
     7672.2     0.0386173427 
    7674.15      0.035800226 
     7676.1     0.0276983548 
    7678.05     0.0346449502 
     7680.0      0.032653898 
    7681.95     0.0165232904 
     7683.9      0.023259731 
    7685.85     0.0315104425 
     7687.8     0.0275437701 
    7689.75     0.0229796823 
     7691.7     0.0173106324 
    7693.65      0.021483168 
     7695.6     0.0156633295 
    7697.55      0.036785733 
     7699.5     0.0280184913 
    7701.45     0.0238915868 
     7703.4     0.0282810442 
    7705.35     0.0298475735 
     7707.3     0.0142177381 
    7709.25     0.0110473046 
     7711.2    0.00997872464 
    7713.15     0.0209661834 
     7715.1     0.0130523546 
    7717.05   0.000509875827 
     7719.0     0.0149337538 
    7720.95     0.0215601996 
     7722.9     0.0320404433 
    7724.85     0.0367538743 
     7726.8     0.0333360583 
    7728.75     0.0141282026 
     7730.7     0.0249859989 
    7732.65     0.0354493335 
     7734.6     0.0386331044 
    7736.55     0.0313533545 
     7738.5     0.0225838553 
    7740.45     0.0220680553 
     7742.4     0.0210138038 
    7744.35     0.0336005874 
     7746.3     0.0329526551 
    7748.25     0.0251432005 
     7750.2     0.0172727555 
    7752.15  -0.000804995245 
     7754.1   -5.0034374e-05 
    7756.05     0.0239425953 
     7758.0     0.0498867966 
    7759.95     0.0634440854 
     7761.9      0.042904716 
    7763.85     0.0223310906 
     7765.8     0.0164480247 
    7767.75     0.0244550407 
     7769.7     0.0322349146 
    7771.65     0.0281941649 
     7773.6     0.0327898934 
    7775.55     0.0443385355 
     7777.5     0.0365938991 
    7779.45     0.0256509352 
     7781.4     0.0336854048 
    7783.35     0.0278488658 
     7785.3     0.0251490716 
    7787.25     0.0348556861 
     7789.2     0.0221965592 
    7791.15     0.0111878728 
     7793.1     0.0402716324 
    7795.05     0.0578066111 
     7797.0     0.0428403467 
    7798.95     0.0429815874 
     7800.9     0.0241954569 
    7802.85     0.0118580293 
     7804.8     0.0259448029 
    7806.75     0.0324417092 
     7808.7     0.0360972025 
    7810.65     0.0331507884 
     7812.6     0.0359628983 
    7814.55     0.0395343862 
     7816.5     0.0267366562 
    7818.45     0.0384087525 
     7820.4     0.0694729984 
    7822.35     0.0451408327 
     7824.3     0.0145802656 
    7826.25     0.0160790775 
     7828.2     0.0222106781 
    7830.15     0.0393383093 
     7832.1     0.0227302592 
    7834.05     0.0115436958 
     7836.0     0.0228145458 
    7837.95     0.0352433808 
     7839.9     0.0380482674 
    7841.85      0.033368472 
     7843.8     0.0172597393 
    7845.75     0.0163905118 
     7847.7     0.0402095914 
    7849.65     0.0241873953 
     7851.6   -0.00466045551 
    7853.55     0.0206308346 
     7855.5     0.0264364351 
    7857.45     0.0295097269 
     7859.4     0.0190941989 
    7861.35     0.0325055718 
     7863.3     0.0308153722 
    7865.25     0.0210138783 
     7867.2     0.0144958394 
    7869.15     0.0293949489 
     7871.1     0.0402737893 
    7873.05     0.0409961157 
     7875.0     0.0243620388 
    7876.95     0.0316771641 
     7878.9      0.029111892 
    7880.85     0.0210708734 
     7882.8     0.0362602435 
    7884.75     0.0490074307 
     7886.7     0.0446046628 
    7888.65     0.0275799092 
     7890.6     0.0221949723 
    7892.55     0.0193404686 
     7894.5     0.0218603965 
    7896.45     0.0379476584 
     7898.4     0.0363600962 
    7900.35     0.0276080761 
     7902.3     0.0148557471 
    7904.25     0.0269582085 
     7906.2     0.0317739174 
    7908.15     0.0147454273 
     7910.1    -0.0144881699 
    7912.05   -0.00314556248 
     7914.0     0.0277590081 
    7915.95     0.0265421029 
     7917.9     0.0119223483 
    7919.85     0.0255526379 
     7921.8     0.0368756987 
    7923.75     0.0105834892 
     7925.7     0.0296067111 
    7927.65     0.0448397286 
     7929.6     0.0266636517 
    7931.55     0.0114786075 
     7933.5     0.0132792462 
    7935.45     0.0244206917 
     7937.4     0.0255155526 
    7939.35     0.0297930166 
     7941.3     0.0254279915 
    7943.25     0.0207289606 
     7945.2     0.0132294819 
    7947.15     0.0230349358 
     7949.1     0.0343128704 
    7951.05     0.0210343953 
     7953.0     0.0107971393 
    7954.95     0.0153346602 
     7956.9      0.024213139 
    7958.85     0.0225227736 
     7960.8     0.0150161469 
    7962.75     0.0456303693 
     7964.7     0.0725331455 
    7966.65     0.0462647937 
     7968.6     0.0246731024 
    7970.55     0.0329369456 
     7972.5     0.0353968702 
    7974.45     0.0300822854 
     7976.4     0.0443789698 
    7978.35     0.0539913848 
     7980.3     0.0422161184 
    7982.25     0.0240772832 
     7984.2      0.012514459 
    7986.15      0.023393441 
     7988.1     0.0345897712 
    7990.05     0.0429900773 
     7992.0     0.0561257973 
    7993.95     0.0407295786 
     7995.9     0.0277075265 
    7997.85     0.0401592739 
     7999.8     0.0287432391 
    8001.75     0.0189727191 
     8003.7     0.0144815678 
    8005.65    0.00809835456 
     8007.6     0.0240994655 
    8009.55     0.0661477819 
     8011.5     0.0674197301 
    8013.45     0.0405623056 
     8015.4    0.00927115045 
    8017.35     0.0210324768 
     8019.3     0.0269357469 
    8021.25     0.0208042506 
     8023.2     0.0336762555 
    8025.15     0.0327131785 
     8027.1    -0.0147455661 
    8029.05   -0.00144418562 
     8031.0     0.0107194651 
    8032.95     0.0379485525 
     8034.9     0.0261744913 
    8036.85    0.00824644975 
     8038.8     0.0225890931 
    8040.75     0.0351231061 
     8042.7     0.0302766245 
    8044.65     0.0297928527 
     8046.6     0.0446713082 
    8048.55     0.0352475494 
     8050.5     0.0162938554 
    8052.45     0.0170062501 
     8054.4     0.0108764069 
    8056.35     0.0176042169 
     8058.3    0.00460344739 
    8060.25     0.0170552023 
     8062.2      0.033017803 
    8064.15     0.0173004773 
     8066.1    0.00664841989 
    8068.05     0.0086291004 
     8070.0     0.0306718387 
    8071.95     0.0322793648 
     8073.9    0.00743506709 
    8075.85     0.0101572592 
     8077.8     0.0265784152 
    8079.75     0.0376461744 
     8081.7     0.0448953323 
    8083.65     0.0569012314 
     8085.6     0.0523906164 
    8087.55     0.0507286452 
     8089.5     0.0373085104 
    8091.45     0.0243131015 
     8093.4     0.0339773037 
    8095.35     0.0323256738 
     8097.3     0.0347598158 
    8099.25     0.0299393926 
     8101.2     0.0431450605 
    8103.15     0.0356997699 
     8105.1     0.0193344243 
    8107.05      0.042621024 
     8109.0     0.0362973809 
    8110.95     0.0457944274 
     8112.9     0.0471487865 
    8114.85     0.0340638123 
     8116.8     0.0277980473 
    8118.75     0.0217667557 
     8120.7     0.0233644526 
    8122.65     0.0303724669 
     8124.6     0.0264227614 
    8126.55     0.0288302116 
     8128.5     0.0427227765 
    8130.45     0.0287161805 
     8132.4     0.0280068666 
    8134.35     0.0355846249 
     8136.3     0.0334603488 
    8138.25     0.0391302668 
     8140.2     0.0231860597 
    8142.15     0.0359543003 
     8144.1     0.0505119897 
    8146.05     0.0287511498 
     8148.0     0.0314346254 
    8149.95     0.0407694876 
     8151.9     0.0400280841 
    8153.85     0.0170872305 
     8155.8    0.00598499598 
    8157.75     0.0281521138 
     8159.7     0.0290823411 
    8161.65     0.0222688001 
     8163.6     0.0245424211 
    8165.55     0.0317487381 
     8167.5     0.0240488816 
    8169.45     0.0208671764 
     8171.4     0.0367591977 
    8173.35     0.0297096949 
     8175.3     0.0209927093 
    8177.25     0.0267287232 
     8179.2     0.0304329321 
    8181.15     0.0363750495 
     8183.1     0.0205524713 
    8185.05     0.0280569252 
     8187.0     0.0268244091 
    8188.95     0.0165932626 
     8190.9     0.0265742745 
    8192.85     0.0500869714 
     8194.8     0.0424866974 
    8196.75     0.0315538459 
     8198.7     0.0306894016 
    8200.65     0.0324818492 
     8202.6     0.0279270131 
    8204.55     0.0131628513 
     8206.5    0.00711215241 
    8208.45     0.0152684888 
     8210.4     0.0308644045 
    8212.35     0.0184163786 
     8214.3     0.0327619724 
    8216.25     0.0353066176 
     8218.2     0.0177094024 
    8220.15     0.0161422398 
     8222.1     0.0357711725 
    8224.05     0.0434959941 
     8226.0     0.0398427323 
    8227.95     0.0225561336 
     8229.9    0.00209291931 
    8231.85     0.0202531833 
     8233.8     0.0382724106 
    8235.75     0.0388709716 
     8237.7    0.00298105692 
    8239.65    0.00627655908 
     8241.6     0.0361305028 
    8243.55     0.0298704393 
     8245.5     0.0197820552 
    8247.45     0.0187671706 
     8249.4     0.0319093876 
    8251.35      0.023641577 
     8253.3     0.0015790672 
    8255.25    -0.0163862631 
     8257.2     0.0340034105 
    8259.15     0.0287290923 
     8261.1     0.0409440733 
    8263.05     0.0219869092 
     8265.0     0.0177460629 
    8266.95      0.025299089 
     8268.9     0.0030866852 
    8270.85    0.00920679513 
     8272.8     0.0403440408 
    8274.75     0.0291864742 
     8276.7     0.0432158485 
    8278.65     0.0389849246 
     8280.6     0.0219638124 
    8282.55     0.0518624894 
     8284.5     0.0541631654 
    8286.45    -0.0105323382 
     8288.4     0.0373107344 
    8290.35     0.0640223026 
     8292.3    0.00615986111 
    8294.25   -0.00312012667 
     8296.2       0.03754187 
    8298.15     0.0596589819 
     8300.1     0.0224261135 
    8302.05     0.0137542598 
     8304.0     0.0259645693 
    8305.95     0.0149155036 
     8307.9    0.00367994956 
    8309.85     0.0270901024 
     8311.8     0.0441281982 
    8313.75     0.0143619683 
     8315.7     0.0146081476 
    8317.65     0.0283040199 
     8319.6     0.0307697617 
    8321.55     0.0245380308 
     8323.5     0.0228083488 
    8325.45     0.0403436758 
     8327.4     0.0550734028 
    8329.35     0.0334345102 
     8331.3  -0.000909930619 
    8333.25    0.00840840116 
     8335.2     0.0241711196 
    8337.15     0.0513068736 
     8339.1     0.0725126565 
    8341.05     0.0653911307 
     8343.0     0.0965918824 
    8344.95     0.0902268291 
     8346.9     0.0623214357 
    8348.85     0.0617586672 
     8350.8     0.0658353791 
    8352.75      0.018080987 
     8354.7    -0.0247931462 
    8356.65    -0.0110126119 
     8358.6     0.0277838428 
    8360.55     0.0209541302 
     8362.5     0.0469350517 
    8364.45     0.0593007952 
     8366.4     0.0286608469 
    8368.35   0.000495982822 
     8370.3     0.0156874787 
    8372.25      0.037179403 
     8374.2     0.0275594518 
    8376.15     0.0119868182 
     8378.1   -0.00521129742 
    8380.05    -0.0110753607 
     8382.0   -0.00604866398 
    8383.95     0.0129696783 
     8385.9     0.0550867617 
    8387.85     0.0143627254 
     8389.8     0.0374958776 
    8391.75     0.0256567188 
     8393.7     0.0313730799 
    8395.65     0.0257837735 
     8397.6     0.0650008917 
    8399.55     0.0756106302 
     8401.5    0.00599605963 
    8403.45    -0.0111307688 
     8405.4     0.0141655328 
    8407.35     0.0257974174 
     8409.3     0.0149276666 
    8411.25     0.0489595123 
     8413.2     0.0872469246 
    8415.15   -0.00467044627 
     8417.1    -0.0193613414 
    8419.05    0.00799257308 
     8421.0     0.0396859422 
    8422.95     0.0335402787 
     8424.9    -0.0238297712 
    8426.85     0.0267066713 
     8428.8     0.0445688814 
    8430.75     0.0442924239 
     8432.7     0.0374529995 
    8434.65     0.0248660371 
     8436.6     0.0314389393 
    8438.55     0.0337364897 
     8440.5     0.0309917405 
    8442.45     0.0134095335 
     8444.4     0.0149595076 
    8446.35     0.0246571787 
     8448.3     0.0196904689 
    8450.25     0.0357043035 
     8452.2     0.0257443395 
    8454.15     0.0139729716 
     8456.1    0.00846459903 
    8458.05     0.0347455218 
     8460.0     0.0334864929 
    8461.95     0.0421847478 
     8463.9      0.131555468 
    8465.85      0.109120108 
     8467.8     0.0593608133 
    8469.75     0.0494486801 
     8471.7     0.0116238995 
    8473.65     0.0276643038 
     8475.6     0.0245026015 
    8477.55     0.0151775563 
     8479.5     0.0324615724 
    8481.45    0.00790554844 
     8483.4   -0.00689225923 
    8485.35  -0.000402409001 
     8487.3     0.0130333994 
    8489.25     0.0171432719 
     8491.2     0.0405127555 
    8493.15     0.0627941489 
     8495.1     0.0273338575 
    8497.05    0.00581030548 
     8499.0     -0.014609254 
    8500.95   -0.00317383371 
     8502.9     0.0852570236 
    8504.85     0.0712968037 
     8506.8   -0.00202489644 
    8508.75     0.0322766006 
     8510.7      0.020258287 
    8512.65     0.0217975862 
     8514.6    0.00036921748 
    8516.55    0.00630235998 
     8518.5     0.0304913837 
    8520.45     0.0302027166 
     8522.4    0.00163876102 
    8524.35     0.0215900633 
     8526.3     0.0247611962 
    8528.25     0.0307015441 
     8530.2     0.0101551637 
    8532.15     0.0280519072 
