# STATUS =
# OBJECT = 2019neq
# TELESCOPE = LT
# INSTRUMENT = SPRAT
# DATE-OBS = 2019-08-27 21:08:25.00
# MJD = 58722.88084489992
# EXPTIME = 1800
# AIRMASS = --
# SLIT = --
# DISPERSER = --
# SOURCE = --
# FILTER =
# RESOLUTION =
# FLUX_STANDARD =
# EXTINCTION_CORRECTED = --
# PHOTOMETRY_CALIBRATED =
# TELLURIC_CORRECTED =
# FLUX_UNITS = erg cm(-2) sec(-1) Ang(-1)
# WAVE_UNITS = Angstrom
# QUALITY = --
# MIN_WAVE = 4020
# MAX_WAVE = 7994.4
# COMMENT = [TNS source group:  48 - ZTF ]
 Wavelength       Flux      Error 
     4029.2    1.65841    75.3015 
     4038.4    1.66688    75.3472 
     4047.6    1.44337    99.7781 
     4066.0    1.82675    86.8159 
     4075.2     1.6273    83.7019 
     4084.4    1.61289    80.1927 
     4102.8    1.55603    85.8491 
     4112.0    1.61446    90.0679 
     4121.2    1.70161    90.6422 
     4130.4    1.61256    86.6344 
     4139.6    1.58164    95.3502 
     4148.8    1.72053    89.7943 
     4158.0     1.6224    94.7877 
     4167.2    1.65893    103.717 
     4176.4    1.56467     104.49 
     4185.6    1.66724     106.84 
     4194.8    1.87487    96.6532 
     4204.0    1.63474    98.8257 
     4213.2    1.55934    102.993 
     4222.4    1.66442    113.012 
     4231.6     1.8105    98.6141 
     4240.8    1.55404    109.448 
     4250.0    1.57892    100.889 
     4259.2    1.52101    117.524 
     4268.4    1.60879    129.291 
     4277.6    1.49471    102.291 
     4286.8    1.50946    114.509 
     4296.0    1.54528    124.831 
     4305.2    1.63585    93.3776 
     4314.4    1.56686    116.193 
     4323.6    1.63222    115.133 
     4332.8    1.56405    114.255 
     4342.0    1.46111    124.807 
     4351.2    1.50655    129.691 
     4360.4    1.63039    147.463 
     4369.6    1.57744    133.602 
     4378.8    1.56397    128.517 
     4388.0     1.5562    125.483 
     4397.2    1.56352      118.1 
     4406.4       1.51    150.723 
     4415.6    1.58794    141.442 
     4424.8    1.52397    133.908 
     4434.0    1.49323    150.618 
     4443.2     1.5112    137.847 
     4452.4    1.47407    116.862 
     4461.6    1.47401    135.415 
     4470.8    1.44681    137.565 
     4480.0    1.36471    150.401 
     4489.2    1.29917    146.741 
     4498.4    1.33778    170.883 
     4507.6    1.38912    150.878 
     4516.8    1.32645     164.18 
     4526.0    1.30086    160.775 
     4535.2     1.3112     155.45 
     4544.4    1.27589    169.546 
     4553.6    1.32881    163.449 
     4562.8    1.36151    153.037 
     4572.0    1.34453    143.319 
     4581.2    1.30809    173.854 
     4590.4    1.32126    170.632 
     4599.6    1.25489    149.974 
     4608.8    1.29743    181.595 
     4618.0    1.34392    164.259 
     4627.2    1.31631    175.066 
     4636.4    1.35883    152.137 
     4645.6    1.24788    157.225 
     4654.8    1.30008    172.502 
     4664.0    1.29126    190.744 
     4673.2    1.29312    210.113 
     4682.4    1.27235    167.645 
     4691.6    1.28483    176.148 
     4700.8    1.29496    170.698 
     4710.0    1.17571    181.344 
     4719.2    1.24494    171.088 
     4728.4     1.2631    166.845 
     4737.6    1.26542     170.62 
     4746.8    1.22177    170.324 
     4756.0    1.21772    161.974 
     4765.2     1.1686    168.363 
     4774.4    1.15754    175.847 
     4783.6    1.22013    174.025 
     4792.8    1.17964    175.633 
     4802.0    1.24459    170.199 
     4811.2    1.17874    196.813 
     4820.4     1.1163    195.299 
     4829.6     1.1571    194.856 
     4838.8    1.17478    195.557 
     4848.0    1.16082    209.434 
     4857.2    1.18584    205.379 
     4866.4    1.18338     177.36 
     4875.6    1.24357     165.29 
     4884.8    1.21237     169.09 
     4894.0    1.25591    186.704 
     4903.2    1.26355    184.242 
     4912.4    1.20868    183.133 
     4921.6    1.24646    193.911 
     4930.8    1.21834    182.231 
     4940.0     1.2456    195.919 
     4949.2    1.18019    205.046 
     4958.4    1.26153    185.545 
     4967.6    1.27927    190.427 
     4976.8    1.21299    193.435 
     4986.0    1.21347    188.768 
     4995.2    1.18807    177.391 
     5004.4    1.19172    194.878 
     5013.6    1.19316    181.924 
     5022.8    1.21008    192.935 
     5032.0    1.20415    181.344 
     5041.2    1.15542    187.807 
     5050.4    1.17465    168.229 
     5059.6    1.19808    181.695 
     5068.8    1.12234    192.747 
     5078.0    1.18223    174.416 
     5087.2    1.16224    198.866 
     5096.4    1.17196    191.791 
     5105.6    1.19857    195.668 
     5114.8    1.20077    175.177 
     5124.0    1.20288    178.348 
     5133.2    1.22692    185.515 
     5142.4    1.18986    186.881 
     5151.6    1.24673    194.705 
     5160.8    1.22056     180.18 
     5170.0    1.23893    174.968 
     5179.2    1.24845    187.274 
     5188.4    1.20653    214.818 
     5197.6    1.21174    306.151 
     5206.8     1.2161    280.172 
     5216.0    1.21878    213.325 
     5225.2    1.26797    186.698 
     5234.4    1.17211     210.41 
     5243.6    1.25289    195.118 
     5252.8     1.2137    214.614 
     5262.0    1.13106    214.572 
     5271.2     1.1596    168.953 
     5280.4    1.14543    212.773 
     5289.6    1.14566    196.589 
     5298.8     1.1003    209.272 
     5308.0    1.07103    214.346 
     5317.2    1.08649      196.3 
     5326.4    1.05011    206.651 
     5335.6    1.05663    227.958 
     5344.8    1.08476    220.617 
     5354.0    1.01588    245.978 
     5363.2    1.01653    244.339 
     5372.4    1.07571    215.986 
     5381.6     1.1147     237.87 
     5390.8    1.00918     216.87 
     5400.0    1.02343    206.442 
     5409.2    1.02864     205.39 
     5418.4    1.00674    211.548 
     5427.6   0.987994    211.439 
     5436.8   0.998056    198.782 
     5446.0   0.992533    214.166 
     5455.2   0.976216    237.445 
     5464.4    1.02169    228.855 
     5473.6   0.991365    220.638 
     5482.8    1.08832    213.496 
     5492.0    1.05985     215.26 
     5501.2   0.969008    206.813 
     5510.4    1.00636     208.17 
     5519.6   0.919214    217.605 
     5528.8    1.01782    197.295 
     5538.0    1.14509    255.634 
     5547.2    1.13273    256.134 
     5556.4   0.935894     244.64 
     5565.6    0.88705    550.579 
     5574.8   0.968076    2593.67 
     5584.0   0.977207    2495.03 
     5593.2   0.938266    445.212 
     5602.4   0.907138    252.465 
     5611.6   0.896604    254.953 
     5620.8   0.917309    235.513 
     5630.0   0.892353    222.998 
     5639.2   0.905212    209.908 
     5648.4   0.891432    207.979 
     5657.6    0.89949    227.499 
     5666.8    0.89952    230.177 
     5676.0   0.883822    226.308 
     5685.2   0.887981    251.016 
     5694.4   0.894483     230.42 
     5703.6   0.850757    231.098 
     5712.8   0.949944     204.43 
     5722.0   0.876576    193.047 
     5731.2   0.892183    210.979 
     5740.4   0.851713    218.489 
     5749.6   0.837236    228.731 
     5758.8   0.817023    234.144 
     5768.0   0.867521    222.448 
     5777.2    0.85135    211.854 
     5786.4   0.845066    208.857 
     5795.6   0.825284    214.004 
     5804.8   0.856638    201.268 
     5814.0   0.871311    209.258 
     5823.2   0.822297    215.631 
     5832.4   0.841106    227.008 
     5841.6   0.812793    226.374 
     5850.8   0.818358    217.696 
     5860.0   0.828228    284.751 
     5869.2   0.800806    315.031 
     5878.4   0.808767    374.011 
     5887.6   0.773472    1039.52 
     5896.8   0.736767    1209.16 
     5906.0   0.735114    574.927 
     5915.2   0.781505    336.707 
     5924.4   0.779432    334.231 
     5933.6   0.831947    315.744 
     5942.8   0.785279    302.021 
     5952.0   0.737716     295.44 
     5961.2    0.76579    298.109 
     5970.4    0.79783    282.725 
     5979.6   0.749472    286.198 
     5988.8   0.722721    261.716 
     5998.0   0.780461    249.129 
     6007.2   0.826242    246.254 
     6016.4   0.782169    209.168 
     6025.6   0.767139    226.671 
     6034.8   0.791031    212.342 
     6044.0   0.713137    202.111 
     6053.2    0.78674    187.692 
     6062.4   0.785886    188.774 
     6071.6   0.772889    193.488 
     6080.8   0.769818     182.38 
     6090.0   0.753111    196.389 
     6099.2    0.71606    204.206 
     6108.4   0.746861    197.633 
     6117.6   0.735737    187.392 
     6126.8   0.751518    186.347 
     6136.0   0.730911    212.012 
     6145.2   0.719174     219.04 
     6154.4   0.749525    209.247 
     6163.6   0.758729    191.442 
     6172.8   0.802614     185.01 
     6182.0   0.727678    188.534 
     6191.2   0.719439    167.458 
     6200.4   0.765768     194.71 
     6209.6   0.724316    206.172 
     6218.8   0.750415    186.504 
     6228.0   0.758698    284.304 
     6237.2   0.727027    350.634 
     6246.4   0.717253    304.443 
     6255.6   0.733501    302.031 
     6264.8    0.70504    311.129 
     6274.0   0.693154    225.567 
     6283.2   0.681855    299.416 
     6292.4   0.678782    2882.47 
     6301.6   0.691789     3960.8 
     6310.8   0.727712    2047.58 
     6320.0   0.752912    268.725 
     6329.2   0.780083    258.317 
     6338.4   0.750925     222.12 
     6347.6   0.715152    214.868 
     6356.8   0.716194    1120.29 
     6366.0   0.757439    1351.08 
     6375.2   0.683939    636.791 
     6384.4   0.703738    197.921 
     6393.6   0.670354    184.688 
     6402.8   0.714604    131.737 
     6412.0   0.664311    164.213 
     6421.2   0.705805    138.071 
     6430.4   0.707666    134.235 
     6439.6   0.650657    119.864 
     6448.8   0.695901    113.547 
     6458.0   0.667271    208.555 
     6467.2   0.667055    251.186 
     6476.4   0.647516    195.409 
     6485.6   0.675503    152.912 
     6494.8   0.713015    231.969 
     6504.0   0.722692    248.116 
     6513.2   0.619943     159.96 
     6522.4   0.643814     160.33 
     6531.6   0.666551    220.085 
     6540.8   0.645783    224.705 
     6550.0   0.641647    230.207 
     6559.2   0.673622    281.229 
     6568.4   0.636418    256.865 
     6577.6   0.573157    205.466 
     6586.8   0.677533    132.535 
     6596.0   0.605001    148.574 
     6605.2   0.600621    134.742 
     6614.4   0.627138    108.656 
     6623.6   0.617696    106.621 
     6632.8   0.597688    119.971 
     6642.0   0.625503    84.2319 
     6651.2   0.595547    93.7411 
     6660.4   0.575484    100.841 
     6669.6   0.562051    104.624 
     6678.8   0.608036    78.0748 
     6688.0    0.58672    75.0977 
     6697.2   0.574431    88.2332 
     6706.4     0.5579    103.528 
     6715.6    0.56597    96.2485 
     6724.8   0.582809    75.3447 
     6734.0   0.693431    70.6343 
     6743.2   0.608838    67.9752 
     6752.4   0.612515    75.5389 
     6761.6    0.60204    52.7545 
     6770.8   0.631126    63.2205 
     6780.0   0.576196    78.4417 
     6789.2   0.574284    57.2909 
     6798.4    0.52302    65.8254 
     6807.6   0.521887    55.3173 
     6816.8   0.531199    96.4974 
     6826.0   0.582462    285.826 
     6835.2   0.558425    306.427 
     6844.4   0.562613    123.985 
     6853.6   0.567105    180.409 
     6862.8   0.519415    259.021 
     6872.0   0.469347     209.97 
     6881.2   0.442692    105.311 
     6890.4   0.550315    94.8976 
     6899.6    0.48532    108.375 
     6908.8   0.481437    143.035 
     6918.0    0.51248    211.648 
     6927.2   0.444858    174.199 
     6936.4   0.467386     112.08 
     6945.6   0.468196    195.354 
     6954.8   0.521985    143.546 
     6964.0   0.547517    81.5227 
     6973.2   0.493975    148.644 
     6982.4   0.551566    107.315 
     6991.6   0.497561    52.0741 
     7000.8   0.506979    64.3129 
     7010.0   0.502854    74.9592 
     7019.2   0.513831    54.7564 
     7028.4   0.501356    37.4172 
     7037.6   0.501745    54.2655 
     7046.8   0.512966    60.8772 
     7056.0   0.569207    53.5311 
     7065.2   0.556527    48.3157 
     7074.4   0.554547    38.1895 
     7083.6   0.535416    36.4827 
     7092.8   0.536254    33.7967 
     7102.0   0.501904    15.9544 
     7111.2   0.561576    24.9902 
     7120.4   0.497716    24.4786 
     7129.6   0.528126    31.4196 
     7138.8   0.504388    17.7226 
     7148.0   0.541381    30.2347 
     7157.2   0.570631    28.8202 
     7166.4   0.544179    20.4125 
     7175.6   0.455564    18.6597 
     7184.8   0.454945    9.12949 
     7194.0   0.459094   -5.95354 
     7203.2   0.456904   -17.6371 
     7212.4   0.533681   -13.5559 
     7221.6   0.568371   -1.78433 
     7230.8   0.549099    173.272 
     7240.0    0.45782    443.324 
     7249.2   0.560337    355.157 
     7258.4   0.759261    58.4512 
     7267.6   0.588399    250.217 
     7276.8   0.550154    389.481 
     7286.0   0.426163    249.546 
     7295.2   0.531004    95.1815 
     7304.4   0.489216    174.508 
     7313.6   0.521785    255.305 
     7322.8   0.500171      258.2 
     7332.0    0.50399    285.285 
     7341.2   0.466659    296.793 
     7350.4   0.466336    199.704 
     7359.6   0.497598    189.466 
     7368.8   0.481965    209.544 
     7378.0   0.439794    98.6911 
     7387.2   0.491845    63.7617 
     7396.4   0.506057    163.774 
     7405.6   0.501147    107.263 
     7414.8    0.21833     3.8063 
     7424.0   0.528513    15.7907 
     7433.2   0.526426    80.9179 
     7442.4   0.544025    28.5046 
     7451.6   0.392028   -17.0295 
     7460.8    0.45736    31.0476 
     7470.0   0.476388    113.585 
     7479.2   0.449992    108.622 
     7488.4      0.472    56.5988 
     7497.6   0.522591   -16.3864 
     7506.8   0.472942   -30.0595 
     7516.0   0.550375    89.7881 
     7525.2   0.531413    146.024 
     7534.4   0.509118    39.9396 
     7543.6   0.415794   -50.1912 
     7552.8   0.471294   -5.46572 
     7562.0   0.488478    55.3635 
     7571.2   0.432367    64.0771 
     7580.4   0.522234    44.7792 
     7589.6   0.472526    2.16998 
     7598.8   0.249086   -25.1757 
     7608.0   0.155986    -40.723 
     7617.2   0.279155   -32.3308 
     7626.4   0.284509   0.251823 
     7635.6   0.170769   -28.1398 
     7644.8   0.277058   -43.0953 
     7654.0     0.3408   -32.1892 
     7663.2   0.338535   -24.1195 
     7672.4   0.405711    -47.702 
     7690.8   0.471495   -24.7605 
     7700.0   0.425814    10.1621 
     7709.2   0.508121    225.401 
     7718.4   0.432035    281.657 
     7727.6   0.418637    60.1248 
     7736.8   0.314458    1.64686 
     7746.0   0.555096    146.173 
     7755.2     0.5754    188.648 
     7764.4   0.493892    46.2774 
     7773.6   0.529365    3.54656 
     7782.8   0.383246    42.6486 
     7792.0   0.426011    78.5888 
     7801.2   0.516255    70.8095 
     7810.4   0.425846    41.6787 
     7819.6    0.40881    84.3886 
     7828.8   0.460157    38.9405 
     7838.0   0.369309    -10.886 
     7847.2   0.519985    111.717 
     7856.4   0.452601    128.242 
     7865.6  0.0873093     92.087 
     7874.8   0.407638    53.3582 
     7884.0   0.436736    43.4889 
     7893.2   0.601964   -14.7756 
     7902.4   0.232121   -2.94159 
     7911.6    0.49251    93.3111 
     7920.8   0.380006    110.405 
     7939.2   0.124444   -6.44211 
     7948.4   0.186785   -59.8133 
     7957.6   0.347076  -0.218233 
     7966.8   0.269815     41.876 
     7976.0    0.19395     2.8765 
     7985.2   0.576644    21.6035 
     7994.4   0.432289    18.0569 
