# STATUS =
# OBJECT = 2019dlr
# TELESCOPE = Keck1
# INSTRUMENT = LRIS
# DATE-OBS = 2019-07-02 00:00:00.000
# MJD = 58666.0
# EXPTIME =
# AIRMASS =
# SLIT =
# DISPERSER =
# SOURCE = DOI 10.3847/1538-4357/aca161
# FILTER =
# RESOLUTION =
# FLUX_STANDARD =
# EXTINCTION_CORRECTED =
# PHOTOMETRY_CALIBRATED =
# TELLURIC_CORRECTED =
# FLUX_UNITS =
# WAVE_UNITS =
# QUALITY =
# MIN_WAVE = 3094.2539
# MAX_WAVE = 10306.373
# COMMENT =
 Wavelength          Flux 
  3096.2051  -4.87087e-17 
  3098.1565  -4.60109e-17 
  3100.1089  -3.88097e-18 
  3102.0618  -6.26977e-18 
  3104.0154  -2.09934e-17 
  3105.9695   -1.4025e-18 
  3107.9243  -6.41566e-18 
  3109.8796   6.34814e-18 
  3111.8357   1.38015e-17 
  3113.7922    4.2467e-18 
  3115.7495   4.83165e-18 
  3117.7073  -1.59696e-17 
  3119.6658  -2.11828e-17 
  3121.6248   1.58217e-18 
  3123.5845   2.64847e-17 
  3125.5449   1.89565e-17 
  3127.5056   2.90181e-17 
  3129.4673  -2.18207e-17 
  3131.4294  -8.13611e-18 
  3133.3921   1.03374e-17 
  3135.3555  -1.15376e-17 
  3137.3196   1.15112e-17 
  3139.2839   3.00225e-18 
  3141.2493  -1.09163e-18 
  3143.2151  -5.73629e-18 
  3145.1814    4.1969e-18 
  3147.1482  -1.19426e-17 
   3149.116   1.17445e-18 
   3151.084   8.44178e-18 
   3153.053   1.47547e-17 
  3155.0222    1.1661e-17 
  3156.9922  -1.67966e-17 
  3158.9629  -6.63094e-18 
  3160.9338   8.01747e-18 
  3162.9058   4.15794e-18 
  3164.8779  -1.18617e-18 
  3166.8511   2.18031e-18 
  3168.8245  -8.27025e-18 
  3170.7986  -4.75927e-18 
  3172.7732  -2.68294e-18 
  3174.7485   1.14547e-17 
  3176.7246    2.1674e-17 
  3178.7009  -1.10227e-17 
   3180.678  -1.69753e-18 
  3182.6558  -9.33863e-19 
  3184.6338   6.03742e-19 
  3186.6128  -2.71961e-19 
   3188.592   7.76296e-18 
   3190.572  -3.33448e-18 
  3192.5525   1.28554e-17 
  3194.5337   1.06497e-17 
  3196.5154    3.1106e-18 
  3198.4978   9.13482e-18 
  3200.4807   5.62863e-19 
  3202.4641  -1.12977e-17 
   3204.448   8.32181e-18 
  3206.4326  -1.15723e-17 
  3208.4177   4.56091e-18 
  3210.4036  -4.81902e-19 
  3212.3899   1.38742e-18 
  3214.3767  -3.26504e-18 
   3216.364   7.30569e-19 
  3218.3521   2.15109e-18 
  3220.3406   1.48166e-17 
  3222.3296  -4.08102e-18 
  3224.3193   6.55022e-18 
  3226.3098  -1.41252e-18 
  3228.3005   3.25933e-19 
   3230.292   4.91511e-19 
  3232.2837   6.09799e-18 
  3234.2764   5.99039e-18 
  3236.2693   4.66269e-18 
  3238.2629  -5.16415e-18 
  3240.2571  -7.24606e-19 
  3242.2517  -6.61093e-18 
  3244.2471   7.05127e-18 
  3246.2429    7.3453e-19 
  3248.2393  -3.28056e-18 
  3250.2363   2.38293e-18 
  3252.2339   9.64004e-18 
  3254.2317    2.4227e-18 
  3256.2305   9.50786e-18 
  3258.2295   9.57846e-18 
  3260.2292   7.24487e-18 
  3262.2295  -5.53251e-18 
  3264.2302  -3.09285e-18 
  3266.2314    1.0474e-18 
  3268.2334  -1.28819e-18 
  3270.2358  -1.23213e-18 
  3272.2388   -3.1643e-18 
  3274.2422   4.95746e-18 
  3276.2463   7.82334e-18 
   3278.251  -3.16521e-18 
  3280.2561   6.16966e-18 
  3282.2617   6.68625e-18 
  3284.2678   6.90909e-18 
  3286.2744   5.33024e-18 
  3288.2817   8.21673e-20 
  3290.2896  -4.11085e-18 
  3292.2979   1.54809e-17 
  3294.3066   2.44757e-18 
  3296.3162  -1.68375e-19 
  3298.3259  -3.56545e-18 
  3300.3364    7.6561e-18 
  3302.3474   9.41495e-18 
  3304.3589   1.03398e-17 
  3306.3708   6.28165e-18 
  3308.3833    9.7402e-18 
  3310.3965   5.99982e-18 
  3312.4102   3.05773e-18 
  3314.4243   3.84708e-18 
   3316.439   4.92593e-18 
  3318.4541   1.20158e-17 
  3320.4697    2.1787e-18 
  3322.4858   3.38275e-18 
  3324.5027   8.03311e-19 
  3326.5198   7.41565e-18 
  3328.5376  -1.71298e-18 
  3330.5559   2.15524e-18 
  3332.5747  -1.24641e-18 
   3334.594   5.23398e-18 
  3336.6138   4.23931e-18 
   3338.634   -2.3883e-18 
  3340.6548   8.65278e-18 
  3342.6763   3.09932e-18 
   3344.698   1.50887e-18 
  3346.7205   3.32475e-18 
  3348.7432  -3.01608e-18 
  3350.7666   3.87602e-18 
  3352.7905   3.14926e-18 
  3354.8147  -2.04947e-18 
  3356.8396   7.75514e-18 
   3358.865   3.03736e-18 
  3360.8911  -7.26188e-20 
  3362.9175   2.99108e-18 
  3364.9443  -1.68695e-18 
  3366.9717   7.57678e-18 
  3368.9995   7.19239e-19 
  3371.0278   2.96741e-18 
  3373.0569   4.69708e-18 
  3375.0862   9.48715e-18 
   3377.116   3.99004e-18 
  3379.1465   2.79055e-18 
  3381.1772   4.85783e-19 
  3383.2085   7.99816e-18 
  3385.2405   6.16962e-18 
  3387.2727  -2.50542e-18 
  3389.3057   3.69577e-18 
  3391.3389   2.29426e-18 
  3393.3726  -1.15483e-18 
   3395.407  -6.56571e-19 
  3397.4417   -9.3561e-19 
  3399.4768   7.21382e-18 
  3401.5127  -3.00237e-18 
  3403.5488   4.64256e-18 
  3405.5857   9.48873e-19 
  3407.6228   8.99908e-18 
  3409.6604   2.92958e-18 
  3411.6985   4.98707e-19 
  3413.7373   3.41888e-18 
  3415.7764  -7.58431e-20 
  3417.8159  -1.40928e-18 
   3419.856   5.12098e-18 
  3421.8965  -7.83662e-20 
  3423.9375   1.48529e-18 
   3425.979  -2.65828e-18 
   3428.021  -3.78892e-20 
  3430.0632   2.75321e-18 
  3432.1062   4.90959e-18 
  3434.1494  -3.99077e-20 
  3436.1934  -1.46206e-18 
  3438.2378   7.43856e-19 
  3440.2825   3.70863e-18 
  3442.3276   2.09362e-18 
  3444.3733   1.22492e-18 
  3446.4194   2.88844e-18 
  3448.4661   7.45531e-20 
  3450.5132  -1.50168e-18 
  3452.5608   2.37472e-18 
  3454.6089   3.93179e-18 
  3456.6572    1.7129e-18 
  3458.7063   3.18467e-18 
  3460.7556   3.12118e-18 
  3462.8054   1.87402e-18 
  3464.8557   1.96076e-18 
  3466.9065   3.83632e-18 
  3468.9578   6.76013e-18 
  3471.0095   5.76765e-18 
  3473.0615   7.63363e-19 
   3475.114  -4.15898e-19 
  3477.1672   2.59115e-18 
  3479.2207   1.85551e-18 
  3481.2747   4.86329e-18 
  3483.3291   1.17877e-18 
  3485.3838   4.48445e-18 
  3487.4392   1.53064e-18 
  3489.4949   4.66999e-18 
   3491.551  -1.21658e-18 
  3493.6077   2.23884e-18 
  3495.6648   5.53461e-18 
  3497.7222     2.921e-18 
  3499.7803     3.071e-19 
  3501.8386  -3.36729e-19 
  3503.8975   5.05095e-18 
  3505.9568  -2.02722e-18 
  3508.0164   5.65865e-18 
  3510.0767   2.03776e-18 
  3512.1372   2.91105e-18 
  3514.1982  -9.89031e-20 
  3516.2595     1.952e-18 
  3518.3215   2.70033e-18 
  3520.3838   5.31143e-19 
  3522.4465   3.30058e-18 
    3524.51    1.8469e-18 
  3526.5735   2.39029e-18 
  3528.6377   6.93591e-18 
  3530.7019   6.14729e-18 
  3532.7671   3.79303e-19 
  3534.8323   4.43344e-18 
  3536.8982   1.92647e-18 
  3538.9644   2.97553e-18 
   3541.031   1.85556e-18 
  3543.0979   2.35973e-18 
  3545.1655   3.12639e-18 
  3547.2334   1.25216e-18 
  3549.3018  -4.83933e-19 
  3551.3706   9.25261e-19 
  3553.4397    3.9075e-18 
  3555.5093   2.32232e-18 
  3557.5793   6.04027e-18 
  3559.6497   5.74125e-18 
  3561.7207   1.80213e-18 
  3563.7917   5.41437e-18 
  3565.8635   4.37205e-18 
  3567.9355   1.85183e-18 
  3570.0081   1.57099e-18 
  3572.0811   2.92694e-18 
  3574.1543   2.55831e-18 
   3576.228  -1.39203e-18 
  3578.3022  -6.00977e-20 
   3580.377   6.14286e-19 
  3582.4519   1.43099e-18 
  3584.5273  -7.39508e-19 
   3586.603   1.56669e-18 
  3588.6792  -1.98558e-18 
  3590.7559   2.84403e-18 
   3592.833   3.01298e-18 
  3594.9104   3.86874e-18 
  3596.9883   4.01785e-18 
  3599.0664   4.97066e-18 
   3601.145   3.11345e-18 
  3603.2241   2.29125e-18 
  3605.3035   1.33408e-18 
  3607.3833   5.84095e-18 
  3609.4636    3.3993e-18 
  3611.5442   2.05673e-18 
  3613.6252   3.69226e-18 
  3615.7068   4.91072e-18 
  3617.7886   2.48744e-18 
  3619.8708   1.54942e-18 
  3621.9534    2.4813e-18 
  3624.0364   2.98514e-18 
  3626.1199   1.19674e-18 
  3628.2036   6.35379e-18 
  3630.2878   2.16096e-18 
  3632.3723   2.35972e-18 
  3634.4573   2.42446e-18 
  3636.5427   -6.3913e-19 
  3638.6284   4.33865e-18 
  3640.7146   2.40657e-18 
   3642.801  -1.57509e-20 
  3644.8879   2.48702e-18 
  3646.9753   1.57844e-18 
   3649.063    6.5962e-19 
  3651.1509   4.90234e-19 
  3653.2395    3.9141e-19 
  3655.3284   2.32121e-18 
  3657.4175   1.38105e-18 
  3659.5071   3.56011e-18 
  3661.5969   7.05871e-19 
  3663.6873   1.70913e-18 
  3665.7781   2.60862e-18 
  3667.8691   1.86545e-18 
  3669.9607   1.68017e-18 
  3672.0525   1.98092e-18 
  3674.1448   3.49352e-18 
  3676.2373   1.23043e-18 
  3678.3303   4.44394e-18 
  3680.4236   4.87053e-18 
  3682.5173   7.77235e-19 
  3684.6113   6.34359e-19 
  3686.7058   1.65751e-18 
  3688.8008   1.48705e-18 
   3690.896   1.27238e-18 
  3692.9915   3.04413e-18 
  3695.0874   8.45173e-19 
  3697.1836   2.83643e-18 
  3699.2803    2.3338e-18 
  3701.3772   2.67637e-18 
  3703.4746   4.11196e-18 
  3705.5725   2.75584e-18 
  3707.6707   2.97824e-18 
   3709.769    2.1809e-18 
  3711.8679   2.29498e-18 
   3713.967   4.92103e-18 
  3716.0667   1.91929e-18 
  3718.1665   2.82072e-18 
  3720.2668   2.86808e-18 
  3722.3674   1.62402e-18 
  3724.4685   1.55088e-18 
  3726.5696   2.71679e-18 
  3728.6714   2.07338e-18 
  3730.7734   4.83092e-18 
   3732.876   4.00367e-18 
  3734.9785   2.55304e-18 
  3737.0818   5.57669e-18 
  3739.1853   2.12356e-18 
  3741.2891   1.94443e-18 
  3743.3931    2.0636e-18 
  3745.4976   2.91357e-18 
  3747.6025   3.24546e-18 
  3749.7078   3.72898e-18 
  3751.8132   2.55417e-18 
  3753.9192   4.41772e-18 
  3756.0254   4.26887e-18 
  3758.1318   2.25511e-18 
   3760.239   4.78003e-18 
  3762.3462   1.69985e-18 
  3764.4536   4.47265e-18 
  3766.5618   2.63555e-18 
  3768.6699   3.47488e-18 
  3770.7786    1.9156e-18 
  3772.8877   3.06048e-18 
  3774.9968   1.47096e-18 
  3777.1064   2.47532e-18 
  3779.2166   4.83153e-18 
  3781.3269   3.80593e-18 
  3783.4375   3.10126e-19 
  3785.5483    2.1491e-18 
  3787.6597   2.89153e-18 
  3789.7715   1.25751e-18 
  3791.8833   1.44764e-18 
  3793.9956   3.31091e-18 
  3796.1084   3.90795e-18 
  3798.2212   1.89961e-18 
  3800.3347   1.73751e-18 
  3802.4482   3.17695e-18 
  3804.5623   3.34643e-18 
  3806.6765    2.3554e-18 
   3808.791   5.64185e-19 
   3810.906   2.01899e-18 
  3813.0212    2.9864e-18 
   3815.137   1.71935e-18 
  3817.2527   2.64795e-18 
  3819.3689   4.00186e-18 
  3821.4856   3.13025e-18 
  3823.6023   3.74817e-18 
  3825.7195   2.65083e-18 
  3827.8372   3.34762e-18 
  3829.9551    3.6855e-18 
   3832.073   9.48456e-19 
  3834.1917   5.05774e-18 
  3836.3103   4.16246e-18 
  3838.4294   1.51181e-18 
  3840.5488   4.68263e-18 
  3842.6687   5.85756e-18 
  3844.7888   1.82328e-18 
  3846.9092   4.86773e-18 
  3849.0298   3.44647e-18 
  3851.1506   2.03396e-18 
   3853.272   2.09493e-18 
  3855.3936   3.01702e-18 
  3857.5154   3.69883e-18 
  3859.6377    2.1485e-18 
  3861.7603   3.16613e-18 
  3863.8831    1.9061e-18 
  3866.0063   4.46729e-18 
  3868.1296   1.60165e-18 
  3870.2534   4.17435e-18 
  3872.3774   2.94259e-18 
   3874.502   1.25653e-18 
  3876.6267   5.89702e-18 
  3878.7515   4.76707e-18 
  3880.8767   9.76026e-19 
  3883.0024   2.95821e-18 
  3885.1284   3.67866e-18 
  3887.2544   2.85156e-18 
  3889.3809   3.15827e-18 
  3891.5078   4.40112e-18 
  3893.6348   4.85415e-18 
  3895.7622   3.46781e-18 
  3897.8899   4.91829e-18 
  3900.0176   2.51547e-18 
   3902.146   4.06705e-18 
  3904.2744   3.94435e-18 
  3906.4033   3.50911e-18 
  3908.5325   3.76374e-18 
  3910.6619   3.58578e-19 
  3912.7915   1.18531e-18 
  3914.9216    3.2147e-18 
   3917.052   4.14665e-18 
  3919.1826   2.79613e-18 
  3921.3135   1.60537e-18 
  3923.4446   3.26736e-18 
  3925.5759   4.48612e-18 
  3927.7078   3.07959e-18 
  3929.8396   3.44505e-18 
  3931.9719    1.1025e-18 
  3934.1045   2.23407e-18 
  3936.2375   2.59221e-18 
  3938.3706   3.80353e-18 
  3940.5039   1.96472e-18 
  3942.6377   -5.1407e-19 
  3944.7717   3.76743e-18 
   3946.906   4.50557e-18 
  3949.0405   3.80051e-18 
  3951.1753   4.60951e-18 
  3953.3105   4.10436e-18 
  3955.4458   3.80629e-18 
  3957.5815   1.92937e-18 
  3959.7175   3.85291e-18 
  3961.8538   5.71248e-18 
  3963.9902   3.15564e-18 
   3966.127   4.47147e-18 
  3968.2639   3.14268e-18 
  3970.4014   2.26814e-18 
  3972.5388   1.50917e-18 
  3974.6768   1.58145e-18 
  3976.8149   3.51514e-18 
  3978.9534   5.78007e-18 
  3981.0918   4.70315e-18 
   3983.231   4.86487e-18 
  3985.3701   5.71391e-18 
  3987.5095   4.69926e-18 
  3989.6494   3.30988e-18 
  3991.7893   5.94182e-18 
  3993.9294   5.04674e-18 
  3996.0701   4.30042e-18 
  3998.2107   3.20419e-18 
  4000.3518   4.35562e-18 
  4002.4932   2.72469e-18 
  4004.6348   3.13784e-18 
  4006.7766    2.9594e-18 
  4008.9187   3.82282e-18 
   4011.061   4.29914e-18 
  4013.2036   5.47418e-18 
  4015.3467   2.81247e-18 
  4017.4897   6.15028e-19 
  4019.6331   4.92633e-18 
  4021.7766   4.51384e-18 
  4023.9207   4.87191e-18 
  4026.0647   4.65855e-18 
  4028.2092   1.89467e-18 
   4030.354   3.82271e-18 
  4032.4988   2.88955e-18 
   4034.644   3.40127e-18 
  4036.7893   2.59574e-18 
  4038.9351   3.48645e-18 
  4041.0811   3.88557e-18 
  4043.2273   3.94543e-18 
  4045.3735   5.40176e-18 
  4047.5203   4.57706e-18 
  4049.6672   2.73259e-18 
  4051.8142   3.50924e-18 
  4053.9617   3.21946e-18 
  4056.1094   3.62394e-18 
  4058.2573   3.95039e-18 
  4060.4055   5.00295e-18 
  4062.5537   1.87873e-18 
  4064.7024    4.1498e-18 
  4066.8513   5.63891e-18 
  4069.0005   2.65481e-18 
  4071.1499   5.10685e-18 
  4073.2993   1.94039e-18 
  4075.4492   3.31721e-18 
  4077.5994   4.63798e-18 
  4079.7498   3.73297e-18 
  4081.9001    4.1285e-18 
   4084.051    4.6177e-18 
  4086.2021   2.28377e-18 
  4088.3533   3.60142e-18 
  4090.5049   4.90907e-18 
  4092.6565   2.37656e-18 
  4094.8086   4.36535e-18 
  4096.9609   2.11346e-18 
  4099.1133   4.74672e-18 
  4101.2656   4.30506e-18 
  4103.4185   4.66328e-18 
  4105.5718   3.14451e-18 
  4107.7251   3.48347e-18 
  4109.8789   3.50469e-18 
  4112.0327   3.69334e-18 
  4114.1865   3.47662e-18 
  4116.3408   2.37768e-18 
  4118.4956   5.62259e-18 
  4120.6504   3.14925e-18 
  4122.8052   4.36921e-18 
  4124.9604   4.18825e-18 
  4127.1157   4.52432e-18 
  4129.2715    3.4827e-18 
  4131.4272   4.94349e-18 
  4133.5835   4.38664e-18 
  4135.7397   4.79125e-18 
   4137.896   2.88137e-18 
  4140.0527   2.95358e-18 
    4142.21    5.5229e-18 
  4144.3672    3.2712e-18 
  4146.5244   1.48708e-18 
  4148.6821   4.23457e-18 
  4150.8398   4.03445e-18 
   4152.998   2.17872e-18 
  4155.1562   3.06795e-18 
  4157.3149   3.48333e-18 
  4159.4736   4.98629e-18 
  4161.6323   4.63692e-18 
  4163.7915   3.86001e-18 
  4165.9507   3.50692e-18 
  4168.1104   4.23051e-18 
    4170.27   9.31077e-20 
  4172.4302   4.00255e-18 
  4174.5903   3.39676e-18 
  4176.7505   2.80484e-18 
  4178.9111    9.2081e-19 
  4181.0723   5.38288e-18 
  4183.2329   3.64137e-18 
  4185.3945   3.04652e-18 
  4187.5557   3.93752e-18 
  4189.7173   3.08799e-18 
  4191.8794   4.09059e-18 
  4194.0415   4.13672e-18 
  4196.2036   4.04948e-18 
  4198.3662   3.42379e-18 
  4200.5288   2.03959e-18 
  4202.6919   3.00609e-18 
   4204.855   2.00874e-18 
  4207.0181    3.4467e-18 
  4209.1816   2.69887e-18 
  4211.3452   4.19697e-18 
  4213.5093   3.57267e-18 
  4215.6733   3.58671e-18 
  4217.8374   2.49026e-18 
   4220.002   4.70105e-18 
  4222.1665   3.40925e-18 
  4224.3315   4.25753e-18 
  4226.4966   3.66304e-18 
  4228.6616   5.99182e-18 
  4230.8271   5.65366e-18 
  4232.9932   6.22003e-18 
  4235.1587   3.21927e-18 
  4237.3247   4.25463e-18 
  4239.4912   3.56124e-18 
  4241.6577   4.15358e-18 
  4243.8242   1.87916e-18 
  4245.9907   2.78797e-18 
  4248.1582   2.43463e-18 
  4250.3252   4.10828e-18 
  4252.4927   3.76335e-18 
  4254.6602   4.10285e-18 
  4256.8281   5.92258e-18 
  4258.9956   4.05048e-18 
  4261.1641   5.25207e-18 
  4263.3325   4.57462e-18 
   4265.501   2.68896e-18 
  4267.6694   4.77216e-18 
  4269.8384    4.8675e-18 
  4272.0073   4.21272e-18 
  4274.1768   3.63367e-18 
  4276.3462   4.34167e-18 
  4278.5156   3.24267e-18 
  4280.6855   5.00984e-18 
  4282.8555   4.48047e-18 
  4285.0254   3.16131e-18 
  4287.1958   4.36033e-18 
  4289.3662   3.77257e-18 
  4291.5371   4.06203e-18 
   4293.708   4.54341e-18 
  4295.8789   4.35038e-18 
  4298.0503   4.24483e-18 
  4300.2217   3.79147e-18 
  4302.3931   6.48791e-18 
  4304.5649   3.13616e-18 
  4306.7368   3.40403e-18 
  4308.9092   5.77715e-18 
  4311.0811   4.22637e-18 
  4313.2539   4.72155e-18 
  4315.4263   3.45272e-18 
  4317.5991   4.12336e-18 
   4319.772   5.23852e-18 
  4321.9453   6.30805e-18 
  4324.1187   5.19365e-18 
   4326.292   4.02678e-18 
  4328.4658   4.03836e-18 
  4330.6392   3.69871e-18 
  4332.8135   5.12051e-18 
  4334.9873   5.99678e-18 
  4337.1616   3.82407e-18 
  4339.3364   4.41659e-18 
  4341.5112   3.12295e-18 
   4343.686    3.5277e-18 
  4345.8608   5.56755e-18 
  4348.0361   6.13293e-18 
  4350.2114   2.29218e-18 
  4352.3867   2.45116e-18 
  4354.5625    3.3379e-18 
  4356.7378   4.15573e-18 
  4358.9141   2.83829e-18 
  4361.0903   2.48378e-18 
  4363.2666   4.20786e-18 
  4365.4429   6.06395e-18 
  4367.6196   3.45817e-18 
  4369.7959   5.44237e-18 
  4371.9731   6.82213e-18 
  4374.1499   6.65488e-18 
  4376.3271   4.82375e-18 
  4378.5049   6.02253e-18 
  4380.6821   5.68129e-18 
  4382.8599   2.78206e-18 
  4385.0376   5.00696e-18 
  4387.2158    4.1555e-18 
   4389.394   5.55496e-18 
  4391.5723   4.46278e-18 
  4393.7505   2.31558e-18 
  4395.9292    5.8893e-18 
  4398.1079   5.16799e-18 
  4400.2871   3.82286e-18 
  4402.4658   6.41917e-18 
   4404.645   4.83897e-18 
  4406.8247   4.68622e-18 
  4409.0039   4.19781e-18 
  4411.1836   5.12803e-18 
  4413.3633   4.04157e-18 
  4415.5435   2.47199e-18 
  4417.7236   4.25076e-18 
  4419.9038    3.5965e-18 
   4422.084    3.9102e-18 
  4424.2646   3.63072e-18 
  4426.4453   5.14946e-18 
   4428.626   4.94148e-18 
  4430.8071   4.30793e-18 
  4432.9883   5.67616e-18 
  4435.1694   5.03119e-18 
  4437.3506   3.90229e-18 
  4439.5322   4.56708e-18 
  4441.7139   4.15096e-18 
   4443.896   4.43842e-18 
  4446.0776   5.57989e-18 
  4448.2598   5.44715e-18 
  4450.4419   3.96216e-18 
  4452.6245   6.60459e-18 
  4454.8071   6.24994e-18 
  4456.9897   4.15896e-18 
  4459.1724   5.96671e-18 
  4461.3555    3.7644e-18 
  4463.5381   7.10626e-18 
  4465.7217   5.67175e-18 
  4467.9048   5.10866e-18 
  4470.0884   5.84564e-18 
   4472.272   3.80009e-18 
  4474.4556   5.37137e-18 
  4476.6392   4.73608e-18 
  4478.8232   4.80834e-18 
  4481.0073   6.75664e-18 
  4483.1919   4.30969e-18 
   4485.376    3.3881e-18 
  4487.5605   5.72301e-18 
  4489.7451   4.33436e-18 
  4491.9297   5.58397e-18 
  4494.1147   3.99852e-18 
  4496.2998   3.99723e-18 
  4498.4849   4.89114e-18 
  4500.6704   3.45547e-18 
  4502.8555   4.92474e-18 
   4505.041   5.19647e-18 
  4507.2266   8.92196e-18 
  4509.4126   5.61266e-18 
  4511.5986   3.23341e-18 
  4513.7842   3.39771e-18 
  4515.9707   4.39225e-18 
  4518.1567   3.74441e-18 
  4520.3433   6.08327e-18 
  4522.5298   5.12842e-18 
  4524.7163   4.83586e-18 
  4526.9033   4.86637e-18 
  4529.0898   6.10089e-18 
  4531.2769   3.14444e-18 
  4533.4639   5.29772e-18 
  4535.6514   5.75795e-18 
  4537.8384   4.73588e-18 
  4540.0259   4.73573e-18 
  4542.2134   3.06443e-18 
  4544.4014   4.96146e-18 
  4546.5889   3.33029e-18 
  4548.7769   5.32637e-18 
  4550.9648   5.92594e-18 
  4553.1533   7.94167e-18 
  4555.3413    4.1329e-18 
  4557.5298   3.74068e-18 
  4559.7183   4.24938e-18 
  4561.9067   6.14974e-18 
  4564.0957   5.27161e-18 
  4566.2842   4.78283e-18 
  4568.4736   3.46375e-18 
  4570.6626   4.84133e-18 
  4572.8516   6.16345e-18 
   4575.041   4.58592e-18 
    4577.23   7.03077e-18 
  4579.4199   5.74788e-18 
  4581.6094   4.90262e-18 
  4583.7988    4.1003e-18 
  4585.9888   4.26082e-18 
  4588.1787   4.25632e-18 
  4590.3687   7.22937e-18 
  4592.5586   5.04483e-18 
   4594.749    4.9393e-18 
  4596.9395   4.32222e-18 
  4599.1299    4.5852e-18 
  4601.3203   3.73786e-18 
  4603.5112   4.61799e-18 
  4605.7017   4.79695e-18 
  4607.8926   5.41563e-18 
  4610.0835   5.25377e-18 
  4612.2744   7.38686e-18 
  4614.4658   4.77823e-18 
  4616.6572   5.49874e-18 
  4618.8481   6.65662e-18 
    4621.04   5.33289e-18 
  4623.2314   3.97342e-18 
  4625.4229   5.90048e-18 
  4627.6147   5.37046e-18 
  4629.8066   5.20749e-18 
  4631.9985   5.22115e-18 
  4634.1904   5.28634e-18 
  4636.3828   5.83861e-18 
  4638.5747    7.3307e-18 
  4640.7671   4.99627e-18 
  4642.9595   6.05896e-18 
  4645.1523   5.27395e-18 
  4647.3447    5.9057e-18 
  4649.5376   4.79195e-18 
    4651.73    5.7751e-18 
  4653.9233   4.41321e-18 
  4656.1162   3.70418e-18 
  4658.3091   6.04835e-18 
  4660.5024   5.79478e-18 
  4662.6953   6.94975e-18 
  4664.8887   6.84872e-18 
  4667.0825    5.9491e-18 
  4669.2759   6.26312e-18 
  4671.4692   6.59771e-18 
  4673.6631   5.43162e-18 
  4675.8569   6.57683e-18 
  4678.0508   6.86313e-18 
  4680.2446   6.49804e-18 
  4682.4385   5.18207e-18 
  4684.6328   7.96164e-18 
  4686.8271   5.72704e-18 
  4689.0215   4.94827e-18 
  4691.2158   6.39847e-18 
  4693.4102   6.42652e-18 
  4695.6045   8.31692e-18 
  4697.7993   6.75109e-18 
  4699.9941    6.1657e-18 
   4702.189   6.08028e-18 
  4704.3838   6.13674e-18 
  4706.5786   4.85059e-18 
  4708.7739   5.64598e-18 
  4710.9688   7.16928e-18 
  4713.1641   7.00581e-18 
  4715.3594   4.78907e-18 
  4717.5547   5.74436e-18 
    4719.75   5.73744e-18 
  4721.9458   6.64202e-18 
  4724.1411    6.4726e-18 
  4726.3369   4.39492e-18 
  4728.5327   5.35754e-18 
  4730.7285   5.35463e-18 
  4732.9243   4.73707e-18 
  4735.1201   8.05465e-18 
  4737.3164   6.66616e-18 
  4739.5127   4.88956e-18 
  4741.7085   6.91198e-18 
  4743.9048   5.25135e-18 
  4746.1011    7.4633e-18 
  4748.2979   6.50413e-18 
  4750.4941   4.89857e-18 
  4752.6909   4.78144e-18 
  4754.8872    4.9792e-18 
   4757.084   5.17635e-18 
  4759.2808   5.21971e-18 
  4761.4775    6.4894e-18 
  4763.6748   4.99829e-18 
  4765.8716   5.25545e-18 
  4768.0684   5.41355e-18 
  4770.2656   5.72118e-18 
  4772.4629   5.52355e-18 
  4774.6602   7.23147e-18 
  4776.8574   4.99716e-18 
  4779.0547   4.12526e-18 
  4781.2524   5.25315e-18 
  4783.4497   6.77938e-18 
  4785.6475   6.73841e-18 
  4787.8452    7.1942e-18 
   4790.043   4.11687e-18 
  4792.2407   7.26307e-18 
  4794.4385   5.93341e-18 
  4796.6362   6.24351e-18 
  4798.8345   7.39373e-18 
  4801.0322   6.83854e-18 
  4803.2305    5.7965e-18 
  4805.4287   5.17689e-18 
   4807.627   5.81606e-18 
  4809.8252   5.69396e-18 
  4812.0234   6.90119e-18 
  4814.2217   6.21501e-18 
  4816.4204   7.17556e-18 
  4818.6187   7.80559e-18 
  4820.8174   5.68179e-18 
  4823.0161   6.81831e-18 
  4825.2148   5.60823e-18 
  4827.4136   4.98038e-18 
  4829.6123    5.3251e-18 
   4831.811   7.43887e-18 
  4834.0098   6.38509e-18 
   4836.209   4.47692e-18 
  4838.4082    6.3332e-18 
  4840.6069   8.35256e-18 
  4842.8062   6.49537e-18 
  4845.0054   6.27986e-18 
  4847.2046   4.78023e-18 
  4849.4038    7.4743e-18 
  4851.6035   6.41257e-18 
  4853.8027   6.63664e-18 
  4856.0024   5.81226e-18 
  4858.2017   6.89798e-18 
  4860.4014   5.39748e-18 
  4862.6011   6.66041e-18 
  4864.8003   3.83612e-18 
  4867.0005   5.42041e-18 
  4869.2002   7.51409e-18 
  4871.3999   6.30188e-18 
  4873.5996   7.59524e-18 
  4875.7998   5.78889e-18 
  4877.9995   6.74949e-18 
  4880.1997    7.5661e-18 
  4882.3994   8.68705e-18 
  4884.5996   6.58845e-18 
  4886.7998   9.07308e-18 
     4889.0   6.85963e-18 
  4891.2002   7.92275e-18 
  4893.4004   7.67786e-18 
  4895.6011   5.64974e-18 
  4897.8013   9.38849e-18 
  4900.0015   7.10938e-18 
  4902.2021   8.31188e-18 
  4904.4028   6.82768e-18 
   4906.603   9.06984e-18 
  4908.8037   8.86459e-18 
  4911.0044   7.92651e-18 
  4913.2051   7.79307e-18 
  4915.4058   8.31097e-18 
  4917.6064   8.66184e-18 
  4919.8071   5.92664e-18 
  4922.0083   7.47468e-18 
   4924.209   7.01395e-18 
  4926.4097   7.91177e-18 
  4928.6108   7.97937e-18 
   4930.812   8.39305e-18 
  4933.0127   7.62869e-18 
  4935.2139   8.02051e-18 
   4937.415    8.5344e-18 
  4939.6162   6.72731e-18 
  4941.8174   7.73383e-18 
  4944.0186   8.74596e-18 
  4946.2197   7.88758e-18 
  4948.4214   8.15954e-18 
  4950.6226   6.37946e-18 
  4952.8237   7.78353e-18 
  4955.0254   7.09727e-18 
  4957.2266   8.93765e-18 
  4959.4282   1.04358e-17 
  4961.6294   7.41696e-18 
  4963.8311   5.05261e-18 
  4966.0327   7.37081e-18 
  4968.2344   8.81254e-18 
   4970.436    9.3352e-18 
  4972.6377   8.41883e-18 
  4974.8394   8.76085e-18 
   4977.041   9.47673e-18 
  4979.2427    8.8461e-18 
  4981.4443   7.71574e-18 
  4983.6465    7.8104e-18 
  4985.8481    7.3386e-18 
  4988.0498    8.4494e-18 
   4990.252   7.34631e-18 
  4992.4536   7.58538e-18 
  4994.6558    7.0128e-18 
  4996.8579   6.30012e-18 
  4999.0596   7.21258e-18 
  5001.2617   8.68489e-18 
  5003.4639    7.6635e-18 
   5005.666   8.60941e-18 
  5007.8682   9.34945e-18 
  5010.0703   8.09174e-18 
  5012.2725   7.57989e-18 
  5014.4746   7.17208e-18 
  5016.6768   8.16004e-18 
  5018.8789    9.2611e-18 
  5021.0811   7.63986e-18 
  5023.2832    4.9331e-18 
  5025.4858   5.54481e-18 
   5027.688   6.10813e-18 
  5029.8906   6.96565e-18 
  5032.0928   7.52595e-18 
  5034.2949   7.75496e-18 
  5036.4976    7.2445e-18 
  5038.7002   8.11342e-18 
  5040.9023   6.67789e-18 
   5043.105   7.25228e-18 
  5045.3076   7.81315e-18 
  5047.5098   7.82559e-18 
  5049.7124   7.42443e-18 
   5051.915   8.42217e-18 
  5054.1177   8.32696e-18 
  5056.3203   7.91599e-18 
  5058.5225   7.06112e-18 
  5060.7251   9.20194e-18 
  5062.9277   6.60642e-18 
  5065.1304   6.92112e-18 
  5067.3335   5.88005e-18 
  5069.5361   7.01274e-18 
  5071.7388   7.70653e-18 
  5073.9414   7.79114e-18 
   5076.144   7.89727e-18 
  5078.3467   7.86574e-18 
  5080.5498   8.19426e-18 
  5082.7524   7.38987e-18 
  5084.9551   9.36681e-18 
  5087.1577   6.89184e-18 
  5089.3608   6.64399e-18 
  5091.5635   7.99278e-18 
  5093.7661   8.76197e-18 
  5095.9692   6.79205e-18 
  5098.1719   5.26081e-18 
   5100.375   8.69371e-18 
  5102.5776   7.42492e-18 
  5104.7808    8.9343e-18 
  5106.9834   7.99225e-18 
  5109.1865   9.10612e-18 
  5111.3892   8.01824e-18 
  5113.5923   6.59765e-18 
  5115.7954    7.2192e-18 
   5117.998   9.00087e-18 
  5120.2012   9.70729e-18 
  5122.4043   8.36061e-18 
  5124.6069   6.88722e-18 
  5126.8101   7.32493e-18 
  5129.0132   8.19312e-18 
  5131.2158   9.95118e-18 
  5133.4189   7.63422e-18 
  5135.6221   9.96371e-18 
  5137.8247   7.39731e-18 
  5140.0278   8.55151e-18 
   5142.231   9.16662e-18 
  5144.4341   7.76916e-18 
  5146.6372   8.31159e-18 
  5148.8398   6.95168e-18 
   5151.043   6.38259e-18 
  5153.2461   7.29579e-18 
  5155.4492    4.7985e-18 
  5157.6523    8.0506e-18 
   5159.855   7.08184e-18 
  5162.0581   5.72707e-18 
  5164.2612   7.55276e-18 
  5166.4644   8.34785e-18 
  5168.6675   5.52255e-18 
  5170.8706   6.51236e-18 
  5173.0732   6.98263e-18 
  5175.2764   5.83918e-18 
  5177.4795   8.03321e-18 
  5179.6826   6.30823e-18 
  5181.8857   7.67009e-18 
  5184.0884    5.3545e-18 
  5186.2915   5.98291e-18 
  5188.4946   7.09008e-18 
  5190.6978   6.35052e-18 
  5192.9009    8.6535e-18 
   5195.104   8.56873e-18 
  5197.3066   8.20092e-18 
  5199.5098   7.42414e-18 
  5201.7129   5.51274e-18 
   5203.916   5.68405e-18 
  5206.1187   5.21429e-18 
  5208.3218   6.79432e-18 
  5210.5249   8.54037e-18 
   5212.728   7.56668e-18 
  5214.9307   5.33012e-18 
  5217.1338   6.54077e-18 
  5219.3369   7.05684e-18 
  5221.5396   8.39742e-18 
  5223.7427   7.68055e-18 
  5225.9458   6.14399e-18 
  5228.1484   6.82162e-18 
  5230.3516   6.18421e-18 
  5232.5547   7.60616e-18 
  5234.7573   6.79729e-18 
  5236.9604   6.86514e-18 
  5239.1631   8.08197e-18 
  5241.3662   8.12693e-18 
  5243.5688   5.83818e-18 
   5245.772    6.2037e-18 
  5247.9746   5.55602e-18 
  5250.1777   7.00166e-18 
  5252.3804    5.9996e-18 
  5254.5835   4.64316e-18 
  5256.7861   7.27116e-18 
  5258.9888   7.12604e-18 
  5261.1919   7.63658e-18 
  5263.3945   5.99104e-18 
  5265.5972   6.76225e-18 
  5267.7998   8.49075e-18 
  5270.0029   6.19186e-18 
  5272.2056   6.20197e-18 
  5274.4082   6.93258e-18 
  5276.6108   8.66281e-18 
  5278.8135   8.13587e-18 
  5281.0161   6.11278e-18 
  5283.2192   7.50634e-18 
  5285.4214   5.99637e-18 
  5287.6245   5.71942e-18 
  5289.8267   6.06554e-18 
  5292.0293   6.21901e-18 
  5294.2319   7.14959e-18 
  5296.4346   6.66986e-18 
  5298.6372   7.18234e-18 
  5300.8398   7.07852e-18 
  5303.0425   7.36989e-18 
  5305.2446   7.61109e-18 
  5307.4473   6.00289e-18 
  5309.6499   8.48205e-18 
  5311.8521   7.30791e-18 
  5314.0547   6.06649e-18 
  5316.2568   8.30502e-18 
  5318.4595   5.83259e-18 
  5320.6616   5.22723e-18 
  5322.8643   6.87563e-18 
  5325.0664   5.09898e-18 
   5327.269   6.65652e-18 
  5329.4712   7.07046e-18 
  5331.6733   8.44478e-18 
  5333.8755    5.5561e-18 
  5336.0776   8.78382e-18 
  5338.2798   6.52197e-18 
  5340.4824   6.46295e-18 
  5342.6846   7.01875e-18 
  5344.8867   6.89642e-18 
  5347.0884   9.08589e-18 
  5349.2905   6.81271e-18 
  5351.4927   7.39826e-18 
  5353.6948   5.88407e-18 
   5355.897    8.4076e-18 
  5358.0991    8.0238e-18 
  5360.3008   6.74928e-18 
  5362.5029   8.22227e-18 
  5364.7046   6.59698e-18 
  5366.9067   7.93045e-18 
  5369.1084    8.9455e-18 
  5371.3105   8.18466e-18 
  5373.5122   7.79655e-18 
  5375.7139   8.28377e-18 
   5377.916   8.67669e-18 
  5380.1177    7.3981e-18 
  5382.3193   6.93825e-18 
   5384.521   6.80681e-18 
  5386.7227   6.93436e-18 
  5388.9243   8.79514e-18 
   5391.126   8.43267e-18 
  5393.3276   8.37719e-18 
  5395.5288   6.48423e-18 
  5397.7305   7.35361e-18 
  5399.9321   8.00301e-18 
  5402.1333   7.41739e-18 
   5404.335   8.39435e-18 
  5406.5361    8.5078e-18 
  5408.7378   6.80022e-18 
   5410.939    8.0365e-18 
  5413.1401   5.41515e-18 
  5415.3418   7.56955e-18 
   5417.543   6.02998e-18 
  5419.7441   9.53241e-18 
  5421.9453    7.2955e-18 
  5424.1465   7.82508e-18 
  5426.3477   6.53842e-18 
  5428.5488   8.02793e-18 
  5430.7495   5.60346e-18 
  5432.9507   7.50447e-18 
  5435.1519   6.79362e-18 
  5437.3525   8.61412e-18 
  5439.5537   7.10959e-18 
  5441.7544   7.59191e-18 
  5443.9556   6.73386e-18 
  5446.1562   6.33588e-18 
  5448.3569   5.18005e-18 
  5450.5576   5.81057e-18 
  5452.7583   6.96885e-18 
   5454.959   7.65109e-18 
  5457.1597   7.20704e-18 
  5459.3604   7.75073e-18 
   5461.561   5.94671e-18 
  5463.7617   4.61123e-18 
  5465.9624   8.08775e-18 
  5468.1626   7.77381e-18 
  5470.3633   6.29413e-18 
  5472.5635    9.3584e-18 
  5474.7637   8.37031e-18 
  5476.9644   7.24869e-18 
  5479.1646   8.25962e-18 
  5481.3647   8.74067e-18 
  5483.5649   5.67447e-18 
  5485.7651   7.26818e-18 
  5487.9653   6.78281e-18 
  5490.1655   7.32598e-18 
  5492.3657   7.73758e-18 
  5494.5654   5.90633e-18 
  5496.7656   7.82881e-18 
  5498.9653   7.79032e-18 
  5501.1655   6.34214e-18 
  5503.3652   7.41056e-18 
  5505.5649   5.74026e-18 
  5507.7646   7.44907e-18 
  5509.9644   5.45859e-18 
  5512.1641   5.83312e-18 
  5514.3638    6.0202e-18 
  5516.5635   8.71397e-18 
  5518.7632    7.5528e-18 
  5520.9624   8.17716e-18 
  5523.1621   7.46736e-18 
  5525.3618   5.47795e-18 
   5527.561   7.34222e-18 
  5529.7603   8.12525e-18 
  5531.9595   7.62353e-18 
  5534.1592   6.25178e-18 
  5536.3584    7.0586e-18 
  5538.5576   8.97695e-18 
  5540.7568   6.82643e-18 
  5542.9556     6.513e-18 
  5545.1548   7.21811e-18 
  5547.3535   4.92727e-18 
  5549.5527   6.55578e-18 
  5551.7515   6.26114e-18 
  5553.9507   7.84768e-18 
  5556.1494   5.13984e-18 
  5558.3481   9.93956e-18 
  5560.5469    9.6759e-18 
  5562.7456   7.28047e-18 
  5564.9443   7.31436e-18 
  5567.1431   8.55411e-18 
  5569.3413   9.97105e-18 
    5571.54   9.24398e-18 
  5573.7383   4.33005e-18 
   5575.937   1.56674e-17 
  5578.1353    7.4455e-18 
  5580.3335   3.90952e-18 
  5582.5317   8.97444e-18 
    5584.73   9.06267e-18 
  5586.9282   6.96299e-18 
  5589.1265    9.6168e-18 
  5591.3247   6.80905e-18 
  5593.5225   1.04386e-17 
  5595.7207   8.00662e-18 
  5597.9185   8.09658e-18 
  5600.1162   9.34661e-18 
   5602.314   1.27466e-17 
  5604.5122   9.10728e-18 
  5606.7095   9.19734e-18 
  5608.9072   8.19715e-18 
   5611.105   8.50908e-18 
  5613.3027   7.17505e-18 
     5615.5   9.14056e-18 
  5617.6978   7.33136e-18 
   5619.895   8.25362e-18 
  5622.0923   8.30894e-18 
    5624.29   1.08245e-17 
  5626.4873   9.59994e-18 
  5628.6846   8.38938e-18 
  5630.8818   7.33998e-18 
  5633.0786   9.98965e-18 
  5635.2759   7.94782e-18 
  5637.4727   7.14821e-18 
  5639.6699   8.97747e-18 
  5641.8667   5.30428e-18 
  5644.0635   1.13199e-17 
  5646.2603   1.23561e-17 
   5648.457   9.20406e-18 
  5650.6538   1.23015e-17 
  5652.8506   5.76391e-18 
  5655.0469   1.15342e-17 
  5657.2437   1.22382e-17 
  5659.4404   1.10204e-17 
  5661.6367   9.18657e-18 
   5663.833   1.11319e-17 
  5666.0293   1.13858e-17 
  5666.8403   1.19196e-17 
  5667.9888   1.06592e-17 
  5669.1367   8.62024e-18 
  5670.2847   9.69504e-18 
  5671.4331   1.04059e-17 
  5672.5811   9.03555e-18 
  5673.7295   8.03055e-18 
  5674.8774    1.1564e-17 
  5676.0259   1.35604e-17 
  5677.1743    1.2376e-17 
  5678.3223    1.1613e-17 
  5679.4707   1.15466e-17 
  5680.6191   1.41276e-17 
  5681.7676    1.4006e-17 
   5682.916   1.59013e-17 
  5684.0645   8.28879e-18 
  5685.2129   8.76897e-18 
  5686.3613    1.1439e-17 
  5687.5098   1.45896e-17 
  5688.6587   1.14884e-17 
  5689.8071   1.21708e-17 
  5690.9556   1.32285e-17 
  5692.1045   9.72397e-18 
  5693.2529   7.63856e-18 
  5694.4019   1.21068e-17 
  5695.5503   1.30631e-17 
  5696.6992   9.13396e-18 
  5697.8477   1.25783e-17 
  5698.9966   1.42988e-17 
  5700.1455   1.04754e-17 
  5701.2944    9.9743e-18 
  5702.4434   1.48813e-17 
  5703.5923   1.40925e-17 
  5704.7412   1.20524e-17 
  5705.8901   9.23357e-18 
  5707.0391   1.26036e-17 
   5708.188   1.75405e-17 
  5709.3374   1.50517e-17 
  5710.4863   1.49202e-17 
  5711.6353    1.3414e-17 
  5712.7847   1.01079e-17 
  5713.9336   1.14984e-17 
   5715.083   1.41671e-17 
  5716.2319   1.25019e-17 
  5717.3813   1.36265e-17 
  5718.5303   1.15529e-17 
  5719.6797   1.21426e-17 
  5720.8291   1.23265e-17 
  5721.9785   1.08183e-17 
  5723.1279   1.10815e-17 
  5724.2773   1.55062e-17 
  5725.4268   1.29019e-17 
  5726.5762   1.12902e-17 
  5727.7256    1.3077e-17 
   5728.875   1.14763e-17 
  5730.0249   1.46373e-17 
  5731.1743   1.18966e-17 
  5732.3242   1.26878e-17 
  5733.4736   1.74943e-17 
  5734.6235   1.47751e-17 
  5735.7729   1.35378e-17 
  5736.9229   1.17103e-17 
  5738.0723   9.82753e-18 
  5739.2222   1.21114e-17 
  5740.3721   1.37495e-17 
   5741.522   1.06892e-17 
  5742.6719   1.28189e-17 
  5743.8218   9.86088e-18 
  5744.9717   1.42104e-17 
  5746.1216   1.41474e-17 
  5747.2715   1.59797e-17 
  5748.4214   1.21823e-17 
  5749.5713   1.00671e-17 
  5750.7217    1.4333e-17 
  5751.8716   1.19304e-17 
   5753.022   8.35099e-18 
  5754.1719   1.43111e-17 
  5755.3223   1.27127e-17 
  5756.4722   1.12726e-17 
  5757.6226   9.85928e-18 
  5758.7729   1.12546e-17 
  5759.9233   1.19743e-17 
  5761.0737   1.06046e-17 
  5762.2241   9.48974e-18 
  5763.3745   1.25117e-17 
  5764.5249   1.11939e-17 
  5765.6753   1.17411e-17 
  5766.8257   1.15408e-17 
  5767.9761   1.20619e-17 
  5769.1265   8.97346e-18 
  5770.2773   1.63564e-17 
  5771.4277   8.46069e-18 
  5772.5786   1.45948e-17 
   5773.729     1.016e-17 
  5774.8799   1.35579e-17 
  5776.0303   1.11463e-17 
  5777.1812    1.2887e-17 
   5778.332   1.26623e-17 
  5779.4829   8.77253e-18 
  5780.6338   1.07466e-17 
  5781.7847   1.29328e-17 
  5782.9355   9.88949e-18 
  5784.0864   1.16374e-17 
  5785.2373   1.70432e-17 
  5786.3882   1.49088e-17 
  5787.5391   1.11467e-17 
  5788.6904   1.49281e-17 
  5789.8413   1.15221e-17 
  5790.9927   1.28511e-17 
  5792.1436   1.22386e-17 
  5793.2949   1.25305e-17 
  5794.4458   1.50249e-17 
  5795.5972   1.29032e-17 
  5796.7485   9.39943e-18 
  5797.8999   1.28863e-17 
  5799.0513   8.62029e-18 
  5800.2026   1.05185e-17 
   5801.354   1.01721e-17 
  5802.5054   1.31102e-17 
  5803.6567   1.10501e-17 
  5804.8081    1.1409e-17 
  5805.9595   1.02275e-17 
  5807.1113   1.33507e-17 
  5808.2627   1.16602e-17 
  5809.4141   1.41192e-17 
  5810.5659   1.32808e-17 
  5811.7178   1.26658e-17 
  5812.8691   1.28812e-17 
   5814.021   8.30642e-18 
  5815.1729   1.23266e-17 
  5816.3247   1.10441e-17 
  5817.4761   1.19245e-17 
  5818.6279   8.75503e-18 
  5819.7798   1.03566e-17 
  5820.9321   1.18193e-17 
   5822.084   9.11502e-18 
  5823.2358   1.13278e-17 
  5824.3877   1.01821e-17 
    5825.54   1.04714e-17 
  5826.6919   1.20248e-17 
  5827.8438   1.20981e-17 
  5828.9961   1.01408e-17 
  5830.1484   9.90799e-18 
  5831.3003   7.34201e-18 
  5832.4526   7.09503e-18 
   5833.605   1.08971e-17 
  5834.7573    7.9111e-18 
  5835.9092   1.17104e-17 
  5837.0615   9.85707e-18 
  5838.2139   1.18931e-17 
  5839.3662   1.07576e-17 
   5840.519   9.32112e-18 
  5841.6714   8.19982e-18 
  5842.8237   1.23762e-17 
  5843.9761   6.97631e-18 
  5845.1289   8.81607e-18 
  5846.2817   1.00624e-17 
  5847.4341   1.01728e-17 
  5848.5869   9.85905e-18 
  5849.7393   1.16362e-17 
  5850.8921   1.10055e-17 
  5852.0449   8.70776e-18 
  5853.1978   9.59952e-18 
  5854.3506   1.08536e-17 
  5855.5034   1.23225e-17 
  5856.6562   8.69797e-18 
  5857.8091     9.491e-18 
  5858.9619   9.46536e-18 
  5860.1147   6.70208e-18 
  5861.2681   7.05868e-18 
  5862.4209   9.79656e-18 
  5863.5742   9.70598e-18 
  5864.7271   9.89339e-18 
  5865.8804   9.58187e-18 
  5867.0332   7.96692e-18 
  5868.1865   8.11863e-18 
  5869.3398   9.55692e-18 
  5870.4932   1.24114e-17 
   5871.646   8.96505e-18 
  5872.7993   7.59919e-18 
  5873.9531   1.18786e-17 
  5875.1064     9.626e-18 
  5876.2598    7.8865e-18 
  5877.4131   8.89608e-18 
  5878.5664   8.79086e-18 
  5879.7202   5.97832e-18 
  5880.8735   9.41041e-18 
  5882.0273   9.94303e-18 
  5883.1807   1.11007e-17 
  5884.3345   1.02263e-17 
  5885.4883   1.26905e-17 
  5886.6416   1.27761e-17 
  5887.7954   7.92249e-18 
  5888.9492   6.82804e-18 
   5890.103   8.63134e-18 
  5891.2568   1.57337e-18 
  5892.4106   1.09064e-17 
  5893.5645   6.92002e-18 
  5894.7183   9.61838e-18 
  5895.8726   6.51615e-18 
  5897.0264   1.01951e-17 
  5898.1807   1.20719e-17 
  5899.3345   9.01181e-18 
  5900.4888   8.88946e-18 
  5901.6426   6.69263e-18 
  5902.7969   8.57532e-18 
  5903.9512   7.64071e-18 
  5905.1055   7.39088e-18 
  5906.2593   1.01553e-17 
  5907.4136   7.23153e-18 
  5908.5679   9.69612e-18 
  5909.7227   9.68804e-18 
   5910.877    5.2626e-18 
  5912.0312   6.73154e-18 
  5913.1855   1.11905e-17 
  5914.3403   9.81796e-18 
  5915.4946   7.79719e-18 
  5916.6494   7.54523e-18 
  5917.8037   6.87969e-18 
  5918.9585    1.0014e-17 
  5920.1128   8.70815e-18 
  5921.2676   8.54175e-18 
  5922.4224   1.17755e-17 
  5923.5771   7.12833e-18 
  5924.7319   6.85639e-18 
  5925.8867   8.17274e-18 
  5927.0415   8.69868e-18 
  5928.1963   8.75738e-18 
  5929.3511    7.0864e-18 
  5930.5063   8.57188e-18 
  5931.6611   1.02625e-17 
  5932.8164   9.66492e-18 
  5933.9712   6.44278e-18 
  5935.1265   1.05786e-17 
  5936.2812   9.41997e-18 
  5937.4365   9.14643e-18 
  5938.5918   9.89253e-18 
  5939.7471   6.67346e-18 
  5940.9023   8.46125e-18 
  5942.0576    1.0096e-17 
  5943.2129   9.24501e-18 
  5944.3682    7.3287e-18 
  5945.5234    7.7097e-18 
  5946.6787   6.28803e-18 
   5947.834    8.3324e-18 
  5948.9897   7.17464e-18 
   5950.145   8.91775e-18 
  5951.3008   1.22209e-17 
  5952.4561   7.20773e-18 
  5953.6118   9.77323e-18 
  5954.7676   8.44921e-18 
  5955.9233    5.0481e-18 
  5957.0786   7.02841e-18 
  5958.2344   7.36836e-18 
  5959.3901   9.36284e-18 
  5960.5459   6.76851e-18 
  5961.7017   7.70172e-18 
  5962.8579   8.32631e-18 
  5964.0137   1.03998e-17 
  5965.1694   7.50523e-18 
  5966.3257   1.00848e-17 
  5967.4814   7.60836e-18 
  5968.6377    9.4126e-18 
  5969.7935   8.54298e-18 
  5970.9497   1.08097e-17 
   5972.106   1.03762e-17 
  5973.2622   9.26153e-18 
  5974.4185   1.22045e-17 
  5975.5747   1.09795e-17 
  5976.7305   8.14918e-18 
  5977.8872   1.14043e-17 
  5979.0435   7.94934e-18 
  5980.1997   1.16396e-17 
   5981.356   9.13085e-18 
  5982.5127   8.79254e-18 
  5983.6689   1.05421e-17 
  5984.8257   1.02494e-17 
  5985.9819   9.15095e-18 
  5987.1387   9.91412e-18 
  5988.2954   8.81217e-18 
  5989.4517   1.05099e-17 
  5990.6084   8.23144e-18 
  5991.7651   1.23647e-17 
  5992.9219   1.22531e-17 
  5994.0786   1.11592e-17 
  5995.2354   8.75162e-18 
  5996.3926   8.92372e-18 
  5997.5493   8.16012e-18 
  5998.7061   1.04607e-17 
  5999.8633   7.30583e-18 
    6001.02   8.02328e-18 
  6002.1772   1.07474e-17 
   6003.334   1.09678e-17 
  6004.4912   1.43982e-17 
  6005.6484   1.00678e-17 
  6006.8052   1.18276e-17 
  6007.9624   1.06365e-17 
  6009.1196   1.19603e-17 
  6010.2773   1.42816e-17 
  6011.4341   1.07188e-17 
  6012.5918    9.5699e-18 
   6013.749   7.31081e-18 
  6014.9062   1.04623e-17 
   6016.064    1.2098e-17 
  6017.2212   1.13916e-17 
  6018.3789   9.23999e-18 
  6019.5361   9.69431e-18 
  6020.6938   9.68382e-18 
  6021.8516   9.49325e-18 
  6023.0088    1.0693e-17 
  6024.1665   9.15602e-18 
  6025.3242   8.98129e-18 
  6026.4819   1.08852e-17 
  6027.6396   1.29231e-17 
  6028.7974   1.06535e-17 
  6029.9556   1.11984e-17 
  6031.1133   1.13198e-17 
   6032.271    1.2378e-17 
  6033.4292   9.63832e-18 
  6034.5869   1.20124e-17 
  6035.7451   1.02885e-17 
  6036.9033   1.09957e-17 
   6038.061    1.3361e-17 
  6039.2192     9.587e-18 
  6040.3774   1.06776e-17 
  6041.5356   1.15024e-17 
  6042.6938   9.37514e-18 
  6043.8521   9.43587e-18 
  6045.0103   1.38942e-17 
  6046.1685   1.13065e-17 
  6047.3267   1.27303e-17 
  6048.4854   9.62265e-18 
  6049.6436   1.11556e-17 
  6050.8022   1.28345e-17 
  6051.9604   1.38907e-17 
  6053.1191    1.2737e-17 
  6054.2778   1.32024e-17 
   6055.436   1.23205e-17 
  6056.5947   1.14994e-17 
  6057.7534   1.16309e-17 
  6058.9121   1.10327e-17 
  6060.0708   1.39324e-17 
  6061.2295   1.50271e-17 
  6062.3882   1.23996e-17 
  6063.5474   1.01341e-17 
  6064.7061    1.0533e-17 
  6065.8647   1.10946e-17 
  6067.0239   1.13145e-17 
  6068.1826    1.0607e-17 
  6069.3418   1.07199e-17 
   6070.501   8.91465e-18 
  6071.6597   1.01281e-17 
  6072.8188   1.16078e-17 
   6073.978   1.12011e-17 
  6075.1372   1.37453e-17 
  6076.2964   9.07674e-18 
  6077.4556   8.10415e-18 
  6078.6147   1.12303e-17 
  6079.7744   9.46734e-18 
  6080.9336   9.60786e-18 
  6082.0928   1.25366e-17 
  6083.2524   8.68446e-18 
  6084.4116   1.23621e-17 
  6085.5713   9.71837e-18 
  6086.7305   1.10508e-17 
  6087.8901   9.53762e-18 
  6089.0498   1.15531e-17 
  6090.2095   1.03178e-17 
  6091.3691   1.39773e-17 
  6092.5288   1.08927e-17 
  6093.6885   1.08242e-17 
  6094.8481   1.12902e-17 
  6096.0078   1.07887e-17 
   6097.168   8.65714e-18 
  6098.3276   1.02819e-17 
  6099.4878   8.71717e-18 
  6100.6475   8.77337e-18 
  6101.8076     9.327e-18 
  6102.9673   6.58236e-18 
  6104.1274   1.11362e-17 
  6105.2876   8.77772e-18 
  6106.4478   9.22096e-18 
  6107.6079   1.14391e-17 
  6108.7681   1.12897e-17 
  6109.9282   1.08543e-17 
  6111.0884   1.14076e-17 
  6112.2485   9.69989e-18 
  6113.4087   9.10027e-18 
  6114.5693   1.01969e-17 
  6115.7295   1.08678e-17 
  6116.8901   1.15968e-17 
  6118.0503   1.10732e-17 
  6119.2109   9.28304e-18 
  6120.3716   9.16459e-18 
  6121.5322   8.32137e-18 
  6122.6924    1.2331e-17 
   6123.853   1.06052e-17 
  6125.0137   1.22375e-17 
  6126.1748   1.14917e-17 
  6127.3354   7.68285e-18 
  6128.4961   1.08949e-17 
  6129.6567   1.09524e-17 
  6130.8179   1.01351e-17 
  6131.9785   7.39543e-18 
  6133.1392   1.09432e-17 
  6134.3003   1.19288e-17 
  6135.4614   1.09609e-17 
  6136.6221   1.01143e-17 
  6137.7832    8.6213e-18 
  6138.9443   1.14943e-17 
  6140.1055   1.35528e-17 
  6141.2666   1.20926e-17 
  6142.4277   1.44061e-17 
  6143.5889   9.67226e-18 
  6144.7505   9.34828e-18 
  6145.9116   9.79843e-18 
  6147.0728   1.15374e-17 
  6148.2344   1.20433e-17 
  6149.3955   1.04003e-17 
  6150.5571   1.03992e-17 
  6151.7183   1.31955e-17 
  6152.8799   1.17229e-17 
  6154.0415   1.15395e-17 
  6155.2031   1.25649e-17 
  6156.3647    1.0863e-17 
  6157.5264   9.54048e-18 
   6158.688   1.34836e-17 
  6159.8496   1.25832e-17 
  6161.0112   1.55666e-17 
  6162.1733   1.22481e-17 
   6163.335   1.52655e-17 
  6164.4966   1.33834e-17 
  6165.6587   1.24931e-17 
  6166.8203   1.25382e-17 
  6167.9824    1.2554e-17 
  6169.1445   1.32026e-17 
  6170.3066   1.33979e-17 
  6171.4683   1.46817e-17 
  6172.6304   1.09277e-17 
  6173.7925   1.47944e-17 
  6174.9546   1.12551e-17 
  6176.1172   1.49784e-17 
  6177.2793   1.20317e-17 
  6178.4414   1.11501e-17 
   6179.604   1.06312e-17 
  6180.7661   1.21237e-17 
  6181.9287   1.32766e-17 
  6183.0908   9.97103e-18 
  6184.2534   1.11196e-17 
   6185.416   1.53465e-17 
  6186.5781    1.1285e-17 
  6187.7407   1.45612e-17 
  6188.9033   1.19328e-17 
  6190.0659   1.08655e-17 
  6191.2285   1.13308e-17 
  6192.3911   1.19234e-17 
  6193.5542   1.20268e-17 
  6194.7168   9.59209e-18 
  6195.8794   1.21407e-17 
  6197.0425   1.15549e-17 
  6198.2051   1.01705e-17 
  6199.3682   1.26243e-17 
  6200.5308   1.15184e-17 
  6201.6938   1.15727e-17 
  6202.8569   9.44567e-18 
    6204.02   1.39463e-17 
  6205.1831   1.01324e-17 
  6206.3462   1.15233e-17 
  6207.5093   1.32196e-17 
  6208.6724    1.0301e-17 
  6209.8354   1.52696e-17 
   6210.999   1.08281e-17 
  6212.1621   1.11306e-17 
  6213.3252   9.93706e-18 
  6214.4888   1.01309e-17 
  6215.6523    9.9386e-18 
  6216.8154   1.09775e-17 
   6217.979   1.24663e-17 
  6219.1426   1.02056e-17 
  6220.3057   1.39811e-17 
  6221.4697   1.04146e-17 
  6222.6333   1.03975e-17 
  6223.7969   1.33492e-17 
  6224.9604   1.05581e-17 
   6226.124   7.86862e-18 
  6227.2876   1.07522e-17 
  6228.4517   8.75767e-18 
  6229.6152   9.53183e-18 
  6230.7793   1.02499e-17 
  6231.9429   1.05168e-17 
  6233.1069   9.63076e-18 
   6234.271   6.98101e-18 
  6235.4346    8.3402e-18 
  6236.5986   6.45088e-18 
  6237.7627    9.0628e-18 
  6238.9268   8.58869e-18 
  6240.0908     1.052e-17 
  6241.2549     8.792e-18 
  6242.4194   1.05213e-17 
  6243.5835   9.89032e-18 
  6244.7476   9.50355e-18 
  6245.9121   9.59169e-18 
  6247.0762   9.54998e-18 
  6248.2407   1.21535e-17 
  6249.4053   9.92143e-18 
  6250.5693   1.01437e-17 
  6251.7339     9.457e-18 
  6252.8984   7.78868e-18 
   6254.063   1.18899e-17 
  6255.2275   1.13583e-17 
  6256.3921    1.3408e-17 
  6257.5566   1.06048e-17 
  6258.7212   1.12872e-17 
  6259.8862   1.06071e-17 
  6261.0508    9.0189e-18 
  6262.2158   8.12453e-18 
  6263.3804   1.21781e-17 
  6264.5454   8.47533e-18 
    6265.71   8.23397e-18 
   6266.875   9.19124e-18 
    6268.04   9.07994e-18 
  6269.2051   8.38864e-18 
  6270.3701   8.52802e-18 
  6271.5352   9.24014e-18 
  6272.7002   1.06253e-17 
  6273.8652   1.12913e-17 
  6275.0303   8.41555e-18 
  6276.1958   8.59358e-18 
  6277.3608   9.20702e-18 
  6278.5259   7.56341e-18 
  6279.6914   5.73867e-18 
  6280.8569   7.72176e-18 
   6282.022   1.03927e-17 
  6283.1875   8.02209e-18 
   6284.353    8.5847e-18 
  6285.5186   7.82403e-18 
  6286.6841   7.11868e-18 
  6287.8496    6.9614e-18 
  6289.0151    9.5083e-18 
  6290.1807   1.01097e-17 
  6291.3462   8.65821e-18 
  6292.5117   7.95309e-18 
  6293.6777   6.79417e-18 
  6294.8433   8.68022e-18 
  6296.0093   2.28073e-18 
  6297.1748  -6.34267e-18 
  6298.3408   1.54979e-17 
  6299.5068   6.38966e-18 
  6300.6724  -4.49737e-18 
  6301.8384   1.85213e-17 
  6303.0044   8.57428e-18 
  6304.1704   2.66306e-18 
  6305.3369    9.5269e-18 
  6306.5029   5.91627e-18 
  6307.6689   8.78588e-18 
   6308.835   8.94065e-18 
  6310.0015   9.73334e-18 
  6311.1675   8.60525e-18 
   6312.334   1.00533e-17 
     6313.5   7.97324e-18 
  6314.6665   7.56764e-18 
   6315.833   7.59165e-18 
   6316.999   8.94462e-18 
  6318.1655    7.5129e-18 
   6319.332   8.68655e-18 
  6320.4985   9.86945e-18 
   6321.665   6.55998e-18 
  6322.8315   6.87454e-18 
  6323.9985   1.00112e-17 
   6325.165   1.00005e-17 
  6326.3315   9.10486e-18 
  6327.4985   9.41111e-18 
   6328.665   9.19318e-18 
   6329.832   6.67119e-18 
   6330.999   9.05553e-18 
  6332.1655   8.10064e-18 
  6333.3325   8.74029e-18 
  6334.4995   5.01816e-18 
  6335.6665   1.04964e-17 
  6336.8335   6.90968e-18 
  6338.0005   1.09809e-17 
  6339.1675   7.66015e-18 
  6340.3345   8.44652e-18 
   6341.502   1.27129e-17 
  6342.6689   8.92909e-18 
  6343.8359   6.05889e-18 
  6345.0034    1.0213e-17 
  6346.1709   6.93353e-18 
  6347.3379   9.15356e-18 
  6348.5054   9.86146e-18 
  6349.6729   7.83223e-18 
  6350.8403   9.90836e-18 
  6352.0073   7.52152e-18 
  6353.1748   6.99052e-18 
  6354.3423   8.77344e-18 
  6355.5103   7.17153e-18 
  6356.6777   8.03034e-18 
  6357.8452   9.01411e-18 
  6359.0132   2.98833e-18 
  6360.1807    5.4944e-18 
  6361.3486    1.0667e-17 
  6362.5161   7.10934e-18 
  6363.6841   1.48792e-17 
  6364.8516    7.7322e-18 
  6366.0195   9.97472e-18 
  6367.1875   1.22964e-17 
  6368.3555   1.10361e-17 
  6369.5234   1.09481e-17 
  6370.6914   9.96679e-18 
  6371.8594    9.5322e-18 
  6373.0273   7.98659e-18 
  6374.1958   9.28206e-18 
  6375.3638   1.04434e-17 
  6376.5317   9.52199e-18 
  6377.7002   8.86798e-18 
  6378.8682   9.20582e-18 
  6380.0366   9.05702e-18 
  6381.2051   1.00805e-17 
  6382.3735   9.23572e-18 
  6383.5415   8.96593e-18 
    6384.71    8.9272e-18 
  6385.8784   7.15228e-18 
  6387.0469    6.7688e-18 
  6388.2158   9.24891e-18 
  6389.3843   7.62298e-18 
  6390.5527    6.0584e-18 
  6391.7212    7.8531e-18 
  6392.8901   8.44164e-18 
  6394.0586    8.2448e-18 
  6395.2275    8.5391e-18 
   6396.396   9.67927e-18 
  6397.5649   7.44437e-18 
  6398.7339   9.61803e-18 
  6399.9028   7.78824e-18 
  6401.0713   7.44625e-18 
  6402.2407   6.07596e-18 
  6403.4092   1.01563e-17 
  6404.5786   1.11257e-17 
  6405.7476   7.71913e-18 
  6406.9165   1.00095e-17 
  6408.0854   8.99654e-18 
  6409.2549   6.95843e-18 
  6410.4238   8.52423e-18 
  6411.5933   7.49277e-18 
  6412.7622    7.2496e-18 
  6413.9316   7.77282e-18 
  6415.1011    9.2004e-18 
  6416.2705   8.61933e-18 
  6417.4399   9.39888e-18 
  6418.6089   1.08508e-17 
  6419.7783   7.44589e-18 
  6420.9482   8.30692e-18 
  6422.1177   8.93093e-18 
  6423.2871   9.26077e-18 
  6424.4565   9.51065e-18 
  6425.6265   8.63777e-18 
  6426.7959   7.78662e-18 
  6427.9658    9.4818e-18 
  6429.1353   8.39012e-18 
  6430.3052   6.96573e-18 
  6431.4751   9.67933e-18 
  6432.6445   8.87157e-18 
  6433.8145   8.10784e-18 
  6434.9844   1.02046e-17 
  6436.1543   9.32828e-18 
  6437.3242   9.73553e-18 
  6438.4941   8.41499e-18 
  6439.6641   9.27956e-18 
  6440.8345   1.02323e-17 
  6442.0044   9.75868e-18 
  6443.1748    8.6886e-18 
  6444.3447   9.26743e-18 
  6445.5151   7.15759e-18 
  6446.6851   6.94947e-18 
  6447.8555   9.60615e-18 
  6449.0259   9.97924e-18 
  6450.1963   6.53163e-18 
  6451.3662     7.444e-18 
  6452.5366   1.14696e-17 
  6453.7075   1.17737e-17 
  6454.8779   7.86821e-18 
  6456.0483   7.52769e-18 
  6457.2188   6.72353e-18 
  6458.3892   7.16165e-18 
  6459.5601   7.56488e-18 
  6460.7305   1.25707e-17 
  6461.9014   9.50847e-18 
  6463.0718   9.66042e-18 
  6464.2427   9.24004e-18 
  6465.4136    7.7569e-18 
  6466.5845   1.07454e-17 
  6467.7549   1.44227e-17 
  6468.9258   9.34857e-18 
  6470.0967   7.75885e-18 
  6471.2676   9.84093e-18 
   6472.439   8.63099e-18 
  6473.6099   9.51635e-18 
  6474.7808   7.46738e-18 
  6475.9517   9.90654e-18 
   6477.123   9.94998e-18 
  6478.2944    1.1592e-17 
  6479.4653    9.3269e-18 
  6480.6367    1.1319e-17 
  6481.8076   9.90085e-18 
   6482.979   6.73316e-18 
  6484.1504   1.00913e-17 
  6485.3218   1.24182e-17 
  6486.4932   8.79461e-18 
  6487.6646   6.44516e-18 
  6488.8359    8.1241e-18 
  6490.0073   1.13066e-17 
  6491.1792   1.00767e-17 
  6492.3506   1.06276e-17 
   6493.522   1.08481e-17 
  6494.6938   7.89079e-18 
  6495.8652    1.0823e-17 
  6497.0371   8.53242e-18 
   6498.209   1.08119e-17 
  6499.3804   8.87056e-18 
  6500.5522   8.58696e-18 
  6501.7241   9.14926e-18 
   6502.896   9.71438e-18 
  6504.0679   1.25945e-17 
  6505.2397   9.59731e-18 
  6506.4116   1.05678e-17 
  6507.5835   1.01503e-17 
  6508.7559   8.64139e-18 
  6509.9277   1.24681e-17 
  6511.1001   9.38192e-18 
   6512.272   9.92675e-18 
  6513.4443   9.92647e-18 
  6514.6162   1.06634e-17 
  6515.7886    9.2458e-18 
  6516.9609   9.32022e-18 
  6518.1333   1.16007e-17 
  6519.3052   9.41062e-18 
   6520.478   9.64539e-18 
  6521.6504    8.3887e-18 
  6522.8228   8.67195e-18 
  6523.9951   1.27037e-17 
  6525.1675   9.64673e-18 
  6526.3398   1.03252e-17 
  6527.5127   9.92358e-18 
  6528.6851   9.03154e-18 
  6529.8579    8.9409e-18 
  6531.0303   1.12505e-17 
  6532.2031   1.07307e-17 
   6533.376   1.04651e-17 
  6534.5488   1.00771e-17 
  6535.7212   9.78857e-18 
   6536.894   1.01983e-17 
  6538.0669   9.09465e-18 
  6539.2402   1.10805e-17 
  6540.4131   8.59409e-18 
  6541.5859   9.43945e-18 
  6542.7588   1.05319e-17 
  6543.9316   1.27692e-17 
   6545.105   1.17368e-17 
  6546.2778   9.42007e-18 
  6547.4512   1.36323e-17 
   6548.624   1.50999e-17 
  6549.7974   1.03962e-17 
  6550.9707   1.24033e-17 
   6552.144   1.66736e-17 
  6553.3174   9.48347e-18 
  6554.4907   1.12827e-17 
  6555.6636   1.09928e-17 
  6556.8374   9.79137e-18 
  6558.0107   1.11564e-17 
  6559.1841   1.11139e-17 
  6560.3574   1.40453e-17 
  6561.5312   1.03396e-17 
  6562.7046   1.30515e-17 
  6563.8784   1.12483e-17 
  6565.0518   1.30591e-17 
  6566.2256   9.64326e-18 
  6567.3989   1.07222e-17 
  6568.5728   1.02629e-17 
  6569.7466     1.153e-17 
  6570.9204   1.01299e-17 
  6572.0942   1.21339e-17 
  6573.2681   1.32476e-17 
  6574.4419   1.18814e-17 
  6575.6157   1.03151e-17 
    6576.79   1.17088e-17 
  6577.9639   1.03657e-17 
  6579.1377   1.04451e-17 
   6580.312   9.36539e-18 
  6581.4858   1.19661e-17 
  6582.6602    1.2252e-17 
   6583.834   1.41171e-17 
  6585.0083   1.13637e-17 
  6586.1826   1.25396e-17 
  6587.3569   7.40454e-18 
  6588.5308   1.21685e-17 
  6589.7051   1.27038e-17 
  6590.8794   1.29855e-17 
  6592.0542   9.06713e-18 
  6593.2285   1.23963e-17 
  6594.4028   1.09182e-17 
  6595.5771   1.26381e-17 
   6596.752   1.13055e-17 
  6597.9263   1.20919e-17 
  6599.1011   1.20391e-17 
  6600.2754   1.14915e-17 
  6601.4502   1.07522e-17 
   6602.625    1.4362e-17 
  6603.7993   1.14992e-17 
  6604.9741   1.06331e-17 
  6606.1489    1.1826e-17 
  6607.3237   1.32865e-17 
  6608.4985   1.31571e-17 
  6609.6733   9.10913e-18 
  6610.8481   1.20353e-17 
  6612.0234   1.26409e-17 
  6613.1982   1.30793e-17 
   6614.373   1.24819e-17 
  6615.5483   1.20699e-17 
  6616.7231   1.07145e-17 
  6617.8984   1.30488e-17 
  6619.0732   1.20638e-17 
  6620.2485   1.18585e-17 
  6621.4238   1.17388e-17 
  6622.5991   1.20545e-17 
  6623.7744   1.17929e-17 
  6624.9497   1.34034e-17 
   6626.125   1.03741e-17 
  6627.3003    1.1384e-17 
  6628.4756   1.30872e-17 
  6629.6509   1.14629e-17 
  6630.8262   1.26803e-17 
   6632.002   1.10847e-17 
  6633.1772   1.33397e-17 
   6634.353   1.23735e-17 
  6635.5283   1.26058e-17 
  6636.7041   1.31464e-17 
  6637.8799   1.12346e-17 
  6639.0552   9.46525e-18 
   6640.231   1.33661e-17 
  6641.4067   1.21368e-17 
  6642.5825   1.19505e-17 
  6643.7583   1.27775e-17 
  6644.9341   1.34502e-17 
  6646.1099   1.13754e-17 
  6647.2861   1.15482e-17 
  6648.4619   1.10164e-17 
  6649.6377   1.18255e-17 
  6650.8135   1.45871e-17 
  6651.9897   1.35134e-17 
   6653.166   1.54005e-17 
  6654.3418   1.33116e-17 
  6655.5181   1.44253e-17 
  6656.6943   1.26083e-17 
  6657.8701    1.2112e-17 
  6659.0464   1.30289e-17 
  6660.2227   1.45257e-17 
  6661.3989   1.16042e-17 
  6662.5752   1.30406e-17 
  6663.7515   1.06227e-17 
  6664.9282   1.18066e-17 
  6666.1045    1.3395e-17 
  6667.2808   1.43683e-17 
  6668.4575   1.26997e-17 
  6669.6338   1.21219e-17 
  6670.8105   1.25966e-17 
  6671.9868    1.4264e-17 
  6673.1636   1.43059e-17 
  6674.3403   1.11983e-17 
  6675.5166   1.09852e-17 
  6676.6934   1.06544e-17 
  6677.8701   1.07508e-17 
  6679.0469   1.21041e-17 
  6680.2236   1.34193e-17 
  6681.4004   1.13031e-17 
  6682.5776   1.14675e-17 
  6683.7544   1.30515e-17 
  6684.9312   1.21851e-17 
  6686.1079   1.08485e-17 
  6687.2852   1.29612e-17 
  6688.4619   1.14487e-17 
  6689.6392   1.21451e-17 
  6690.8159   1.19625e-17 
  6691.9932   1.26843e-17 
  6693.1704   1.19871e-17 
  6694.3477   1.22338e-17 
  6695.5249   1.27278e-17 
  6696.7017   1.04034e-17 
  6697.8794   1.20955e-17 
  6699.0566   1.06119e-17 
  6700.2339    1.0092e-17 
  6701.4111   1.22882e-17 
  6702.5884    9.9507e-18 
  6703.7661   1.21969e-17 
  6704.9434   1.28249e-17 
  6706.1206   1.05392e-17 
  6707.2983   1.37106e-17 
  6708.4761   1.50003e-17 
  6709.6533   1.13713e-17 
  6710.8311   1.07781e-17 
  6712.0088   1.25861e-17 
  6713.1865   1.06546e-17 
  6714.3638   1.11062e-17 
  6715.5415   1.08849e-17 
  6716.7197   1.17476e-17 
  6717.8975   1.27037e-17 
  6719.0752   1.21246e-17 
  6720.2529   1.23771e-17 
  6721.4307   1.34249e-17 
  6722.6089   1.27418e-17 
  6723.7866   1.15556e-17 
  6724.9648   1.29372e-17 
  6726.1426   1.09908e-17 
  6727.3208    1.2954e-17 
   6728.499   1.15124e-17 
  6729.6768   1.29024e-17 
   6730.855   1.29429e-17 
  6732.0332   1.25075e-17 
  6733.2114   1.37409e-17 
  6734.3896   1.22181e-17 
  6735.5679   1.14127e-17 
  6736.7461   1.34346e-17 
  6737.9243   1.38527e-17 
  6739.1025   1.35983e-17 
  6740.2812   1.04322e-17 
  6741.4595   1.62014e-17 
  6742.6377   1.17027e-17 
  6743.8164   1.37321e-17 
  6744.9951   1.44553e-17 
  6746.1733   1.38365e-17 
  6747.3521   1.56889e-17 
  6748.5308   1.16691e-17 
   6749.709   1.22346e-17 
  6750.8877   1.22432e-17 
  6752.0664   1.28636e-17 
  6753.2451   1.34878e-17 
  6754.4238   1.31163e-17 
   6755.603   1.41273e-17 
  6756.7817   1.37065e-17 
  6757.9604   1.29218e-17 
  6759.1392   1.39901e-17 
  6760.3184    1.3369e-17 
  6761.4971   1.43364e-17 
  6762.6763   1.61582e-17 
   6763.855   1.61553e-17 
  6765.0342   1.22076e-17 
  6766.2129   1.35643e-17 
  6767.3921   1.33557e-17 
  6768.5713   1.42809e-17 
  6769.7505   1.39468e-17 
  6770.9297   1.48328e-17 
  6772.1089   1.40023e-17 
  6773.2881   1.40598e-17 
  6774.4673   1.36744e-17 
  6775.6465   1.34594e-17 
  6776.8257    1.4954e-17 
  6778.0054   1.42064e-17 
  6779.1846   1.67842e-17 
  6780.3643    1.4805e-17 
  6781.5435   1.52121e-17 
  6782.7231   1.59958e-17 
  6783.9023   1.53641e-17 
   6785.082   1.69077e-17 
  6786.2617   1.44214e-17 
  6787.4414   1.38183e-17 
  6788.6211   1.66142e-17 
  6789.8003   1.50174e-17 
    6790.98   1.52616e-17 
  6792.1597   1.38206e-17 
  6793.3398   1.49486e-17 
  6794.5195    1.3124e-17 
  6795.6992   1.55587e-17 
  6796.8789   1.43823e-17 
  6798.0591   1.63419e-17 
  6799.2388   1.47934e-17 
  6800.4189   1.39166e-17 
  6801.5986   1.65631e-17 
  6802.7788   1.28355e-17 
   6803.959   1.57752e-17 
  6805.1387   1.55299e-17 
  6806.3188   1.43414e-17 
   6807.499    1.3298e-17 
  6808.6792   1.46247e-17 
  6809.8594    1.4049e-17 
  6811.0396   1.21693e-17 
  6812.2197   1.43414e-17 
  6813.3999     1.516e-17 
  6814.5801   1.31772e-17 
  6815.7607   1.34716e-17 
  6816.9409   1.44635e-17 
  6818.1211   1.22027e-17 
  6819.3018   1.49008e-17 
  6820.4824   1.38247e-17 
  6821.6626   1.36638e-17 
  6822.8433   1.48039e-17 
  6824.0239   1.33465e-17 
  6825.2041   1.39536e-17 
  6826.3848   1.53549e-17 
  6827.5654   1.39308e-17 
  6828.7461    1.5319e-17 
  6829.9268   1.53327e-17 
  6831.1074   1.23935e-17 
  6832.2881   1.57574e-17 
  6833.4688   1.49256e-17 
  6834.6499   1.43017e-17 
  6835.8306   1.47763e-17 
  6837.0112   1.50209e-17 
  6838.1924   1.56012e-17 
   6839.373   1.43232e-17 
  6840.5542   1.28499e-17 
  6841.7349   1.68449e-17 
   6842.916   1.60639e-17 
  6844.0972    1.3112e-17 
  6845.2783   1.61113e-17 
  6846.4595   1.54049e-17 
  6847.6406   1.49132e-17 
  6848.8218   1.45405e-17 
  6850.0029   1.63597e-17 
  6851.1841   1.48582e-17 
  6852.3652   1.32818e-17 
  6853.5464   1.45699e-17 
  6854.7275   1.41589e-17 
  6855.9092   1.34531e-17 
  6857.0903   1.50849e-17 
   6858.272   1.39722e-17 
  6859.4531   1.25779e-17 
  6860.6348   1.16559e-17 
  6861.8159   1.72384e-17 
  6862.9976   1.52398e-17 
  6864.1792   1.46019e-17 
  6865.3608   1.50924e-17 
  6866.5425   1.29926e-17 
  6867.7241   1.80383e-17 
  6868.9058   1.46816e-17 
  6870.0874   1.60594e-17 
   6871.269   1.51219e-17 
  6872.4507   1.58919e-17 
  6873.6323   1.27913e-17 
   6874.814   1.59149e-17 
  6875.9961    1.2417e-17 
  6877.1777   1.28649e-17 
  6878.3599   1.56963e-17 
  6879.5415   1.66986e-17 
  6880.7236   1.49869e-17 
  6881.9058   1.35564e-17 
  6883.0874     1.706e-17 
  6884.2695   1.67937e-17 
  6885.4517   1.71519e-17 
  6886.6338   1.66505e-17 
  6887.8159   1.52208e-17 
   6888.998   1.64615e-17 
  6890.1802    1.3285e-17 
  6891.3623   1.54851e-17 
  6892.5444    1.2881e-17 
  6893.7266   1.36834e-17 
  6894.9092   1.63458e-17 
  6896.0913   1.41329e-17 
  6897.2739   1.28821e-17 
  6898.4561   1.67623e-17 
  6899.6387   1.49721e-17 
  6900.8208   1.54674e-17 
  6902.0034   1.43337e-17 
   6903.186   1.74788e-17 
  6904.3682   1.59394e-17 
  6905.5508   1.63516e-17 
  6906.7334   1.62037e-17 
   6907.916   1.58501e-17 
  6909.0986   1.44568e-17 
  6910.2812   1.36602e-17 
  6911.4639   1.34979e-17 
  6912.6465   1.48928e-17 
  6913.8296   1.65585e-17 
  6915.0122   1.42504e-17 
  6916.1948    1.4957e-17 
  6917.3779    1.5804e-17 
  6918.5605   1.22694e-17 
  6919.7437   1.41425e-17 
  6920.9263   1.52936e-17 
  6922.1094   1.39232e-17 
  6923.2925   1.41434e-17 
  6924.4756    1.5131e-17 
  6925.6582   1.47712e-17 
  6926.8413   1.33392e-17 
  6928.0244   1.48184e-17 
  6929.2075   1.44933e-17 
  6930.3906   1.55243e-17 
  6931.5737   1.50568e-17 
  6932.7573   1.77654e-17 
  6933.9404   1.52257e-17 
  6935.1235   1.25518e-17 
  6936.3071   1.32671e-17 
  6937.4902   1.32963e-17 
  6938.6733   1.47057e-17 
  6939.8569   1.37697e-17 
    6941.04   1.25056e-17 
  6942.2236   1.50671e-17 
  6943.4072   1.45831e-17 
  6944.5908   1.48912e-17 
  6945.7739   1.20612e-17 
  6946.9575   1.60817e-17 
  6948.1411   1.55155e-17 
  6949.3247   1.42257e-17 
  6950.5083   1.55197e-17 
  6951.6919   1.48095e-17 
  6952.8755   1.55747e-17 
  6954.0591   1.62825e-17 
  6955.2432   1.56712e-17 
  6956.4268   1.51948e-17 
  6957.6108   1.46424e-17 
  6958.7944     1.567e-17 
   6959.978   1.54431e-17 
  6961.1621   1.38847e-17 
  6962.3462   1.63898e-17 
  6963.5298   1.19138e-17 
  6964.7139   1.56041e-17 
  6965.8979   1.42793e-17 
   6967.082   1.61144e-17 
  6968.2656   1.73559e-17 
  6969.4497   1.34678e-17 
  6970.6338   1.49543e-17 
  6971.8179   1.66022e-17 
  6973.0024   1.58525e-17 
  6974.1865   1.28181e-17 
  6975.3706   1.51027e-17 
  6976.5547   1.33961e-17 
  6977.7393   1.60623e-17 
  6978.9233   1.31875e-17 
  6980.1074   1.28987e-17 
   6981.292   1.77491e-17 
  6982.4761   1.35033e-17 
  6983.6606   1.49738e-17 
  6984.8452   1.49335e-17 
  6986.0298   1.45587e-17 
  6987.2139   1.55567e-17 
  6988.3984   1.64235e-17 
   6989.583   1.55515e-17 
  6990.7676   1.48372e-17 
  6991.9521   1.51019e-17 
  6993.1367    1.4959e-17 
  6994.3213   1.40232e-17 
  6995.5059   1.40532e-17 
  6996.6909   1.54294e-17 
  6997.8755   1.56617e-17 
  6999.0601   1.40911e-17 
  7000.2451   1.41468e-17 
  7001.4297   1.37685e-17 
  7002.6147   1.40008e-17 
  7003.7993   1.40656e-17 
  7004.9844   1.34847e-17 
  7006.1694   1.58804e-17 
   7007.354   1.51203e-17 
  7008.5391   1.57476e-17 
  7009.7241   1.39663e-17 
  7010.9092     1.413e-17 
  7012.0942   1.27774e-17 
  7013.2793   1.18959e-17 
  7014.4644   1.43602e-17 
  7015.6494   1.30766e-17 
  7016.8345   1.28823e-17 
  7018.0195   1.24713e-17 
  7019.2051   1.32797e-17 
  7020.3901   1.25148e-17 
  7021.5752   1.45887e-17 
  7022.7607   1.41785e-17 
  7023.9458   1.33052e-17 
  7025.1313   1.29047e-17 
  7026.3164   1.35838e-17 
   7027.502   1.55676e-17 
  7028.6875   1.28755e-17 
   7029.873     1.355e-17 
  7031.0581    1.4394e-17 
  7032.2437   1.42061e-17 
  7033.4292   1.46722e-17 
  7034.6147   1.32339e-17 
  7035.8003    1.3996e-17 
  7036.9863   1.32026e-17 
  7038.1719   1.39976e-17 
  7039.3574   1.48993e-17 
   7040.543   1.48732e-17 
  7041.7285   1.38862e-17 
  7042.9146   1.37105e-17 
  7044.1001   1.42956e-17 
  7045.2861   1.36149e-17 
  7046.4717   1.40422e-17 
  7047.6577   1.27747e-17 
  7048.8433   1.51434e-17 
  7050.0293    1.2844e-17 
  7051.2153   1.19504e-17 
  7052.4014   1.39305e-17 
  7053.5874   1.48366e-17 
  7054.7734   1.35904e-17 
   7055.959   1.45917e-17 
  7057.1455   1.37113e-17 
  7058.3315   1.24876e-17 
  7059.5176   1.40106e-17 
  7060.7036   1.44807e-17 
  7061.8896    1.3782e-17 
  7063.0757   1.48766e-17 
  7064.2622   1.26318e-17 
  7065.4482   1.27093e-17 
  7066.6348   1.34745e-17 
  7067.8208   1.14999e-17 
  7069.0073   1.33778e-17 
  7070.1934   1.32429e-17 
  7071.3799   1.14522e-17 
  7072.5664   1.46517e-17 
  7073.7529   1.38492e-17 
   7074.939   1.18147e-17 
  7076.1255   1.12913e-17 
   7077.312   1.12757e-17 
  7078.4985   1.26315e-17 
  7079.6851   1.27655e-17 
  7080.8716   1.21677e-17 
  7082.0581   1.14793e-17 
  7083.2451   1.37189e-17 
  7084.4316   1.35908e-17 
  7085.6182   1.09838e-17 
  7086.8047   1.08818e-17 
  7087.9917   1.41575e-17 
  7089.1782   1.45169e-17 
  7090.3652   1.40823e-17 
  7091.5518   1.47878e-17 
  7092.7388     1.495e-17 
  7093.9258   1.42352e-17 
  7095.1123     1.125e-17 
  7096.2993   1.23418e-17 
  7097.4863   1.37755e-17 
  7098.6733   1.40758e-17 
  7099.8604   1.15374e-17 
  7101.0474   1.33778e-17 
  7102.2344    1.3497e-17 
  7103.4214   1.21999e-17 
  7104.6084   1.51342e-17 
  7105.7954   1.28638e-17 
  7106.9829   1.36199e-17 
  7108.1699   1.36704e-17 
  7109.3569   1.28066e-17 
  7110.5444   1.40769e-17 
  7111.7314   1.33519e-17 
  7112.9185   1.25275e-17 
   7114.106    1.2406e-17 
  7115.2935   1.40691e-17 
  7116.4805   1.30329e-17 
   7117.668   1.18236e-17 
  7118.8555   1.11106e-17 
   7120.043   1.27007e-17 
    7121.23   1.16455e-17 
  7122.4175   1.19294e-17 
   7123.605   1.42856e-17 
  7124.7925   1.34052e-17 
    7125.98     1.144e-17 
   7127.168    1.3349e-17 
  7128.3555   1.07468e-17 
   7129.543   1.39128e-17 
  7130.7305    1.1838e-17 
  7131.9185   1.24045e-17 
   7133.106   1.15741e-17 
  7134.2935   1.13794e-17 
  7135.4814   1.32701e-17 
  7136.6694   1.18747e-17 
  7137.8569   1.25213e-17 
  7139.0449   1.26357e-17 
  7140.2324   1.30012e-17 
  7141.4204     1.033e-17 
  7142.6084   1.14022e-17 
  7143.7964   1.32113e-17 
  7144.9844   1.38931e-17 
  7146.1719   1.27495e-17 
  7147.3599   1.31477e-17 
  7148.5483   1.50007e-17 
  7149.7363   1.23547e-17 
  7150.9243   1.20165e-17 
  7152.1123   1.21128e-17 
  7153.3003   1.29458e-17 
  7154.4888   1.38302e-17 
  7155.6768   1.25272e-17 
  7156.8647   1.19689e-17 
  7158.0532   1.37977e-17 
  7159.2412   1.37479e-17 
  7160.4297   1.29266e-17 
  7161.6177   1.63004e-17 
  7162.8062   1.22048e-17 
  7163.9946   1.22889e-17 
  7165.1831   1.14803e-17 
  7166.3711   1.27375e-17 
  7167.5596   1.25041e-17 
   7168.748   1.25294e-17 
  7169.9365   1.28119e-17 
   7171.125   1.28035e-17 
  7172.3135   1.30907e-17 
   7173.502   1.41256e-17 
  7174.6904   1.06709e-17 
  7175.8794   1.13773e-17 
  7177.0679   1.22921e-17 
  7178.2563   1.25601e-17 
  7179.4448   1.16181e-17 
  7180.6338   1.30592e-17 
  7181.8223   9.96529e-18 
  7183.0112   1.25198e-17 
  7184.1997   1.23728e-17 
  7185.3887   1.25367e-17 
  7186.5776   1.10819e-17 
  7187.7661   1.29306e-17 
  7188.9551   1.12182e-17 
   7190.144   1.20934e-17 
   7191.333   1.22462e-17 
  7192.5215   1.36197e-17 
  7193.7109   1.07501e-17 
  7194.8994   1.22087e-17 
  7196.0884   1.07219e-17 
  7197.2778    1.2754e-17 
  7198.4668   1.09236e-17 
  7199.6558   1.36471e-17 
  7200.8447   1.11906e-17 
  7202.0337   9.28463e-18 
  7203.2231   1.17096e-17 
  7204.4121   1.25382e-17 
  7205.6016   9.97835e-18 
  7206.7905   1.25678e-17 
    7207.98   1.24398e-17 
  7209.1689   1.11141e-17 
  7210.3584   1.30996e-17 
  7211.5474   1.28952e-17 
  7212.7368   1.39987e-17 
  7213.9263   1.35634e-17 
  7215.1157   1.30349e-17 
  7216.3052   1.35533e-17 
  7217.4946   1.27287e-17 
  7218.6841   1.33917e-17 
  7219.8735   1.33653e-17 
   7221.063   1.41904e-17 
  7222.2524   1.37599e-17 
  7223.4419    1.2826e-17 
  7224.6313   1.33056e-17 
  7225.8208   1.30816e-17 
  7227.0107   1.36641e-17 
  7228.2002   1.46659e-17 
  7229.3901    1.1727e-17 
  7230.5796   1.20137e-17 
   7231.769   1.42489e-17 
   7232.959   1.32397e-17 
  7234.1489   1.51218e-17 
  7235.3384   1.48785e-17 
  7236.5283   1.37249e-17 
  7237.7183   1.18446e-17 
  7238.9077   1.33402e-17 
  7240.0977   1.13962e-17 
  7241.2876   1.45306e-17 
  7242.4775   1.42799e-17 
  7243.6675   1.31797e-17 
  7244.8574    1.7053e-17 
  7246.0474   1.25569e-17 
  7247.2373   1.56417e-17 
  7248.4272   1.19711e-17 
  7249.6177     1.365e-17 
  7250.8076   1.33967e-17 
  7251.9976    1.3638e-17 
  7253.1875   1.22107e-17 
  7254.3779   9.91249e-18 
  7255.5679   1.22063e-17 
  7256.7583   1.34415e-17 
  7257.9482    1.4165e-17 
  7259.1387    1.3678e-17 
  7260.3291    1.2948e-17 
   7261.519   1.18938e-17 
  7262.7095    1.3879e-17 
  7263.8999   1.12465e-17 
  7265.0903   1.49365e-17 
  7266.2803   1.28366e-17 
  7267.4707    1.5429e-17 
  7268.6611   1.36309e-17 
  7269.8516   1.28452e-17 
   7271.042   1.36631e-17 
  7272.2329   1.11977e-17 
  7273.4233   1.22121e-17 
  7274.6138   1.17959e-17 
  7275.8042   1.73065e-17 
  7276.9946   1.22186e-17 
  7278.1855   1.49566e-17 
   7279.376   1.25325e-17 
  7280.5669    8.5231e-18 
  7281.7573   1.21948e-17 
  7282.9482   9.46319e-18 
  7284.1387   1.52152e-17 
  7285.3296    1.1159e-17 
    7286.52   1.49154e-17 
  7287.7109   1.33926e-17 
  7288.9019   1.20503e-17 
  7290.0928   1.27487e-17 
  7291.2832   1.35375e-17 
  7292.4741   1.07071e-17 
   7293.665   1.31294e-17 
   7294.856   1.45575e-17 
  7296.0469   1.15157e-17 
  7297.2378   1.12373e-17 
  7298.4292    1.4113e-17 
  7299.6201   1.05653e-17 
   7300.811   1.35897e-17 
   7302.002   1.27032e-17 
  7303.1929    1.1483e-17 
  7304.3843   1.16108e-17 
  7305.5752   1.32508e-17 
  7306.7666   1.34281e-17 
  7307.9575   1.35176e-17 
  7309.1489   1.12152e-17 
  7310.3398   1.20825e-17 
  7311.5312   1.31135e-17 
  7312.7222    1.4535e-17 
  7313.9136   1.25937e-17 
   7315.105   1.37175e-17 
  7316.2964   1.34341e-17 
  7317.4878   1.48063e-17 
  7318.6787   1.03068e-17 
  7319.8701   1.21861e-17 
  7321.0615   1.28897e-17 
  7322.2529   1.28557e-17 
  7323.4448   1.39438e-17 
  7324.6362   1.24265e-17 
  7325.8276   1.13022e-17 
   7327.019   1.48002e-17 
  7328.2104   1.15627e-17 
  7329.4023   1.25427e-17 
  7330.5938   9.34112e-18 
  7331.7852   1.27962e-17 
  7332.9771   1.17636e-17 
  7334.1685   1.16172e-17 
  7335.3599   1.23187e-17 
  7336.5518   1.39968e-17 
  7337.7437   1.35566e-17 
  7338.9351   9.91831e-18 
   7340.127   1.24617e-17 
  7341.3188   1.64493e-17 
  7342.5107   9.63458e-18 
  7343.7026   1.40428e-17 
   7344.894   1.41102e-17 
  7346.0859   1.40712e-17 
  7347.2778    1.1419e-17 
  7348.4697   1.12581e-17 
  7349.6616   1.23158e-17 
  7350.8535   1.38795e-17 
  7352.0454   1.19974e-17 
  7353.2378   1.20791e-17 
  7354.4297   1.30136e-17 
  7355.6216   1.33833e-17 
  7356.8135   1.07622e-17 
  7358.0059   1.52263e-17 
  7359.1978   1.23692e-17 
  7360.3901   1.21317e-17 
   7361.582   1.29203e-17 
  7362.7744   9.76036e-18 
  7363.9663   1.29989e-17 
  7365.1587   1.16207e-17 
  7366.3506   1.00006e-17 
   7367.543   1.38428e-17 
  7368.7354   1.22737e-17 
  7369.9277   1.47566e-17 
  7371.1196   1.24424e-17 
   7372.312   1.33195e-17 
  7373.5044   1.27973e-17 
  7374.6968   1.10198e-17 
  7375.8892   1.20568e-17 
  7377.0815   1.07175e-17 
  7378.2739    1.3339e-17 
  7379.4663   1.15979e-17 
  7380.6592   1.18072e-17 
  7381.8516   1.12008e-17 
  7383.0439   1.09962e-17 
  7384.2363   1.11316e-17 
  7385.4292   1.15944e-17 
  7386.6216   1.20891e-17 
   7387.814   9.79897e-18 
  7389.0068   1.38571e-17 
  7390.1997    1.2778e-17 
  7391.3921   1.06571e-17 
   7392.585   1.29258e-17 
  7393.7773   1.19711e-17 
  7394.9702   1.23842e-17 
  7396.1631   1.01988e-17 
  7397.3555   1.29998e-17 
  7398.5483   1.00641e-17 
  7399.7412   1.21917e-17 
  7400.9341   1.19395e-17 
   7402.127   1.56975e-17 
  7403.3198   1.41171e-17 
  7404.5127   1.12098e-17 
  7405.7056   8.58862e-18 
  7406.8984   1.17146e-17 
  7408.0913   1.07024e-17 
  7409.2842   1.01078e-17 
  7410.4775   1.20172e-17 
  7411.6704   1.18294e-17 
  7412.8633   1.02911e-17 
  7414.0566   1.04085e-17 
  7415.2495   1.22616e-17 
  7416.4424   1.15208e-17 
  7417.6357   1.11005e-17 
  7418.8286   1.43139e-17 
   7420.022   1.27942e-17 
  7421.2153   1.04141e-17 
  7422.4082    1.1071e-17 
  7423.6016   1.18408e-17 
  7424.7949    1.1797e-17 
  7425.9878   1.20784e-17 
  7427.1812    1.3777e-17 
  7428.3745   1.20994e-17 
  7429.5679   1.11912e-17 
  7430.7612   9.60402e-18 
  7431.9546   1.12842e-17 
  7433.1479    1.1434e-17 
  7434.3413   9.03519e-18 
  7435.5347   1.14885e-17 
   7436.728   1.16702e-17 
  7437.9214   1.16056e-17 
  7439.1152   1.21056e-17 
  7440.3086   1.14569e-17 
   7441.502   1.12342e-17 
  7442.6958   1.17355e-17 
  7443.8892   1.11404e-17 
  7445.0825   1.16161e-17 
  7446.2764   9.84518e-18 
  7447.4697   1.20055e-17 
  7448.6636   1.17408e-17 
  7449.8574    1.1771e-17 
  7451.0508   1.24582e-17 
  7452.2446   1.10164e-17 
   7453.438   1.14749e-17 
  7454.6318   1.26599e-17 
  7455.8257   1.03265e-17 
  7457.0195   1.18477e-17 
  7458.2134   1.22093e-17 
  7459.4072   1.09876e-17 
  7460.6011   1.12582e-17 
  7461.7949    1.0819e-17 
  7462.9888   1.25542e-17 
  7464.1826   1.18339e-17 
  7465.3765   1.16897e-17 
  7466.5703   1.21126e-17 
  7467.7642   1.36905e-17 
   7468.958   1.13638e-17 
  7470.1523   1.30967e-17 
  7471.3462   1.26514e-17 
    7472.54   1.26897e-17 
  7473.7344   1.38869e-17 
  7474.9282   9.89799e-18 
  7476.1221    1.2577e-17 
  7477.3164   1.27204e-17 
  7478.5107   1.08635e-17 
  7479.7046   8.93826e-18 
  7480.8989   1.26693e-17 
  7482.0928   1.00435e-17 
  7483.2871   1.16785e-17 
  7484.4814   1.03109e-17 
  7485.6758   1.15831e-17 
  7486.8701   1.20969e-17 
   7488.064   1.46018e-17 
  7489.2583   1.15641e-17 
  7490.4526   1.01649e-17 
   7491.647   1.20431e-17 
  7492.8413   1.00235e-17 
  7494.0356   1.12061e-17 
    7495.23   1.02099e-17 
  7496.4248   1.18233e-17 
  7497.6191   1.19586e-17 
  7498.8135   9.77328e-18 
  7500.0078   9.07404e-18 
  7501.2026   1.32843e-17 
   7502.397    1.0657e-17 
  7503.5913   1.06637e-17 
  7504.7861   1.07677e-17 
  7505.9805   1.23588e-17 
  7507.1748   1.26544e-17 
  7508.3696   1.06806e-17 
   7509.564   1.15695e-17 
  7510.7588   1.18647e-17 
  7511.9536   9.79695e-18 
  7513.1484   1.19167e-17 
  7514.3428   1.04773e-17 
  7515.5376   9.39527e-18 
  7516.7324   1.04771e-17 
  7517.9268   1.13027e-17 
  7519.1216   1.23701e-17 
  7520.3164   1.05543e-17 
  7521.5112   9.30376e-18 
  7522.7061   1.24287e-17 
  7523.9009   7.69098e-18 
  7525.0957   1.10137e-17 
  7526.2905   1.24446e-17 
  7527.4858   1.09183e-17 
  7528.6807   1.01095e-17 
  7529.8755   1.20546e-17 
  7531.0703   1.08962e-17 
  7532.2651   1.22127e-17 
  7533.4604   1.09762e-17 
  7534.6553   1.11714e-17 
  7535.8501   1.17454e-17 
  7537.0454   1.28052e-17 
  7538.2402   1.09071e-17 
  7539.4355    1.4252e-17 
  7540.6304   1.19034e-17 
  7541.8257   1.30054e-17 
   7543.021   1.12131e-17 
  7544.2158   1.25973e-17 
  7545.4111   1.29653e-17 
  7546.6064   1.17539e-17 
  7547.8013    1.0898e-17 
  7548.9966   1.11666e-17 
  7550.1919   1.27639e-17 
  7551.3872   1.27973e-17 
  7552.5825   1.09869e-17 
  7553.7778   1.10256e-17 
  7554.9731   1.37029e-17 
  7556.1685   1.11241e-17 
  7557.3638    9.7046e-18 
  7558.5591   1.10359e-17 
  7559.7544   1.12893e-17 
  7560.9497   1.22256e-17 
   7562.145   1.13529e-17 
  7563.3408   1.22996e-17 
  7564.5361   1.13518e-17 
  7565.7314   1.12899e-17 
  7566.9272   1.16682e-17 
  7568.1226   1.25893e-17 
  7569.3179   1.24059e-17 
  7570.5137   1.25275e-17 
   7571.709    1.2231e-17 
  7572.9048   8.45811e-18 
  7574.1006    1.1841e-17 
  7575.2959   1.18324e-17 
  7576.4917   1.13551e-17 
   7577.687   1.08965e-17 
  7578.8828   1.17212e-17 
  7580.0786   1.16124e-17 
  7581.2744   1.21918e-17 
  7582.4702   1.26782e-17 
  7583.6655   1.16245e-17 
  7584.8613   8.92118e-18 
  7586.0571   1.05421e-17 
  7587.2529   1.02041e-17 
  7588.4487   1.25696e-17 
  7589.6445   1.00302e-17 
  7590.8403   1.39782e-17 
  7592.0361   1.26433e-17 
  7596.8198   1.76185e-17 
  7598.0161   1.70399e-17 
  7599.2119   1.04335e-17 
  7600.4077   7.00865e-18 
   7601.604   8.95425e-18 
  7602.7998   1.46921e-17 
  7603.9956   6.66036e-18 
  7605.1919   1.35063e-17 
  7606.3877   1.32052e-17 
   7607.584   1.12648e-17 
  7608.7803   1.08431e-17 
  7609.9761   9.92937e-18 
  7611.1724   9.69628e-18 
  7612.3687   7.11372e-18 
  7613.5645   1.00217e-17 
  7614.7607   1.13826e-17 
   7615.957   1.01473e-17 
  7617.1533   9.75795e-18 
  7618.3496   1.13141e-17 
  7619.5459   1.15175e-17 
  7620.7422   1.14048e-17 
   7621.938   1.08476e-17 
  7623.1343   1.35316e-17 
  7624.3306   1.21415e-17 
  7625.5273   1.57692e-17 
  7626.7236    1.3433e-17 
  7627.9199    1.1638e-17 
  7629.1162   9.94989e-18 
  7630.3125   9.97494e-18 
  7631.5093   1.24692e-17 
  7632.7056    8.0091e-18 
  7633.9019   1.35721e-17 
  7635.0986   1.40315e-17 
  7636.2949   1.11995e-17 
  7637.4912   1.48084e-17 
   7638.688   1.08006e-17 
  7639.8843   1.33414e-17 
  7641.0811   1.15944e-17 
  7642.2778   1.11093e-17 
  7643.4741   1.05945e-17 
  7644.6709   1.30027e-17 
  7645.8672   1.51876e-17 
   7647.064   1.29173e-17 
  7648.2607   1.28407e-17 
  7649.4575    1.1596e-17 
  7650.6538   1.13431e-17 
  7651.8506   1.03669e-17 
  7653.0474   1.27352e-17 
  7654.2441   1.23953e-17 
  7655.4409   1.18915e-17 
  7656.6377   1.27917e-17 
  7657.8345   1.17354e-17 
  7659.0312   1.13359e-17 
   7660.228   1.25672e-17 
  7661.4248   1.40231e-17 
  7662.6216   1.05656e-17 
  7663.8184   1.35234e-17 
  7665.0156   1.29955e-17 
  7666.2124   1.15626e-17 
  7667.4092   1.08828e-17 
   7668.606   1.16413e-17 
  7669.8032   1.16644e-17 
     7671.0   1.11102e-17 
  7672.1968   1.19121e-17 
   7673.394   1.11473e-17 
  7674.5908   9.97154e-18 
  7675.7881   1.09082e-17 
  7676.9849   1.20423e-17 
  7678.1821   1.23308e-17 
  7679.3789   1.09417e-17 
  7680.5762   9.90904e-18 
  7681.7734   1.20362e-17 
  7682.9702   1.24914e-17 
  7684.1675   1.20637e-17 
  7685.3647   1.20993e-17 
   7686.562    1.1872e-17 
  7687.7588   1.03101e-17 
  7688.9561   8.84519e-18 
  7690.1533   1.11264e-17 
  7691.3506   1.03066e-17 
  7692.5479   1.07769e-17 
  7693.7451   1.06703e-17 
  7694.9424   1.15364e-17 
  7696.1396   9.62578e-18 
  7697.3369   9.86088e-18 
  7698.5342   1.07418e-17 
  7699.7314   1.09807e-17 
  7700.9287   1.14465e-17 
  7702.1265   9.98136e-18 
  7703.3237    1.1802e-17 
   7704.521   1.09146e-17 
  7705.7183   1.21928e-17 
   7706.916    1.0231e-17 
  7708.1133   1.01475e-17 
   7709.311   1.11119e-17 
  7710.5083   1.40701e-17 
  7711.7056   1.40753e-17 
  7712.9033   8.26624e-18 
  7714.1006   1.47728e-17 
  7715.2983   1.01704e-17 
  7716.4956   1.09258e-17 
  7717.6934   1.20093e-17 
  7718.8911   7.70164e-18 
  7720.0884   1.03078e-17 
  7721.2861   1.13908e-17 
  7722.4839   9.09756e-18 
  7723.6816   1.12586e-17 
  7724.8789   1.17921e-17 
  7726.0767   1.23517e-17 
  7727.2744   1.12474e-17 
  7728.4722   1.17117e-17 
  7729.6699   9.05325e-18 
  7730.8677    1.1928e-17 
  7732.0654   1.20976e-17 
  7733.2632   9.23038e-18 
  7734.4609   1.04901e-17 
  7735.6587     1.004e-17 
  7736.8564   1.10892e-17 
  7738.0542   1.14608e-17 
   7739.252   1.06846e-17 
  7740.4497   1.13275e-17 
  7741.6479   9.78252e-18 
  7742.8457   1.02833e-17 
  7744.0435   9.81026e-18 
  7745.2417   1.00178e-17 
  7746.4395   9.51484e-18 
  7747.6372   1.12867e-17 
  7748.8354   1.21526e-17 
  7750.0332   9.39912e-18 
   7751.231   1.09923e-17 
  7752.4292   1.03313e-17 
  7753.6274   9.49379e-18 
  7754.8252   1.13887e-17 
  7756.0234   1.09449e-17 
  7757.2212    1.0674e-17 
  7758.4194   8.80647e-18 
  7759.6172   8.85042e-18 
  7760.8154   8.77146e-18 
  7762.0137   9.56082e-18 
  7763.2119   9.02865e-18 
  7764.4097      1.03e-17 
  7765.6079   8.85142e-18 
  7766.8062    1.1637e-17 
  7768.0044    1.0633e-17 
  7769.2026   9.82536e-18 
  7770.4009   8.09365e-18 
  7771.5991   9.57943e-18 
  7772.7974   8.85341e-18 
  7773.9956   8.79066e-18 
  7775.1938   1.07221e-17 
  7776.3921   1.02417e-17 
  7777.5903   8.28948e-18 
  7778.7886   9.82502e-18 
  7779.9868   8.81463e-18 
  7781.1851   8.53528e-18 
  7782.3838   9.16072e-18 
   7783.582   1.11301e-17 
  7784.7803    1.0631e-17 
   7785.979   1.00324e-17 
  7787.1772   7.64592e-18 
  7788.3755   1.25749e-17 
  7789.5742   1.01261e-17 
  7790.7725   1.55731e-17 
  7791.9712   7.87618e-18 
  7793.1694   6.35564e-18 
  7794.3682   1.34106e-17 
  7795.5664   6.29904e-18 
  7796.7651   1.32425e-17 
  7797.9634   8.78606e-18 
  7799.1621   1.26159e-17 
  7800.3608   1.06414e-17 
  7801.5591   1.00413e-17 
  7802.7578   9.98863e-18 
  7803.9565   8.64192e-18 
  7805.1548   9.77842e-18 
  7806.3535   8.55535e-18 
  7807.5522   1.01906e-17 
   7808.751   9.91482e-18 
  7809.9497   8.13523e-18 
  7811.1484   7.26258e-18 
  7812.3472   1.05367e-17 
  7813.5459   1.07746e-17 
  7814.7446   1.04334e-17 
  7815.9429   1.01009e-17 
  7817.1421   1.18552e-17 
  7818.3408   6.27278e-18 
  7819.5396   9.85993e-18 
  7820.7383   1.25459e-17 
   7821.937     1.282e-17 
  7823.1357   8.75353e-18 
  7824.3345   1.21947e-17 
  7825.5337   1.10299e-17 
  7826.7324   9.55066e-18 
  7827.9312   1.09663e-17 
  7829.1299   9.63083e-18 
  7830.3291   1.06918e-17 
  7831.5278   8.96801e-18 
  7832.7271   1.08377e-17 
  7833.9258   1.05289e-17 
   7835.125   1.09962e-17 
  7836.3237   1.06309e-17 
  7837.5225   8.19287e-18 
  7838.7217   9.20796e-18 
  7839.9209     1.025e-17 
  7841.1196   7.68326e-18 
  7842.3188   8.71515e-18 
  7843.5176   7.95367e-18 
  7844.7168   9.03656e-18 
   7845.916   7.84426e-18 
  7847.1152   9.54191e-18 
  7849.5132   1.29146e-17 
  7850.7124   1.02704e-17 
  7851.9116   1.15969e-17 
  7853.1108   8.59405e-18 
  7854.3096   1.15819e-17 
  7855.5088   8.92753e-18 
   7856.708   1.14674e-17 
  7857.9072   8.17908e-18 
  7859.1064   1.08896e-17 
  7860.3057   1.23402e-17 
  7861.5049   9.18769e-18 
  7862.7041   9.45758e-18 
  7863.9033   1.07331e-17 
  7865.1025    1.0402e-17 
  7866.3018    8.5789e-18 
  7867.5015   9.58565e-18 
  7868.7007   9.58568e-18 
  7869.8999   1.17714e-17 
  7871.0991   9.99358e-18 
  7872.2988    6.8057e-18 
   7873.498   8.95765e-18 
  7874.6973   1.05308e-17 
  7875.8965   1.16741e-17 
  7877.0962   1.15178e-17 
  7878.2954   1.24003e-17 
  7879.4951   1.02454e-17 
  7880.6943   1.27128e-17 
   7881.894   1.06264e-17 
  7883.0933   8.81774e-18 
   7884.293   1.12451e-17 
  7885.4922    8.9071e-18 
  7886.6919   9.19986e-18 
  7887.8911   9.06365e-18 
  7889.0908   9.49417e-18 
  7890.2905   1.55019e-17 
  7891.4897   1.13476e-17 
  7892.6895   7.46208e-18 
  7893.8892   9.52805e-18 
  7895.0884   8.34987e-18 
  7896.2881   9.12208e-18 
  7897.4878   1.05102e-17 
  7898.6875   1.17779e-17 
  7899.8872   1.11915e-17 
  7901.0869   1.02586e-17 
  7902.2861   9.67322e-18 
  7903.4858   1.02144e-17 
  7904.6855   1.16109e-17 
  7905.8853   1.03175e-17 
   7907.085   1.16879e-17 
  7908.2847   9.80941e-18 
  7909.4844   1.09227e-17 
  7910.6841    7.7642e-18 
  7911.8838   9.61115e-18 
   7913.084   1.40035e-17 
  7914.2837   1.16376e-17 
  7915.4834   7.50976e-18 
  7916.6831   9.84699e-18 
  7917.8828    7.5153e-18 
   7919.083   1.25798e-17 
  7920.2827   9.05532e-18 
  7921.4824   1.29091e-17 
  7922.6821   1.40875e-17 
  7923.8823   8.91774e-18 
   7925.082    1.1935e-17 
  7926.2817   1.25002e-17 
  7927.4819   9.89669e-18 
  7928.6816   1.13041e-17 
  7929.8818   8.36511e-18 
  7931.0815   1.00143e-17 
  7932.2817   1.08371e-17 
  7933.4814   1.25169e-17 
  7934.6816   1.19429e-17 
  7935.8813   1.45653e-17 
  7937.0815   1.07144e-17 
  7938.2817   1.01904e-17 
  7939.4814   1.05624e-17 
  7940.6816   1.17976e-17 
  7941.8813   1.08115e-17 
  7943.0815   1.02769e-17 
  7944.2817   9.91755e-18 
  7945.4819   1.03556e-17 
  7946.6816   1.18434e-17 
  7947.8818   1.13707e-17 
   7949.082   1.28824e-17 
  7950.2822   1.17005e-17 
  7951.4824   1.06256e-17 
  7952.6826   9.78206e-18 
  7953.8823   1.14448e-17 
  7955.0825    1.0222e-17 
  7956.2827   1.11704e-17 
  7957.4829    1.1417e-17 
  7958.6831   1.09318e-17 
  7959.8833   1.26939e-17 
  7961.0835   9.41307e-18 
  7962.2837   8.58963e-18 
  7963.4839   7.95193e-18 
  7964.6846   1.17316e-17 
  7965.8848   8.77761e-18 
   7967.085   1.21762e-17 
  7968.2852   1.36495e-17 
  7969.4854    1.0451e-17 
   7970.686   9.65727e-18 
  7971.8862   1.12465e-17 
  7973.0864    9.9381e-18 
  7974.2866   1.38916e-17 
  7975.4873   1.30243e-17 
  7976.6875   1.23962e-17 
  7977.8877   1.01347e-17 
  7979.0884   1.09294e-17 
  7980.2886   1.03487e-17 
  7981.4888   9.90858e-18 
  7982.6895   1.18366e-17 
  7983.8901   1.22057e-17 
  7985.0903   1.01734e-17 
  7986.2905   1.14813e-17 
  7987.4912   1.14049e-17 
  7988.6919   1.18891e-17 
  7989.8921   9.83039e-18 
  7991.0928   1.01179e-17 
   7992.293   1.24887e-17 
  7993.4937   8.88605e-18 
  7994.6943   9.91025e-18 
  7995.8945   6.94155e-18 
  7997.0952    1.2671e-17 
  7998.2959   1.02801e-17 
  7999.4961   1.09881e-17 
  8000.6968   1.18088e-17 
  8001.8975   1.26862e-17 
  8003.0981   1.21791e-17 
  8004.2988   9.38052e-18 
   8005.499   1.00451e-17 
  8006.6997    1.0625e-17 
  8007.9004   1.13452e-17 
  8009.1011   1.01577e-17 
  8010.3018   1.28261e-17 
  8011.5024   1.23265e-17 
  8012.7031   1.24867e-17 
  8013.9038   1.05347e-17 
  8015.1045   1.12127e-17 
  8016.3052   1.13968e-17 
  8017.5059   8.83547e-18 
  8018.7065   1.11602e-17 
  8019.9072   1.17557e-17 
  8021.1079    1.1157e-17 
  8022.3086   1.23177e-17 
  8023.5098   1.24086e-17 
  8024.7104   1.00908e-17 
  8025.9111   1.13507e-17 
  8027.1118   1.43661e-17 
  8028.3125   9.84102e-18 
  8029.5137   1.22367e-17 
  8030.7144   9.94749e-18 
   8031.915   1.18831e-17 
  8033.1162   1.24952e-17 
  8034.3169   1.19886e-17 
  8035.5176   1.16071e-17 
  8036.7188   1.15244e-17 
  8037.9194   1.10415e-17 
  8039.1201   1.17359e-17 
  8040.3213   1.20515e-17 
   8041.522   1.11017e-17 
  8042.7231   1.15905e-17 
  8043.9238   1.09787e-17 
   8045.125   1.08288e-17 
  8046.3257   1.16003e-17 
  8047.5269   1.30159e-17 
   8048.728    1.1563e-17 
  8049.9287   1.16738e-17 
  8051.1299   1.12075e-17 
  8052.3306   1.51902e-17 
  8053.5317   1.76883e-17 
  8054.7329   1.68069e-17 
  8055.9336   1.68917e-17 
  8057.1348   1.51678e-17 
  8058.3359   1.46549e-17 
  8059.5371     1.462e-17 
  8060.7378   1.23017e-17 
   8061.939   1.69585e-17 
  8063.1401    1.4993e-17 
  8064.3413   1.74861e-17 
   8065.542    1.6859e-17 
  8066.7432   1.73602e-17 
  8067.9443   1.47423e-17 
  8069.1455   1.57486e-17 
  8070.3467   1.50762e-17 
  8071.5479   1.46974e-17 
   8072.749   1.40336e-17 
  8073.9502   1.43206e-17 
  8075.1514   1.58259e-17 
  8076.3525   1.50725e-17 
  8077.5537   1.61073e-17 
  8078.7549    1.6353e-17 
  8079.9561   1.62392e-17 
  8081.1572   1.79862e-17 
  8082.3584   1.52292e-17 
  8083.5596   1.45773e-17 
  8084.7607   1.36208e-17 
  8085.9624   1.37677e-17 
  8087.1636   1.61884e-17 
  8088.3647   1.36911e-17 
  8089.5659   1.50785e-17 
  8090.7671    1.3806e-17 
  8091.9683   1.56442e-17 
  8093.1699   1.60876e-17 
  8094.3711   1.27492e-17 
  8095.5723   1.52435e-17 
  8096.7739   1.57122e-17 
  8097.9751   1.45366e-17 
  8099.1763   1.59707e-17 
  8100.3779   1.57597e-17 
  8101.5791    1.4691e-17 
  8102.7803   1.55132e-17 
  8103.9819   1.59228e-17 
  8105.1831   1.39619e-17 
  8106.3848   1.31784e-17 
  8107.5859   1.46667e-17 
  8108.7876   1.20225e-17 
  8109.9888   1.37612e-17 
  8111.1904   1.32386e-17 
  8112.3916   1.34803e-17 
  8113.5933   1.29853e-17 
  8114.7944   1.28262e-17 
  8115.9961   1.43513e-17 
  8117.1973   1.38635e-17 
  8118.3989   1.46962e-17 
  8119.6006   1.52991e-17 
  8120.8018    1.3268e-17 
  8122.0034   1.34815e-17 
  8123.2051   1.53257e-17 
  8124.4067   1.31861e-17 
  8125.6079   1.44383e-17 
  8126.8096   1.35762e-17 
  8128.0112   1.25846e-17 
  8129.2124   1.27501e-17 
  8130.4141   1.58868e-17 
  8131.6157   1.41623e-17 
  8132.8174    1.4177e-17 
   8134.019   1.34138e-17 
  8135.2207   1.36052e-17 
  8136.4219   1.36598e-17 
  8137.6235    1.3269e-17 
  8138.8252   1.25256e-17 
  8140.0269   1.25992e-17 
  8141.2285   1.35852e-17 
  8142.4302   1.12057e-17 
  8143.6318   1.19147e-17 
  8144.8335   1.40035e-17 
  8146.0352   1.25509e-17 
  8147.2368   1.16202e-17 
  8148.4385   1.16715e-17 
  8149.6401   1.33758e-17 
  8150.8418   1.23053e-17 
  8152.0435    1.1232e-17 
  8153.2451   1.34301e-17 
  8154.4468   1.25506e-17 
  8155.6484   1.37325e-17 
  8156.8506   1.12882e-17 
  8158.0522   1.30748e-17 
  8159.2539   1.34183e-17 
  8160.4556   1.24995e-17 
  8161.6572    1.3121e-17 
  8162.8589   1.37398e-17 
   8164.061   1.15794e-17 
  8165.2627   1.20944e-17 
  8166.4644   1.06481e-17 
   8167.666   1.27502e-17 
  8168.8682   1.25384e-17 
  8170.0698   1.14966e-17 
  8171.2715   1.15032e-17 
  8172.4736    1.3049e-17 
  8173.6753   1.31116e-17 
   8174.877   1.29521e-17 
  8176.0791   1.32029e-17 
  8177.2808   1.02826e-17 
  8178.4829   1.25757e-17 
  8179.6846   1.12483e-17 
  8180.8862   1.04045e-17 
  8182.0884   1.10979e-17 
    8183.29   1.07912e-17 
  8184.4922   1.30322e-17 
  8185.6938   1.19684e-17 
   8186.896   1.06179e-17 
  8188.0977    1.0452e-17 
  8189.2998   1.26977e-17 
  8190.5015   1.08894e-17 
  8191.7036   1.13773e-17 
  8192.9053   1.08108e-17 
  8194.1074   1.18467e-17 
  8195.3096   1.35151e-17 
  8196.5117    1.1171e-17 
  8197.7129    1.1793e-17 
   8198.915   1.32622e-17 
  8200.1172    1.0768e-17 
  8201.3193   1.29033e-17 
  8202.5215   1.06044e-17 
  8203.7236   1.20421e-17 
  8204.9258   1.19432e-17 
   8206.127   1.42117e-17 
  8207.3291   1.18298e-17 
  8208.5312   1.30238e-17 
  8209.7334    1.2241e-17 
  8210.9355   1.13825e-17 
  8212.1377   1.12865e-17 
  8213.3398   1.34094e-17 
   8214.542   1.20487e-17 
  8215.7441   1.41053e-17 
  8216.9453   1.14472e-17 
  8218.1475   1.23243e-17 
  8219.3496   1.00837e-17 
  8220.5518    1.1387e-17 
  8221.7539   1.06164e-17 
  8222.9561   1.23248e-17 
  8224.1582   1.11402e-17 
  8225.3604   1.17079e-17 
  8226.5625   1.10494e-17 
  8227.7646   1.04914e-17 
  8228.9668   9.83276e-18 
  8230.1689   1.02689e-17 
  8231.3711    1.0205e-17 
  8232.5732    1.0597e-17 
  8233.7754   1.05593e-17 
  8234.9775   1.23873e-17 
  8236.1797   1.06476e-17 
  8237.3818   1.05839e-17 
   8238.584   1.16558e-17 
  8239.7861   1.10811e-17 
  8240.9883   1.09434e-17 
  8242.1904   1.02889e-17 
  8243.3926   1.15763e-17 
  8244.5947   9.52458e-18 
  8245.7979   1.19581e-17 
     8247.0   1.02386e-17 
  8248.2021   1.03774e-17 
  8249.4043   1.29141e-17 
  8250.6064   1.09224e-17 
  8251.8086   1.20793e-17 
  8253.0107    9.8836e-18 
  8254.2129   1.20021e-17 
   8255.415   1.04705e-17 
  8256.6182    1.1417e-17 
  8257.8203   1.12158e-17 
  8259.0225   1.25574e-17 
  8260.2246   9.07863e-18 
  8261.4268   1.12757e-17 
  8262.6289   1.14005e-17 
  8263.8311   1.08688e-17 
  8265.0342   1.03077e-17 
  8266.2363   1.11849e-17 
  8267.4385   1.02908e-17 
  8268.6406   1.06705e-17 
  8269.8428   1.22212e-17 
  8271.0449   1.13932e-17 
   8272.248   1.00862e-17 
  8273.4502   1.05458e-17 
  8274.6523   1.08272e-17 
  8275.8545   1.31226e-17 
  8277.0576   1.04545e-17 
  8278.2598   1.00347e-17 
  8279.4619   1.12542e-17 
  8280.6641   1.70497e-17 
  8281.8672    8.3826e-18 
  8283.0693   7.60772e-18 
  8284.2715    1.1374e-17 
  8285.4736   1.33141e-17 
  8286.6768   9.51755e-18 
  8287.8789   1.14162e-17 
  8289.0811   9.32307e-18 
  8290.2832   1.29118e-17 
  8291.4863   1.07483e-17 
  8292.6885     1.106e-17 
  8293.8906   1.25941e-17 
  8295.0938   1.13371e-17 
  8296.2959   1.25215e-17 
   8297.498   1.36758e-17 
  8298.7012   1.33108e-17 
  8299.9033   9.58956e-18 
  8301.1055   1.19655e-17 
  8302.3086   1.18441e-17 
  8303.5107   1.14437e-17 
  8304.7129    8.2356e-18 
   8305.916   1.08608e-17 
  8307.1182   1.15941e-17 
  8308.3203   1.21037e-17 
  8309.5234   1.24995e-17 
  8310.7256   1.10893e-17 
  8311.9277   8.47265e-18 
  8313.1309   1.04344e-17 
   8314.333   1.09002e-17 
  8315.5361   1.04384e-17 
  8316.7383   1.24872e-17 
  8317.9404   1.14335e-17 
  8319.1436   9.89243e-18 
  8320.3457   1.05254e-17 
  8321.5488   1.02626e-17 
   8322.751   1.15191e-17 
  8323.9531   1.15259e-17 
  8325.1562   1.06827e-17 
  8326.3584   1.15859e-17 
  8327.5615   1.07983e-17 
  8328.7637   1.18084e-17 
  8329.9668   1.01349e-17 
  8331.1689   1.17934e-17 
  8332.3721   1.22508e-17 
  8333.5742    1.1442e-17 
  8334.7773   1.04205e-17 
  8335.9795   1.07457e-17 
  8337.1816   1.14351e-17 
  8338.3848   1.27363e-17 
  8339.5869   9.91522e-18 
    8340.79   9.29312e-18 
  8341.9922   1.86047e-17 
  8343.1953   1.16728e-17 
  8344.3975   1.05119e-17 
  8345.6006   1.13548e-17 
  8346.8027   1.00416e-17 
  8348.0059   1.44868e-17 
   8349.208   1.16725e-17 
  8350.4111   1.20201e-17 
  8351.6143   1.03693e-17 
  8352.8164   1.14775e-17 
  8354.0195   1.11477e-17 
  8355.2217   1.03999e-17 
  8356.4248   1.04058e-17 
   8357.627   1.09958e-17 
  8358.8301   1.28499e-17 
  8360.0322   1.02789e-17 
  8361.2354   1.23328e-17 
  8362.4375   9.86856e-18 
  8363.6406   8.74061e-18 
  8364.8438   1.31538e-17 
  8366.0459   9.81161e-18 
   8367.249   1.09632e-17 
  8368.4512   1.21675e-17 
  8369.6543   1.11255e-17 
  8370.8564   1.13329e-17 
  8372.0596   1.16665e-17 
  8373.2627   1.40042e-17 
  8374.4648   1.32369e-17 
   8375.668   1.10288e-17 
  8376.8701   1.04783e-17 
  8378.0732   9.75823e-18 
  8379.2764   1.18853e-17 
  8380.4785   1.00965e-17 
  8381.6816   1.55029e-17 
  8382.8848   1.30872e-17 
  8384.0869    1.1727e-17 
    8385.29   1.24272e-17 
  8386.4922    1.1551e-17 
  8387.6953   9.92352e-18 
  8388.8984   1.37069e-17 
  8390.1006   1.17375e-17 
  8391.3037   1.04694e-17 
  8392.5068   1.00854e-17 
   8393.709   1.13721e-17 
  8394.9121   1.29556e-17 
  8396.1152   1.22841e-17 
  8397.3174   1.27744e-17 
  8398.5205    1.6124e-17 
  8399.7236   1.15823e-17 
  8400.9258     8.253e-18 
  8402.1289   9.47474e-18 
   8403.332   1.31355e-17 
  8404.5342   1.18955e-17 
  8405.7373   1.16906e-17 
  8406.9404   1.09092e-17 
  8408.1426   1.07823e-17 
  8409.3457   1.11953e-17 
  8410.5488   1.07504e-17 
   8411.752   1.09788e-17 
  8412.9541   1.18474e-17 
  8414.1572   1.30694e-17 
  8415.3604   9.67986e-18 
  8416.5625   9.84421e-18 
  8417.7656   1.16173e-17 
  8418.9688   1.14834e-17 
  8420.1719   1.05338e-17 
   8421.374   1.21442e-17 
  8422.5771   1.13605e-17 
  8423.7803   1.01416e-17 
  8424.9824   1.15225e-17 
  8426.1855   8.13013e-18 
  8427.3887   7.14031e-18 
  8428.5918   1.00561e-17 
  8429.7939   8.79687e-18 
  8430.9971   1.03322e-17 
  8432.2002   4.47582e-18 
  8433.4033   9.84919e-18 
  8434.6055   7.99993e-18 
  8435.8086   9.93276e-18 
  8437.0117   1.15922e-17 
  8438.2148   1.10388e-17 
   8439.417   1.04029e-17 
  8440.6201   1.18802e-17 
  8441.8232   1.19906e-17 
  8443.0264   1.08934e-17 
  8444.2295   1.11139e-17 
  8445.4316   1.05067e-17 
  8446.6348   1.11908e-17 
  8447.8379    8.9132e-18 
   8449.041   9.93333e-18 
  8450.2432   1.02387e-17 
  8451.4463   1.16057e-17 
  8452.6494    1.2949e-17 
  8453.8525   6.30055e-18 
  8455.0557   9.88025e-18 
  8456.2578   9.45456e-18 
  8457.4609    9.4368e-18 
  8458.6641   9.14143e-18 
  8459.8672   1.11182e-17 
  8461.0703   1.16029e-17 
  8462.2725   1.20302e-17 
  8463.4756   7.26181e-18 
  8464.6787   1.51279e-17 
  8465.8818   6.69516e-18 
   8467.085   8.70834e-18 
  8468.2881   1.21685e-17 
  8469.4902   1.01927e-17 
  8470.6934   9.25888e-18 
  8471.8965   7.57741e-18 
  8473.0996    1.0408e-17 
  8474.3027     9.896e-18 
  8475.5059   1.11287e-17 
   8476.708   9.28531e-18 
  8477.9111   9.40123e-18 
  8479.1143   1.08008e-17 
  8480.3174   9.59945e-18 
  8481.5205   1.03017e-17 
  8482.7236   1.12615e-17 
  8483.9258   1.01468e-17 
  8485.1289   1.08327e-17 
   8486.332   1.06929e-17 
  8487.5352   1.00533e-17 
  8488.7383   8.68967e-18 
  8489.9414    8.8077e-18 
  8491.1436   1.07781e-17 
  8492.3467   1.09819e-17 
  8493.5498   9.48739e-18 
  8494.7529   1.23538e-17 
  8495.9561   8.97555e-18 
  8497.1592   1.04626e-17 
  8498.3623   1.00546e-17 
  8499.5645   9.66508e-18 
  8500.7676   1.05667e-17 
  8501.9707   1.24073e-17 
  8503.1738   1.25641e-17 
   8504.377   9.70331e-18 
  8505.5801   1.21417e-17 
  8506.7832   9.04874e-18 
  8507.9863   1.09856e-17 
  8509.1885   1.22935e-17 
  8510.3916   1.07983e-17 
  8511.5947   1.14371e-17 
  8512.7979   9.23155e-18 
   8514.001   1.03777e-17 
  8515.2041   1.11976e-17 
  8516.4072   1.01378e-17 
  8517.6104   9.74093e-18 
  8518.8125   1.13866e-17 
  8520.0156   1.19019e-17 
  8521.2188   9.24232e-18 
  8522.4219    1.0796e-17 
   8523.625   1.03958e-17 
  8524.8281   1.02433e-17 
  8526.0312   1.02039e-17 
  8527.2344   1.10632e-17 
  8528.4365   1.20834e-17 
  8529.6396   1.07429e-17 
  8530.8428   1.04415e-17 
  8532.0459   9.86226e-18 
   8533.249   9.39752e-18 
  8534.4521   8.33544e-18 
  8535.6553   9.12737e-18 
  8536.8584   1.05316e-17 
  8538.0615   1.23726e-17 
  8539.2646   1.00715e-17 
  8540.4678   1.07995e-17 
  8541.6699    1.1871e-17 
   8542.873   1.08614e-17 
  8544.0762   1.18491e-17 
  8545.2793   1.13191e-17 
  8546.4824    1.0748e-17 
  8547.6855   1.16109e-17 
  8548.8887   1.17952e-17 
  8550.0918   1.28443e-17 
  8551.2949   9.51776e-18 
  8552.4971   1.11055e-17 
  8553.7002   1.24317e-17 
  8554.9033   1.01921e-17 
  8556.1064   1.03559e-17 
  8557.3096   1.16418e-17 
  8558.5127   1.24352e-17 
  8559.7158   1.00116e-17 
  8560.9189   7.61857e-18 
  8562.1221   9.88973e-18 
  8563.3252   1.10725e-17 
  8564.5273   1.14046e-17 
  8565.7305   9.84994e-18 
  8566.9336   1.20563e-17 
  8568.1367   1.04239e-17 
  8569.3398   1.00667e-17 
   8570.543   9.12937e-18 
  8571.7461   1.04065e-17 
  8572.9492   1.09704e-17 
  8574.1523   9.71376e-18 
  8575.3555   1.09095e-17 
  8576.5576   1.15073e-17 
  8577.7607   1.10507e-17 
  8578.9639   1.01259e-17 
   8580.167   1.03242e-17 
  8581.3701   1.10658e-17 
  8582.5732   1.03018e-17 
  8583.7764   1.12933e-17 
  8584.9795   1.12985e-17 
  8586.1826    1.1508e-17 
  8587.3857   1.13904e-17 
  8588.5889     1.049e-17 
   8589.791   1.07695e-17 
  8590.9941   1.12338e-17 
  8592.1973   9.00317e-18 
  8593.4004    1.1593e-17 
  8594.6035   1.05256e-17 
  8595.8066    9.5783e-18 
  8597.0098    1.1919e-17 
  8598.2129   1.12374e-17 
   8599.416   9.59154e-18 
  8600.6191   9.60231e-18 
  8601.8213   1.06041e-17 
  8603.0244   1.16528e-17 
  8604.2275   1.13257e-17 
  8605.4307   1.27359e-17 
  8606.6338   1.03819e-17 
  8607.8369   9.42764e-18 
    8609.04   1.29089e-17 
  8610.2432   1.01278e-17 
  8611.4463   9.25578e-18 
  8612.6484   1.16139e-17 
  8613.8516   1.03915e-17 
  8615.0547    8.9188e-18 
  8616.2578   1.02831e-17 
  8617.4609   1.06112e-17 
  8618.6641   1.17658e-17 
  8619.8672   1.05077e-17 
  8621.0703   8.92207e-18 
  8622.2734   1.11343e-17 
  8623.4756   1.04465e-17 
  8624.6787    8.9896e-18 
  8625.8818   1.26185e-17 
   8627.085   1.18081e-17 
  8628.2881   9.22687e-18 
  8629.4912   1.19528e-17 
  8630.6943   1.03913e-17 
  8631.8975    1.0391e-17 
  8633.1006   8.08904e-18 
  8634.3027   1.03542e-17 
  8635.5059   9.91951e-18 
   8636.709   9.76938e-18 
  8637.9121   9.70307e-18 
  8639.1152   9.61173e-18 
  8640.3184   8.34473e-18 
  8641.5215   8.73058e-18 
  8642.7236   1.41316e-17 
  8643.9268   1.02515e-17 
  8645.1299   1.03558e-17 
   8646.333   8.92915e-18 
  8647.5361   9.40465e-18 
  8648.7393   7.75079e-18 
  8649.9424    1.1865e-17 
  8651.1445   1.01842e-17 
  8652.3477   1.03523e-17 
  8653.5508   7.72168e-18 
  8654.7539   9.38977e-18 
   8655.957   1.02722e-17 
  8657.1602   8.76796e-18 
  8658.3633   1.16599e-17 
  8659.5654   1.04977e-17 
  8660.7686    1.1429e-17 
  8661.9717   9.80457e-18 
  8663.1748   7.80331e-18 
  8664.3779   1.09654e-17 
  8665.5811   8.28905e-18 
  8666.7832   1.22282e-17 
  8667.9863   1.22339e-17 
  8669.1895   1.12544e-17 
  8670.3926   1.05384e-17 
  8671.5957   1.16452e-17 
  8672.7988    1.0056e-17 
   8674.001   9.80137e-18 
  8675.2041   1.10092e-17 
  8676.4072   1.17026e-17 
  8677.6104   1.10743e-17 
  8678.8135   1.02271e-17 
  8680.0156   9.42482e-18 
  8681.2188   1.08704e-17 
  8682.4219   1.19854e-17 
   8683.625   1.08047e-17 
  8684.8281   1.00294e-17 
  8686.0303   9.44626e-18 
  8687.2334   1.08285e-17 
  8688.4365    1.0192e-17 
  8689.6396   1.10737e-17 
  8690.8428    1.0876e-17 
  8692.0449   8.81453e-18 
   8693.248   9.45287e-18 
  8694.4512   9.88597e-18 
  8695.6543   1.03252e-17 
  8696.8574   1.10507e-17 
  8698.0596   1.08547e-17 
  8699.2627   1.02076e-17 
  8700.4658   7.98094e-18 
  8701.6689   9.40612e-18 
  8702.8711   1.04105e-17 
  8704.0742   8.48773e-18 
  8705.2773   1.11044e-17 
  8706.4805   9.21632e-18 
  8707.6826   1.06624e-17 
  8708.8857   9.26617e-18 
  8710.0889   1.05538e-17 
   8711.292   9.48524e-18 
  8712.4941   8.28979e-18 
  8713.6973   9.40642e-18 
  8714.9004   1.00795e-17 
  8716.1035   9.46925e-18 
  8717.3057   1.03246e-17 
  8718.5088   1.09146e-17 
  8719.7119   1.08591e-17 
   8720.915    9.6409e-18 
  8722.1172   1.05801e-17 
  8723.3203   8.97752e-18 
  8724.5234   1.03425e-17 
  8725.7266   9.28246e-18 
  8726.9287   8.42505e-18 
  8728.1318   1.02571e-17 
   8729.335   1.09402e-17 
  8730.5371   9.07831e-18 
  8731.7402   1.05068e-17 
  8732.9434   8.81826e-18 
  8734.1465   1.01512e-17 
  8735.3486   9.78783e-18 
  8736.5518   1.05027e-17 
  8737.7549   9.36015e-18 
   8738.957   1.03059e-17 
  8740.1602   1.27472e-17 
  8741.3633   1.13806e-17 
  8742.5654   1.00819e-17 
  8743.7686   1.00392e-17 
  8744.9717   1.08862e-17 
  8746.1738   1.14421e-17 
   8747.377   9.54071e-18 
  8748.5801   9.46207e-18 
  8749.7822   1.01658e-17 
  8750.9854   1.03287e-17 
  8752.1885    1.0203e-17 
  8753.3906   1.06589e-17 
  8754.5938   8.74695e-18 
  8755.7969   1.00479e-17 
   8756.999   1.07752e-17 
  8758.2021    8.1847e-18 
  8759.4043   1.03635e-17 
  8760.6074   1.19224e-17 
  8761.8105   6.89475e-18 
  8763.0127   9.09218e-18 
  8764.2158   1.15801e-17 
  8765.4189   1.09053e-17 
  8766.6211   1.09565e-17 
  8767.8242   8.33152e-18 
  8769.0264   1.12815e-17 
  8770.2295   8.55256e-18 
  8771.4316   5.42054e-18 
  8772.6348   1.14976e-17 
  8773.8379   1.28857e-17 
    8775.04    1.0165e-17 
  8776.2432   7.74529e-18 
  8777.4453   1.17176e-17 
  8778.6484   3.84078e-18 
  8779.8516   7.37424e-18 
  8781.0537   1.26181e-17 
  8782.2568   7.59232e-18 
   8783.459   1.09542e-17 
  8784.6621   1.03309e-17 
  8785.8643    9.4215e-18 
  8787.0674   9.68005e-18 
  8788.2695   1.04416e-17 
  8789.4727   1.00865e-17 
  8790.6748   1.09037e-17 
  8791.8779   7.53507e-18 
  8793.0811   9.90572e-18 
  8794.2832   9.93393e-18 
  8795.4863   1.19076e-17 
  8796.6885   8.09329e-18 
  8797.8906   9.47453e-18 
  8799.0938   9.27485e-18 
  8800.2969   1.04178e-17 
   8801.499   9.34028e-18 
  8802.7021   9.49636e-18 
  8803.9043   8.66379e-18 
  8805.1064   1.01239e-17 
  8806.3096   9.68535e-18 
  8807.5117    7.7564e-18 
  8808.7148   7.92669e-18 
   8809.917   8.87442e-18 
  8811.1201   1.02247e-17 
  8812.3223   9.84986e-18 
  8813.5254   1.18027e-17 
  8814.7275   1.13992e-17 
  8815.9307   8.57959e-18 
  8817.1328   1.04925e-17 
   8818.335   9.62167e-18 
  8819.5381   9.68617e-18 
  8820.7402   1.08524e-17 
  8821.9434   1.04798e-17 
  8823.1455   7.37124e-18 
  8824.3477   1.07335e-17 
  8825.5508   9.55495e-18 
  8826.7529   6.09145e-18 
  8827.9561   7.97326e-18 
  8829.1582   9.32621e-18 
  8830.3604   8.43493e-18 
  8831.5635   7.34365e-18 
  8832.7656   1.18964e-17 
  8833.9688     1.293e-17 
  8835.1709   1.10913e-17 
   8836.373   7.37428e-18 
  8837.5762   9.03142e-18 
  8838.7783   8.87876e-18 
  8839.9805   9.17517e-18 
  8841.1836   7.89822e-18 
  8842.3857   1.20622e-17 
  8843.5879   9.47269e-18 
   8844.791    9.1289e-18 
  8845.9932   9.07506e-18 
  8847.1953   6.40137e-18 
  8848.3984   7.88811e-18 
  8849.6006   7.89911e-18 
  8850.8027   7.33814e-18 
  8852.0049   1.04344e-17 
   8853.208   9.09828e-18 
  8854.4102    1.0197e-17 
  8855.6123   1.07478e-17 
  8856.8154   8.71941e-18 
  8858.0176   8.49733e-18 
  8859.2197   9.46788e-18 
  8860.4219   9.62184e-18 
   8861.624   8.79395e-18 
  8862.8271   1.24381e-17 
  8864.0293   1.25014e-17 
  8865.2314   7.78125e-18 
  8866.4336    1.2265e-17 
  8867.6367   7.75551e-18 
  8868.8389   7.32096e-18 
   8870.041   1.11771e-17 
  8871.2432   1.07987e-17 
  8872.4453   9.14323e-18 
  8873.6484   1.03049e-17 
  8874.8506   9.08811e-18 
  8876.0527   1.09394e-17 
  8877.2549   9.81131e-18 
   8878.457   7.79778e-18 
  8879.6602   1.03221e-17 
  8880.8623   8.13141e-18 
  8882.0645   9.89157e-18 
  8883.2666   1.65389e-17 
  8884.4688    1.0179e-17 
  8885.6709   1.17256e-17 
   8886.873   1.18358e-17 
  8888.0762   1.16261e-17 
  8889.2783   1.26473e-17 
  8890.4805   6.51548e-18 
  8891.6826    8.7791e-18 
  8892.8848   1.13229e-17 
  8894.0869   9.61121e-18 
  8895.2891   1.21492e-17 
  8896.4912   8.62827e-18 
  8897.6934   9.46562e-18 
  8898.8955   1.12212e-17 
  8900.0977   9.68099e-18 
  8901.2998   7.69944e-18 
   8902.502   7.85885e-18 
  8903.7051   1.26066e-17 
  8904.9072    1.0671e-17 
  8906.1094   8.31312e-18 
  8907.3115   1.12004e-17 
  8908.5137    1.0848e-17 
  8909.7158   1.06326e-17 
   8910.918   1.24397e-17 
  8912.1201   1.02561e-17 
  8913.3223   1.04448e-17 
  8914.5244   7.81507e-18 
  8915.7266   7.29309e-18 
  8916.9287   7.57171e-19 
  8918.1309   8.96921e-18 
   8919.332   8.70696e-18 
  8920.5342   1.71017e-17 
  8921.7363   1.32847e-17 
  8922.9385   1.42252e-17 
  8924.1406   8.03602e-18 
  8925.3428   1.03606e-17 
  8926.5449   1.04305e-17 
  8927.7471   9.24758e-18 
  8928.9492   9.39571e-18 
  8930.1514   1.03554e-17 
  8931.3535   9.32047e-18 
  8932.5557   1.01211e-17 
  8933.7568   1.06746e-17 
   8934.959   1.10814e-17 
  8936.1611   1.04401e-17 
  8937.3633   1.04659e-17 
  8938.5654   1.01356e-17 
  8939.7676   9.87996e-18 
  8940.9697    1.2609e-17 
  8942.1709   1.18087e-17 
   8943.373   8.95265e-18 
  8944.5752   9.46317e-18 
  8945.7773   8.90994e-18 
  8946.9795   7.46145e-18 
  8948.1807   9.06549e-18 
  8949.3828   1.16815e-17 
   8950.585   9.72568e-18 
  8951.7871   1.05479e-17 
  8952.9893    1.0431e-17 
  8954.1904   9.86933e-18 
  8955.3926   4.60701e-18 
  8956.5947   1.58526e-17 
  8957.7969   9.18299e-18 
   8958.998   1.39928e-17 
  8960.2002   1.24618e-17 
  8961.4023   1.07026e-17 
  8962.6035   1.19871e-17 
  8963.8057   1.12931e-17 
  8965.0078   1.08862e-17 
    8966.21   1.11557e-17 
  8967.4111   9.59151e-18 
  8968.6133   9.92602e-18 
  8969.8154   9.59693e-18 
  8971.0166   1.10746e-17 
  8972.2188   1.08131e-17 
  8973.4199   9.83913e-18 
  8974.6221   8.41132e-18 
  8975.8242   1.06776e-17 
  8977.0254   1.07611e-17 
  8978.2275    9.6777e-18 
  8979.4297   1.01163e-17 
  8980.6309   9.43588e-18 
   8981.833   1.10378e-17 
  8983.0342   9.74534e-18 
  8984.2363   1.07775e-17 
  8985.4385   1.00565e-17 
  8986.6396   9.59434e-18 
  8987.8418   9.57561e-18 
   8989.043   1.22186e-17 
  8990.2451   9.73823e-18 
  8991.4463    9.8658e-18 
  8992.6484   7.82438e-18 
  8993.8496   8.78246e-18 
  8995.0518   9.53003e-18 
  8996.2529   1.01751e-17 
  8997.4551   9.88906e-18 
  8998.6562   1.05474e-17 
  8999.8584   1.35332e-17 
  9001.0596    8.8849e-18 
  9002.2617   8.97234e-18 
  9003.4629    1.4121e-17 
   9004.665   9.07598e-18 
  9005.8662   8.04391e-18 
  9007.0674   1.12312e-17 
  9008.2695   1.07437e-17 
  9009.4707   8.99288e-18 
  9010.6729   9.07362e-18 
   9011.874   9.90847e-18 
  9013.0752   1.03477e-17 
  9014.2773   8.61663e-18 
  9015.4785   1.00521e-17 
  9016.6797   1.02007e-17 
  9017.8818   9.59038e-18 
   9019.083   8.22694e-18 
  9020.2852   9.16857e-18 
  9021.4863   9.05761e-18 
  9022.6875   7.45982e-18 
  9023.8887   9.86997e-18 
  9025.0908   1.00679e-17 
   9026.292   1.01573e-17 
  9027.4932   8.28632e-18 
  9028.6953   8.32187e-18 
  9029.8965   8.75013e-18 
  9031.0977   1.01826e-17 
  9032.2988   8.65417e-18 
   9033.501    9.9831e-18 
  9034.7021   9.91191e-18 
  9035.9033   1.01266e-17 
  9037.1045     7.727e-18 
  9038.3057   9.06121e-18 
  9039.5078   1.03522e-17 
   9040.709   9.56075e-18 
  9041.9102   9.60298e-18 
  9043.1113   8.66929e-18 
  9044.3125   7.90632e-18 
  9045.5146   9.78983e-18 
  9046.7158   9.16156e-18 
   9047.917   7.31762e-18 
  9049.1182   1.00346e-17 
  9050.3193     8.458e-18 
  9051.5205    9.1453e-18 
  9052.7217   7.60643e-18 
  9053.9229    8.7929e-18 
   9055.124    7.6828e-18 
  9056.3252    8.8596e-18 
  9057.5273   9.29263e-18 
  9058.7285   1.11853e-17 
  9059.9297   7.85949e-18 
  9061.1309   8.24029e-18 
   9062.332   9.88143e-18 
  9063.5332   9.63587e-18 
  9064.7344   9.17727e-18 
  9065.9355   1.05606e-17 
  9067.1367     9.186e-18 
  9068.3379   9.68327e-18 
  9069.5391   8.81859e-18 
  9070.7402   9.58406e-18 
  9071.9414   9.88965e-18 
  9073.1426   8.87302e-18 
  9074.3428   9.88467e-18 
  9075.5439   9.12577e-18 
  9076.7451   1.02001e-17 
  9077.9463   8.52198e-18 
  9079.1475   1.07772e-17 
  9080.3486   9.35165e-18 
  9081.5498   8.11787e-18 
   9082.751    9.8841e-18 
  9083.9521    9.7075e-18 
  9085.1523   1.02359e-17 
  9086.3535    8.8783e-18 
  9087.5547    7.8433e-18 
  9088.7559   7.08981e-18 
   9089.957   1.03254e-17 
  9091.1572   8.68518e-18 
  9092.3584   9.52727e-18 
  9093.5596   7.58903e-18 
  9094.7607    8.0314e-18 
  9095.9619   1.01151e-17 
  9097.1621   9.65244e-18 
  9098.3633   8.70367e-18 
  9099.5645   7.91953e-18 
  9100.7656   9.08093e-18 
  9101.9658   7.69428e-18 
   9103.167   8.30568e-18 
  9104.3682   1.00605e-17 
  9105.5684   1.16408e-17 
  9106.7695   7.92421e-18 
  9107.9707    8.5719e-18 
  9109.1709   8.30954e-18 
  9110.3721   9.49183e-18 
  9111.5732   1.06085e-17 
  9112.7734    8.8579e-18 
  9113.9746   8.74133e-18 
  9115.1758   1.00008e-17 
   9116.376   9.99171e-18 
  9117.5771   9.55914e-18 
  9124.7812   9.18651e-18 
  9125.9814   1.01972e-17 
  9127.1826   9.15314e-18 
  9128.3828   9.19065e-18 
   9129.584   7.83207e-18 
  9130.7842   9.08375e-18 
  9131.9854   9.85434e-18 
  9133.1855   7.30916e-18 
  9134.3867   1.05026e-17 
  9135.5869   1.04567e-17 
  9136.7881   8.51331e-18 
  9137.9883   7.78746e-18 
  9139.1885   9.67676e-18 
  9140.3896   9.85066e-18 
  9141.5898   1.06477e-17 
   9142.791   8.47248e-18 
  9143.9912   1.06581e-17 
  9145.1914   1.07554e-17 
  9146.3926   1.00987e-17 
  9147.5928   1.06835e-17 
   9148.793   8.78726e-18 
  9149.9941   1.04867e-17 
  9151.1943   9.56829e-18 
  9152.3945   8.90255e-18 
  9153.5947    1.0058e-17 
  9154.7959   9.36789e-18 
  9155.9961   9.73547e-18 
  9157.1963   1.02206e-17 
  9158.3965   9.07515e-18 
  9159.5977    9.6717e-18 
  9160.7979   9.25625e-18 
   9161.998   1.15551e-17 
  9163.1982   1.03125e-17 
  9164.3984   1.00714e-17 
  9165.5996   1.05848e-17 
  9166.7998   1.04852e-17 
     9168.0   1.04634e-17 
  9169.2002   9.25738e-18 
  9170.4004   9.33495e-18 
  9171.6006    9.7578e-18 
  9172.8008   9.28026e-18 
   9174.001     1.121e-17 
  9175.2021   9.52313e-18 
  9176.4023   9.84568e-18 
  9177.6025   9.35685e-18 
  9178.8027   1.01518e-17 
  9180.0029   9.76314e-18 
  9181.2031   9.04573e-18 
  9182.4033   9.53678e-18 
  9183.6035   9.41118e-18 
  9184.8037   1.05541e-17 
  9186.0039   9.50135e-18 
  9187.2041   1.03275e-17 
  9188.4043    1.0546e-17 
  9189.6035   9.38113e-18 
  9190.8047   9.85924e-18 
  9192.0039   1.08322e-17 
  9193.2041    1.0493e-17 
  9194.4043   9.49382e-18 
  9195.6045   1.07892e-17 
  9196.8047   9.37058e-18 
  9198.0049   8.93283e-18 
  9199.2051   1.05135e-17 
  9200.4053   1.04948e-17 
  9201.6045   8.53185e-18 
  9202.8047   9.09662e-18 
  9204.0049   9.38737e-18 
  9205.2051   9.35677e-18 
  9206.4053   9.62165e-18 
  9207.6045   8.36396e-18 
  9208.8047   1.02642e-17 
  9210.0049    9.8037e-18 
  9211.2051   1.01543e-17 
  9212.4043   1.01487e-17 
  9213.6045   9.80488e-18 
  9214.8047    9.1443e-18 
  9216.0039   9.72656e-18 
  9217.2041   9.93386e-18 
  9218.4043    1.0842e-17 
  9219.6035   9.37009e-18 
  9220.8037   1.07956e-17 
  9222.0039    1.0091e-17 
  9223.2031   1.07074e-17 
  9224.4033   7.92304e-18 
  9225.6025   1.21987e-17 
  9226.8027    1.0368e-17 
  9228.0029   1.09084e-17 
  9229.2021   1.01989e-17 
  9230.4023   1.09126e-17 
  9231.6016   1.02932e-17 
  9232.8018   9.56686e-18 
   9234.001   1.11005e-17 
  9235.2012   9.67701e-18 
  9236.4004   1.07373e-17 
  9237.6006    9.1611e-18 
  9238.7998   1.00612e-17 
     9240.0    1.1457e-17 
  9241.1992   7.84284e-18 
  9242.3984   8.33153e-18 
  9243.5986   1.01142e-17 
  9244.7979   9.58781e-18 
   9245.998   8.89153e-18 
  9247.1973   9.38411e-18 
  9248.3965   8.95378e-18 
  9249.5967   8.24982e-18 
  9250.7959   9.51816e-18 
  9251.9951   1.14143e-17 
  9253.1953   1.03407e-17 
  9254.3945   9.41514e-18 
  9255.5938   1.03616e-17 
  9256.7939   9.54642e-18 
  9257.9932   1.07344e-17 
  9259.1924   8.96137e-18 
  9260.3916   8.84644e-18 
  9261.5918   9.29794e-18 
   9262.791    8.9276e-18 
  9263.9902   8.74915e-18 
  9265.1895   8.67961e-18 
  9266.3887   8.79038e-18 
  9267.5889   9.65253e-18 
  9268.7881   8.81045e-18 
  9269.9873    8.9047e-18 
  9271.1865   8.24642e-18 
  9272.3857   8.74828e-18 
   9273.585   1.04087e-17 
  9274.7842   1.07227e-17 
  9275.9834   8.39641e-18 
  9277.1826   1.05281e-17 
  9278.3828   9.58969e-18 
   9279.582   8.71702e-18 
  9280.7812   7.91897e-18 
  9281.9805   7.02419e-18 
  9283.1797   1.01723e-17 
  9284.3789   8.72288e-18 
  9285.5781   7.90025e-18 
  9286.7773    8.4798e-18 
  9287.9766   9.09299e-18 
  9289.1748   8.44453e-18 
   9290.374   8.94198e-18 
  9291.5732   8.97729e-18 
  9292.7725   8.72862e-18 
  9293.9717   9.97903e-18 
  9295.1709   7.23254e-18 
  9296.3701   8.30071e-18 
  9297.5693   8.41446e-18 
  9298.7676   7.52501e-18 
  9299.9668    8.2913e-18 
   9301.166   6.62328e-18 
  9302.3652   9.24781e-18 
  9303.5645   9.32247e-18 
  9304.7627   1.05212e-17 
  9305.9619   9.19887e-18 
  9307.1611   7.44388e-18 
  9308.3604   1.48158e-17 
  9309.5586   6.66377e-18 
  9310.7578   1.05234e-17 
   9311.957   1.48627e-17 
  9313.1553   1.02081e-17 
  9314.3545   6.39603e-18 
  9315.5537   1.56767e-17 
   9316.752   5.09677e-18 
  9317.9512   3.06559e-18 
  9319.1504    1.0409e-17 
  9320.3486   8.29819e-18 
  9321.5479   5.77338e-18 
  9322.7461   8.22324e-18 
  9323.9453   6.16445e-18 
  9325.1436   1.06679e-17 
  9326.3428   8.92058e-18 
   9327.541   4.70338e-18 
  9328.7402   8.07257e-18 
  9329.9385   1.08325e-17 
  9331.1377   8.15312e-18 
  9332.3359   7.65151e-18 
  9333.5352   8.22662e-18 
  9334.7334   7.36003e-18 
  9335.9326   1.01088e-17 
  9337.1309   6.78815e-18 
  9338.3301   1.21115e-17 
  9339.5283    3.6018e-18 
  9340.7266   8.75154e-18 
  9341.9258   8.77967e-18 
   9343.124   8.63431e-18 
  9344.3223   1.00238e-17 
  9345.5215   1.08142e-17 
  9346.7197   6.93025e-18 
   9347.918   7.60076e-18 
  9349.1162   1.08314e-17 
  9350.3154   9.17447e-18 
  9351.5137   1.00559e-17 
  9352.7119   8.35331e-18 
  9353.9102   7.80763e-18 
  9355.1094   8.94471e-18 
  9356.3076   6.56655e-18 
  9357.5059    7.7708e-18 
  9358.7041   7.99587e-18 
  9359.9023   8.64285e-18 
  9361.1006   9.17418e-18 
  9362.2988   9.36785e-18 
   9363.498   8.19434e-18 
  9364.6963   8.40022e-18 
  9365.8945   1.04762e-17 
  9367.0928   7.83708e-18 
   9368.291   7.44307e-18 
  9369.4893   7.76516e-18 
  9370.6875   1.07521e-17 
  9371.8857    3.7262e-19 
   9373.084   8.40196e-18 
  9374.2822   1.27168e-17 
  9375.4805   5.96225e-18 
  9376.6787   1.40205e-17 
   9377.877    6.1909e-18 
  9379.0752   1.09965e-17 
  9380.2725  -9.01612e-18 
  9381.4707   7.13558e-18 
  9382.6689   8.18392e-18 
  9383.8672   6.52304e-18 
  9385.0654   1.05403e-17 
  9386.2637   6.29387e-18 
  9387.4619   7.43868e-18 
  9388.6592   7.20279e-18 
  9389.8574   7.60039e-18 
  9391.0557   7.49939e-18 
  9392.2539   7.62352e-18 
  9393.4512   9.63936e-18 
  9394.6494   9.95286e-18 
  9395.8477   9.15346e-18 
  9397.0459   7.20783e-18 
  9398.2432   8.04027e-18 
  9399.4414   1.14238e-17 
  9400.6396   8.36671e-18 
  9401.8369   4.26058e-18 
  9403.0352    8.8762e-18 
  9404.2324   5.22644e-18 
  9405.4307   9.73246e-18 
  9406.6289   1.05532e-17 
  9407.8262   8.48217e-18 
  9409.0244   6.84097e-18 
  9410.2217     7.876e-18 
  9411.4199   5.91792e-18 
  9412.6172   6.61833e-18 
  9413.8154   9.90746e-18 
  9415.0127   8.40968e-18 
  9416.2109   6.95754e-18 
  9417.4082   1.10708e-17 
  9418.6064   2.45502e-18 
  9419.8037   5.92066e-18 
   9421.002   6.45146e-18 
  9422.1992   1.10905e-17 
  9423.3965    6.4704e-18 
  9424.5947   7.24934e-18 
   9425.792   7.87637e-18 
  9426.9893   8.27782e-18 
  9428.1875   6.41347e-18 
  9429.3848   6.37664e-18 
   9430.582   7.41377e-18 
  9431.7803    8.6368e-18 
  9432.9775   5.57599e-18 
  9434.1748   8.86481e-18 
  9435.3721   7.08867e-18 
  9436.5703    1.2363e-17 
  9437.7676   7.30387e-18 
  9438.9648   2.15124e-17 
  9440.1621    6.5134e-18 
  9441.3594   2.01468e-17 
  9442.5566   7.20252e-18 
  9443.7549  -4.64578e-18 
  9444.9521   7.69349e-18 
  9446.1494   7.67498e-18 
  9447.3467   1.26478e-17 
  9448.5439   7.62586e-18 
  9449.7412   6.96122e-18 
  9450.9385    7.7808e-18 
  9452.1357   6.96647e-18 
   9453.333   9.54216e-18 
  9454.5303   5.61863e-18 
  9455.7275   7.66156e-18 
  9456.9248   9.29557e-18 
  9458.1221   9.34633e-18 
  9459.3193    1.3614e-17 
  9460.5166   1.41878e-17 
  9461.7139   6.23978e-18 
  9462.9111   6.58203e-18 
  9464.1074   8.48611e-18 
  9465.3047   7.94022e-18 
   9466.502   7.44611e-18 
  9467.6992   6.42032e-18 
  9468.8965   8.47741e-18 
  9470.0928   7.07292e-18 
    9471.29   7.71818e-18 
  9472.4873   7.36592e-18 
  9473.6846    7.9844e-18 
  9474.8809   1.63464e-17 
  9476.0781   8.65288e-18 
  9477.2754   8.49675e-18 
  9478.4727   7.62249e-18 
  9479.6689   1.01825e-17 
  9480.8662   3.19689e-18 
  9482.0635   6.03854e-18 
  9483.2598   6.66683e-18 
   9484.457   8.24389e-18 
  9485.6533   7.31545e-18 
  9486.8506     7.517e-18 
  9488.0469   1.10031e-17 
  9489.2441   6.78403e-18 
  9490.4414   7.56995e-18 
  9491.6377   9.09039e-18 
   9492.835   7.91657e-18 
  9494.0312   7.53236e-18 
  9495.2275   9.43205e-18 
  9496.4248   6.09792e-18 
  9497.6211    8.7876e-18 
  9498.8184   5.53388e-18 
  9500.0146   1.55278e-17 
  9501.2119     8.512e-18 
  9502.4082   9.42756e-18 
  9503.6045   5.37761e-18 
  9504.8018   6.50386e-18 
   9505.998   1.03156e-17 
  9507.1943   8.50613e-18 
  9508.3916   7.95828e-18 
  9509.5879   9.59748e-18 
  9510.7842   8.21333e-18 
  9511.9805   8.67698e-18 
  9513.1777   8.05726e-18 
   9514.374   9.79016e-18 
  9515.5703   7.07251e-18 
  9516.7666   8.17393e-18 
  9517.9629   6.86919e-18 
  9519.1592   1.16979e-17 
  9520.3564   1.52131e-17 
  9521.5527   1.22168e-17 
   9522.749   8.00212e-18 
  9523.9453   6.96371e-18 
  9525.1416   7.98025e-18 
  9526.3379   6.48669e-18 
  9527.5342   8.90882e-18 
  9528.7305   9.50301e-18 
  9529.9268   7.42473e-18 
   9531.123   8.62854e-18 
  9532.3193   8.18076e-18 
  9533.5156    1.0067e-17 
  9534.7119   9.32402e-18 
  9535.9082   9.88365e-18 
  9537.1045   7.56727e-18 
  9538.3008   1.00299e-17 
  9539.4971   1.00701e-17 
  9540.6924   1.17466e-17 
  9541.8887   8.93303e-18 
   9543.085   1.00214e-17 
  9544.2812   1.00873e-17 
  9545.4775   9.68649e-18 
  9546.6729   1.00804e-17 
  9547.8691   7.73703e-18 
  9549.0654   1.02683e-17 
  9550.2617    1.3196e-17 
   9551.457   7.34621e-18 
  9552.6533   1.12142e-17 
  9553.8496   1.15983e-17 
  9555.0449   7.14838e-18 
  9556.2412    5.7811e-18 
  9557.4375   8.81784e-18 
  9558.6328   9.62022e-18 
  9559.8291   9.51471e-18 
  9561.0244   9.35607e-18 
  9562.2207   1.09133e-17 
   9563.416   8.94577e-18 
  9564.6123   1.09822e-17 
  9565.8086    1.1544e-17 
  9567.0039   1.35311e-17 
  9568.2002   1.33017e-17 
  9569.3955   5.86042e-18 
  9570.5908   9.22652e-18 
  9571.7871   5.92868e-18 
  9572.9824   9.27836e-18 
  9574.1787   9.71083e-18 
   9575.374   7.98747e-18 
  9576.5693   1.01755e-17 
  9577.7656   8.98091e-18 
  9578.9609   8.61373e-18 
  9580.1562   8.04388e-18 
  9581.3525   8.79995e-18 
  9582.5479   9.65234e-18 
  9583.7432   7.95989e-18 
  9584.9395   9.68126e-18 
  9586.1348   9.48417e-18 
  9587.3301   9.28543e-18 
  9588.5254   7.87178e-18 
  9589.7207   8.73821e-18 
   9590.917   8.03464e-18 
  9592.1123   1.06866e-17 
  9593.3076   9.71337e-18 
  9594.5029    1.0801e-17 
  9595.6982   8.88938e-18 
  9596.8936   9.82909e-18 
  9598.0889   1.10272e-17 
  9599.2842   1.04478e-17 
  9600.4795   9.49318e-18 
  9601.6748   9.00422e-18 
  9602.8701   9.76385e-18 
  9604.0654   9.59076e-18 
  9605.2607   9.62577e-18 
  9606.4561   7.27959e-18 
  9607.6514   8.90829e-18 
  9608.8467   1.00114e-17 
   9610.042   9.64858e-18 
  9611.2373   8.81298e-18 
  9612.4326   9.64875e-18 
  9613.6279   7.62319e-18 
  9614.8223   8.29628e-18 
  9616.0176   9.03665e-18 
  9617.2129   8.89894e-18 
  9618.4082   1.00739e-17 
  9619.6025   8.24339e-18 
  9620.7979    9.0556e-18 
  9621.9932   7.02506e-18 
  9623.1885   1.25239e-17 
  9624.3828    7.1367e-18 
  9625.5781   8.86568e-18 
  9626.7734   8.32278e-18 
  9627.9678   8.29041e-18 
  9629.1631   8.74767e-18 
  9630.3584   8.01321e-18 
  9631.5527   9.48382e-18 
   9632.748   8.31471e-18 
  9633.9424   9.21841e-18 
  9635.1377   9.37087e-18 
   9636.332   9.02727e-18 
  9637.5273   9.00926e-18 
  9638.7217   1.03491e-17 
   9639.917   9.13698e-18 
  9641.1113   5.75458e-18 
  9642.3066   1.13414e-17 
   9643.501   8.72782e-18 
  9644.6963   8.90452e-18 
  9645.8906   8.25912e-18 
   9647.085   6.67583e-18 
  9648.2803   7.92937e-18 
  9649.4746   9.91823e-18 
  9650.6689    9.8185e-18 
  9651.8643    8.2101e-18 
  9653.0586   9.78118e-18 
  9654.2529   7.77403e-18 
  9655.4473   8.86793e-18 
  9656.6426   1.06218e-17 
  9657.8369   5.89856e-18 
  9659.0312   6.92884e-18 
  9660.2256   8.65817e-18 
  9661.4199    9.1015e-18 
  9662.6152   6.42843e-18 
  9663.8096   8.44786e-18 
  9665.0039   8.74273e-18 
  9666.1982   1.09056e-17 
  9667.3926   1.02865e-17 
  9668.5869   1.07058e-17 
  9669.7812   7.42535e-18 
  9670.9756   8.14676e-18 
  9672.1699    6.0254e-18 
  9673.3643    6.7946e-18 
  9674.5586   1.12014e-17 
  9675.7529    1.2596e-17 
  9676.9473   9.95225e-18 
  9678.1416    1.3402e-17 
  9679.3359   6.54561e-18 
  9680.5303   1.20983e-17 
  9681.7246   1.21666e-17 
   9682.918   1.01683e-17 
  9684.1123   9.25418e-18 
  9685.3066   6.08036e-18 
   9686.501   7.39822e-18 
  9687.6953   8.22923e-18 
  9688.8887     9.774e-18 
   9690.083   9.17467e-18 
  9691.2773   9.10405e-18 
  9692.4717    1.0062e-17 
   9693.665   9.65727e-18 
  9694.8594   7.59453e-18 
  9696.0537   5.70246e-18 
  9697.2471   1.40957e-17 
  9698.4414   1.14354e-17 
  9699.6357   4.27001e-18 
  9700.8291   1.19441e-17 
  9702.0234   8.23751e-18 
  9703.2168   5.93665e-18 
  9704.4111    8.8362e-18 
  9705.6045    8.4641e-18 
  9706.7988   9.13331e-18 
  9707.9922   9.85281e-18 
  9709.1865   6.97473e-18 
  9710.3799   9.59012e-18 
  9711.5742   7.87512e-18 
  9712.7676   1.20167e-17 
  9713.9609   7.63599e-18 
  9715.1553   5.86354e-18 
  9716.3486   1.00579e-17 
   9717.543   9.63443e-18 
  9718.7363    7.3574e-18 
  9719.9297   7.82504e-18 
   9721.123   8.90398e-18 
  9722.3174   6.76555e-18 
  9723.5107   6.54359e-18 
  9724.7041    7.3415e-18 
  9725.8984   7.43245e-18 
  9727.0918   8.72109e-18 
  9728.2852   9.45069e-18 
  9729.4785   7.80388e-18 
  9730.6719   8.16343e-18 
  9731.8652   8.31268e-18 
  9733.0596   9.19053e-18 
  9734.2529   6.52064e-18 
  9735.4463   7.78173e-18 
  9736.6396   3.09588e-18 
   9737.833   7.31147e-18 
  9739.0264   6.69061e-18 
  9740.2197    8.3845e-18 
  9741.4131   7.64784e-18 
  9742.6064   8.49403e-18 
  9743.7998   7.35359e-18 
  9744.9932    1.0861e-17 
  9746.1865   7.96461e-18 
  9747.3799   7.76859e-18 
  9748.5723    7.0969e-18 
  9749.7656   7.28962e-18 
   9750.959   7.53022e-18 
  9752.1523   7.21738e-18 
  9753.3457   8.41182e-18 
  9754.5391      9.05e-18 
  9755.7314   8.58068e-18 
  9756.9248   6.97004e-18 
  9758.1182   8.00308e-18 
  9759.3115    8.4111e-18 
  9760.5039   7.92167e-18 
  9761.6973   6.70299e-18 
  9762.8906   7.34802e-18 
   9764.083   8.88638e-18 
  9765.2764   8.10512e-18 
  9766.4697   1.10272e-17 
  9767.6621    7.5294e-18 
  9768.8555   9.45315e-18 
  9770.0479   1.05393e-17 
  9771.2412   8.90544e-18 
  9772.4336   1.00847e-17 
   9773.627   8.90083e-18 
  9774.8193   7.54285e-18 
  9776.0127   9.58044e-18 
  9777.2051   8.12924e-18 
  9778.3984   7.43734e-18 
  9779.5908   8.70628e-18 
  9780.7842   7.99178e-18 
  9781.9766   8.18009e-18 
  9783.1689   8.50209e-18 
  9784.3623   8.40655e-18 
  9785.5547   1.12111e-17 
  9786.7471   3.81239e-18 
  9787.9404   9.21218e-18 
  9789.1328   5.26586e-18 
  9790.3252  -1.07577e-18 
  9791.5186   8.26611e-18 
  9792.7109   1.40741e-17 
  9793.9033   1.15742e-17 
  9795.0957   3.98739e-18 
  9796.2881   7.67067e-18 
  9797.4805   9.10233e-18 
  9798.6738   1.46369e-17 
  9799.8662    5.6886e-18 
  9801.0586   1.08583e-17 
   9802.251   1.07284e-17 
  9803.4434   1.00824e-17 
  9804.6357   7.58919e-18 
  9805.8281   1.03693e-17 
  9807.0205     9.956e-18 
  9808.2129   1.30907e-17 
  9809.4053   8.98689e-18 
  9810.5977   1.21323e-17 
    9811.79   1.14501e-17 
  9812.9824   7.61968e-18 
  9814.1748   6.37646e-18 
  9815.3672   1.04281e-17 
  9816.5596   8.98786e-18 
   9817.751   6.57952e-18 
  9818.9434   8.43482e-18 
  9820.1357   9.68436e-18 
  9821.3281   8.04854e-18 
  9822.5205   8.52345e-18 
  9823.7119   8.49686e-18 
  9824.9043   7.19127e-18 
  9826.0967   9.32013e-18 
  9827.2891   7.35788e-18 
  9828.4805   8.30069e-18 
  9829.6729   7.07415e-18 
  9830.8652   8.30107e-18 
  9832.0566   7.30112e-18 
   9833.249   8.65297e-18 
  9834.4414   7.22638e-18 
  9835.6328   7.50034e-18 
  9836.8252   9.98595e-18 
  9838.0166   7.73553e-18 
   9839.209   7.21287e-18 
  9840.4004   8.18701e-18 
  9841.5928   7.11259e-18 
  9842.7842   7.86818e-18 
  9843.9766   1.24308e-17 
   9845.168   7.82164e-18 
  9846.3604   1.30899e-17 
  9847.5518   9.63019e-18 
  9848.7432    1.4258e-17 
  9849.9355   2.98949e-18 
   9851.127   7.93096e-18 
  9852.3193   1.08837e-17 
  9853.5107   8.06173e-18 
  9854.7021   7.62965e-18 
  9855.8936   7.26338e-18 
  9857.0859   8.08438e-18 
  9858.2773   9.83298e-18 
  9859.4688   9.25959e-18 
  9860.6602   8.92042e-18 
  9861.8525   5.24943e-18 
  9863.0439   9.08397e-18 
  9864.2354   8.57837e-18 
  9865.4268   9.49504e-18 
  9866.6182   8.04192e-18 
  9867.8096   5.51729e-18 
   9869.001   6.93817e-18 
  9870.1934   2.44835e-18 
  9871.3848    5.6419e-18 
  9872.5762   1.43227e-18 
  9873.7676   1.66188e-17 
   9874.959   8.19907e-18 
  9876.1504   8.88627e-18 
  9877.3418   7.04088e-18 
  9878.5322   8.57806e-18 
  9879.7236   1.07989e-17 
   9880.915   7.89859e-18 
  9882.1064   8.66939e-18 
  9883.2979    6.6439e-18 
  9884.4893   5.32532e-18 
  9885.6807   7.57314e-18 
  9886.8721   8.53353e-18 
  9888.0635   9.38752e-18 
  9889.2539   9.78712e-18 
  9890.4453   7.95969e-18 
  9891.6367   8.87254e-18 
  9892.8271   1.12654e-17 
  9894.0186   1.07561e-17 
    9895.21   5.95622e-18 
  9896.4014   9.59013e-18 
  9897.5918   5.70879e-18 
  9898.7832   4.22566e-18 
  9899.9746   1.10743e-17 
   9901.165   8.95855e-18 
  9902.3564   7.76349e-18 
  9903.5469   7.70902e-18 
  9904.7383   8.49397e-18 
  9905.9287   7.98933e-18 
  9907.1201    1.0836e-17 
  9908.3105   8.90384e-18 
   9909.502   6.53593e-18 
  9910.6924   1.10589e-17 
  9911.8838   1.95209e-17 
  9913.0742   1.42971e-17 
  9914.2656   1.42892e-17 
  9915.4561   1.18484e-17 
  9916.6475   2.98707e-18 
  9917.8379   4.93945e-18 
  9919.0283   4.34392e-18 
  9920.2197    9.0188e-18 
  9921.4102   7.19805e-18 
  9922.6006   7.50944e-18 
   9923.791   7.89889e-18 
  9924.9824   9.38966e-18 
  9926.1729   6.42868e-18 
  9927.3633   7.72678e-18 
  9928.5537   7.67879e-18 
  9929.7451   7.51369e-18 
  9930.9355   1.05305e-17 
   9932.126   7.70171e-18 
  9933.3164   8.34051e-18 
  9934.5068   9.53584e-18 
  9935.6973   5.96762e-18 
  9936.8877   4.66788e-18 
  9938.0781   8.46014e-18 
  9939.2686   7.83438e-18 
   9940.459   9.53219e-18 
  9941.6494   7.80476e-18 
  9942.8398    1.5458e-17 
  9944.0303   1.18012e-17 
  9945.2207   1.44042e-17 
  9946.4111   6.67786e-18 
  9947.6016   7.35197e-18 
   9948.792   3.15849e-18 
  9949.9824   3.99045e-18 
  9951.1729   3.93403e-18 
  9952.3633   4.63711e-18 
  9953.5537   1.02087e-17 
  9954.7432   1.00945e-17 
  9955.9336   1.29005e-17 
   9957.124   9.45789e-18 
  9958.3145   8.46472e-18 
  9959.5049   1.00991e-17 
  9960.6943   8.82249e-19 
  9961.8848   2.53444e-18 
  9963.0752   4.73385e-18 
  9964.2646   6.09179e-18 
  9965.4551   2.48604e-18 
  9966.6455   4.29367e-18 
   9967.835   9.91397e-18 
  9969.0254   8.63241e-18 
  9970.2148   4.27311e-18 
  9971.4053   4.54259e-18 
  9972.5957   6.39624e-18 
  9973.7852   7.48497e-18 
  9974.9756   8.97984e-18 
   9976.165   7.17998e-18 
  9977.3555   5.51973e-18 
  9978.5449   9.40355e-18 
  9979.7354   9.35154e-18 
  9980.9248   8.23289e-18 
  9982.1143   7.83297e-18 
  9983.3047   8.18883e-18 
  9984.4941    8.2635e-18 
  9985.6846   8.07153e-18 
   9986.874   6.31241e-18 
  9988.0635   8.55097e-18 
  9989.2539   5.44012e-18 
  9990.4434   6.40288e-18 
  9991.6328   6.80767e-18 
  9992.8232   8.78664e-18 
  9994.0127   8.11511e-18 
  9995.2021   8.61154e-18 
  9996.3916   1.16466e-17 
  9997.5811   9.17979e-18 
  9998.7715   9.66646e-18 
  9999.9609   4.88589e-18 
   10001.15   9.70651e-18 
   10002.34   1.04378e-17 
  10003.529   8.49353e-18 
  10004.719   5.35223e-18 
  10005.909   7.92428e-18 
  10007.098   1.13672e-17 
  10008.288   4.52725e-18 
  10009.477   1.97879e-17 
  10010.666   7.67319e-18 
  10011.856   1.83741e-18 
  10013.045  -2.11484e-18 
  10014.235   1.32319e-17 
  10015.424   2.99904e-18 
  10016.614   8.35663e-18 
  10017.803    3.5466e-18 
  10018.992   6.96889e-18 
  10020.182   9.73998e-18 
  10021.371   1.21363e-17 
   10022.56    1.1617e-17 
  10023.749   8.99174e-18 
  10024.939   1.21098e-17 
  10026.128   9.52032e-18 
  10027.317    1.0092e-17 
  10028.506   3.72647e-18 
  10029.696   5.00844e-18 
  10030.885   8.47988e-18 
  10032.074   8.74659e-18 
  10033.263   6.76145e-18 
  10034.452   8.22337e-18 
  10035.641   5.40697e-18 
   10036.83   1.03994e-17 
   10038.02   7.89584e-18 
  10039.209   6.13555e-18 
  10040.398   6.28131e-18 
  10041.587   6.70982e-18 
  10042.776   6.94808e-18 
  10043.965   4.37548e-18 
  10045.154   1.02206e-17 
  10046.343   7.07261e-18 
  10047.532   6.72212e-18 
  10048.721   1.02798e-17 
   10049.91   8.13918e-18 
  10051.098   6.80189e-18 
  10052.287   8.92499e-18 
  10053.476   7.85123e-18 
  10054.665   8.68873e-18 
  10055.854   9.56568e-18 
  10057.043   8.46489e-18 
  10058.232   1.99518e-18 
   10059.42   1.28984e-17 
  10060.609   8.32888e-18 
  10061.798   6.72106e-18 
  10062.987   9.79898e-18 
  10064.175   9.08381e-18 
  10065.364    7.9473e-18 
  10066.553   7.30597e-18 
  10067.741   3.82025e-18 
   10068.93   1.01266e-17 
  10070.119   2.56285e-18 
  10071.307   4.17008e-18 
  10072.496   1.00378e-17 
  10073.685   1.14908e-17 
  10074.873   5.14743e-18 
  10076.062   7.99821e-18 
   10077.25   8.28941e-18 
  10078.439   1.00704e-17 
  10079.627   1.62987e-17 
  10080.816  -3.93363e-18 
  10082.004   8.62244e-18 
  10083.193   1.32961e-17 
  10084.381    1.3704e-17 
   10085.57   3.23239e-18 
  10086.758   6.16763e-18 
  10087.947   3.49907e-18 
  10089.135   9.82009e-18 
  10090.323   9.21135e-18 
  10091.512     4.734e-18 
    10092.7   9.26123e-18 
  10093.889   5.75236e-18 
  10095.077   9.86901e-18 
  10096.265   1.08631e-17 
  10097.453   4.10736e-18 
  10098.642   5.97412e-18 
   10099.83   1.08734e-17 
  10101.018    1.0591e-17 
  10102.206    3.0675e-18 
  10103.395   6.31328e-18 
  10104.583   9.10004e-18 
  10105.771    8.6153e-18 
  10106.959   1.96819e-18 
  10108.147   6.22496e-18 
  10109.336   5.74893e-18 
  10110.524     1.097e-17 
  10111.712    5.1676e-18 
    10112.9   7.32033e-18 
  10114.088   8.78879e-18 
  10115.276   8.69063e-18 
  10116.464   7.18918e-18 
  10117.652   9.56955e-18 
   10118.84   9.31605e-18 
  10120.028   1.20578e-17 
  10121.216   1.01521e-18 
  10122.404   7.08871e-18 
  10123.592   1.69036e-18 
   10124.78   6.68015e-18 
  10125.968   1.02712e-17 
  10127.156   2.52246e-18 
  10128.344   9.11993e-18 
  10129.532   5.31526e-18 
  10130.719   3.98449e-18 
  10131.907   5.69136e-18 
  10133.095    4.2588e-18 
  10134.283   5.74483e-18 
  10135.471   8.53391e-18 
  10136.659   8.98297e-18 
  10137.846    1.0631e-17 
  10139.034   6.28892e-18 
  10140.222   8.33139e-18 
   10141.41   6.70366e-18 
  10142.597   6.19375e-18 
  10143.785   6.51538e-18 
  10144.973    1.0791e-17 
   10146.16   4.44251e-18 
  10147.348   6.87075e-18 
  10148.536   9.11849e-18 
  10149.723   8.62881e-18 
  10150.911   8.78887e-18 
  10152.098   5.81357e-18 
  10153.286   1.42035e-17 
  10154.474   6.26981e-18 
  10155.661   8.13701e-18 
  10156.849   1.25782e-18 
  10158.036   7.82826e-18 
  10159.224   5.79509e-18 
  10160.411   1.09621e-17 
  10161.599   6.81438e-18 
  10162.786   1.16711e-17 
  10163.974   4.82245e-18 
  10165.161   7.29323e-18 
  10166.349   5.06663e-18 
  10167.536   9.39242e-18 
  10168.723   7.93529e-18 
  10169.911   8.45667e-18 
  10171.098   4.33628e-18 
  10172.285   1.18423e-17 
  10173.473   1.60669e-17 
   10174.66   2.23147e-18 
  10175.847   1.31462e-17 
  10177.035   4.46801e-18 
  10178.222   2.39735e-18 
  10179.409   1.46411e-17 
  10180.597   5.81194e-18 
  10181.784   3.98303e-18 
  10182.971   4.51568e-18 
  10184.158   6.64171e-18 
  10185.345   7.30276e-18 
  10186.533   8.99196e-18 
   10187.72   3.13799e-18 
  10188.907   9.32421e-18 
  10190.094   7.05826e-18 
  10191.281   5.07922e-18 
  10192.468   5.41219e-18 
  10193.655   2.28607e-18 
  10194.843   8.65516e-18 
   10196.03   7.99748e-18 
  10197.217   1.16946e-17 
  10198.404   7.83765e-18 
  10199.591   4.09743e-18 
  10200.778   7.50075e-18 
  10201.965   5.08171e-18 
  10203.152   5.33001e-18 
  10204.339   7.23861e-19 
  10205.526  -8.87101e-19 
  10206.713   1.31646e-17 
    10207.9   1.97213e-17 
  10209.087   8.68489e-18 
  10210.274   3.47746e-18 
   10211.46   7.12391e-18 
  10212.647   1.02549e-17 
  10213.834  -6.95169e-18 
  10215.021     8.618e-18 
  10216.208   6.73874e-18 
  10217.395   4.26743e-18 
  10218.582    4.8022e-18 
  10219.768   3.55222e-18 
  10220.955    1.4635e-17 
  10222.142    1.1734e-17 
  10223.329   1.51913e-17 
  10224.516    4.3139e-18 
  10225.702  -1.68813e-18 
  10226.889   4.86004e-18 
  10228.076   5.34077e-18 
  10229.263   2.42746e-17 
  10230.449  -8.07944e-18 
  10231.636   1.12865e-18 
  10232.823   4.68759e-18 
  10234.009   5.58617e-18 
  10235.196   6.26602e-18 
  10236.382   4.64489e-18 
  10237.569   7.61101e-18 
  10238.756   5.49788e-18 
  10239.942   5.51933e-18 
  10241.129    3.5218e-18 
  10242.315   3.83243e-18 
  10243.502   6.06942e-18 
  10244.689   8.23791e-18 
  10245.875   7.99662e-18 
  10247.062   9.16136e-18 
  10248.248    4.0644e-18 
  10249.435   9.20453e-18 
  10250.621   4.02625e-18 
  10251.808   8.51595e-18 
  10252.994   5.45567e-18 
  10254.181   2.32365e-18 
  10255.367   3.22011e-18 
  10256.553   4.56819e-18 
   10257.74   9.28024e-18 
  10258.926   9.25864e-18 
  10260.113   1.18827e-17 
  10261.299    6.5912e-18 
  10262.485   7.46031e-18 
  10263.672   3.52107e-18 
  10264.858   7.99829e-18 
  10266.044   1.20987e-17 
  10267.231   9.95555e-18 
  10268.417   1.78182e-17 
  10269.603   8.48178e-18 
   10270.79  -1.36664e-18 
  10271.976   4.81841e-18 
  10273.162   7.24993e-18 
  10274.348   6.53296e-18 
  10275.535   1.03083e-17 
  10276.721   3.36404e-18 
  10277.907   6.25311e-19 
  10279.093   9.95767e-18 
  10280.279   6.24257e-18 
  10281.466   3.39995e-18 
  10282.652    2.3914e-17 
  10283.838   4.25565e-17 
  10285.024    4.3816e-17 
   10286.21  -1.95701e-19 
  10287.396   3.00118e-18 
  10288.582  -8.27173e-18 
  10289.769  -2.59085e-18 
  10290.955  -2.09065e-17 
  10292.141   7.27465e-18 
  10293.327   9.46138e-18 
  10294.513  -1.24488e-17 
  10295.699  -4.51036e-18 
  10296.885   1.30088e-17 
  10298.071   1.19613e-17 
  10299.257   8.68899e-18 
  10300.443   4.65845e-18 
  10301.629  -1.46164e-20 
  10302.815   1.64324e-17 
  10304.001   1.12119e-17 
  10305.187   1.17498e-17 
  10306.373   3.75308e-18 
