# STATUS =
# OBJECT = 2021uvy
# TELESCOPE = Keck1
# INSTRUMENT = LRIS
# DATE-OBS = 2021-09-09 13:36:56.00
# MJD = 59466.567314799875
# EXPTIME = 300
# AIRMASS = --
# SLIT = --
# DISPERSER = --
# SOURCE = --
# FILTER =
# RESOLUTION =
# FLUX_STANDARD =
# EXTINCTION_CORRECTED = --
# PHOTOMETRY_CALIBRATED =
# TELLURIC_CORRECTED =
# FLUX_UNITS = erg cm(-2) sec(-1) Ang(-1)
# WAVE_UNITS = Angstrom
# QUALITY = --
# MIN_WAVE = 3070.3247
# MAX_WAVE = 10294.013
# COMMENT = [TNS source group:  48 - ZTF ]
 Wavelength         Flux 
  3072.2725  2.58912e+17 
  3074.2209  1.50651e+18 
  3076.1699  6.42681e+17 
  3078.1194   2.3274e+17 
  3080.0696   2.7781e+17 
  3082.0205  6.57448e+17 
  3083.9719  7.56299e+17 
  3085.9238  7.89367e+18 
  3087.8767  8.92753e+17 
  3089.8298   4.4416e+18 
  3091.7837  7.42784e+17 
   3093.738  2.55849e+17 
  3095.6931  3.65368e+17 
  3097.6487  7.58139e+17 
   3099.605  6.04167e+17 
   3101.562  5.68957e+17 
  3103.5193  4.01895e+17 
  3105.4773  1.53553e+17 
   3107.436   5.0732e+17 
  3109.3953  5.55789e+17 
  3111.3552  6.35677e+17 
  3113.3157  6.26255e+17 
  3115.2766  3.65642e+17 
  3117.2383  5.82134e+17 
  3119.2004  3.81674e+17 
  3121.1631  1.09148e+17 
  3123.1267    5.861e+18 
  3125.0906  3.40037e+17 
  3127.0552  2.15121e+17 
  3129.0203  1.99364e+17 
  3130.9861  3.93727e+17 
  3132.9524  4.74727e+17 
  3134.9192  7.47528e+17 
  3136.8867  1.31343e+17 
  3138.8547  4.16365e+17 
  3140.8235  8.75718e+17 
  3142.7927  3.87163e+17 
  3144.7625  5.35873e+17 
  3146.7329   4.2629e+17 
  3148.7039  2.92237e+17 
  3150.6753  5.42532e+17 
  3152.6477  2.15153e+17 
  3154.6204   3.8394e+17 
  3156.5935  4.12411e+17 
  3158.5674  3.78663e+17 
  3160.5417  1.83022e+17 
  3162.5168  3.10477e+17 
  3164.4924  3.20391e+17 
  3166.4685  5.01299e+17 
  3168.4453  4.06163e+17 
  3170.4226  4.20115e+17 
  3172.4004   2.6542e+17 
  3174.3787  3.28668e+17 
  3176.3577     3.12e+17 
  3178.3374  3.87923e+17 
  3180.3174  4.28405e+17 
  3182.2981  4.04473e+17 
  3184.2793  4.18188e+17 
   3186.261  3.10335e+17 
  3188.2434  5.69216e+17 
  3190.2263  4.41188e+17 
  3192.2097  5.12508e+17 
  3194.1938   4.4588e+17 
  3196.1785  4.29176e+17 
  3198.1636  5.16716e+17 
  3200.1494  3.28123e+17 
  3202.1355   4.9477e+17 
  3204.1223  3.96111e+17 
  3206.1096  5.56641e+17 
  3208.0977  4.67453e+17 
  3210.0862  4.54957e+17 
  3212.0752  5.01366e+17 
  3214.0647  3.21785e+17 
  3216.0547  3.55335e+17 
  3218.0454  2.29986e+17 
  3220.0366  3.69666e+17 
  3222.0283  3.75589e+17 
  3224.0208  5.87979e+17 
  3226.0137   4.4816e+17 
  3228.0071  3.59123e+17 
   3230.001  4.24164e+17 
  3231.9954  4.30238e+17 
  3233.9905   4.9979e+17 
  3235.9861  6.33952e+17 
  3237.9822  4.66982e+17 
  3239.9788  5.02401e+17 
  3241.9758  5.03364e+17 
  3243.9736  4.12621e+17 
  3245.9719  4.64065e+17 
  3247.9707   5.4474e+17 
    3249.97  4.20691e+17 
    3251.97  3.75405e+17 
  3253.9702  4.44349e+17 
  3255.9712  4.61092e+17 
  3257.9727  4.22465e+17 
  3259.9746  5.19833e+17 
  3261.9771  3.58938e+17 
  3263.9802  4.15971e+17 
  3265.9836  4.58797e+17 
  3267.9878  4.78971e+17 
  3269.9924  4.41641e+17 
  3271.9976  4.33719e+17 
  3274.0034  4.16505e+17 
  3276.0095  3.31447e+17 
  3278.0161   4.2194e+17 
  3280.0234  4.82613e+17 
  3282.0312  4.15738e+17 
  3284.0396  3.78551e+17 
  3286.0483  3.45709e+17 
  3288.0576   3.0808e+17 
  3290.0674  3.61521e+17 
  3292.0779  3.36962e+17 
  3294.0886  3.48705e+17 
  3296.1001  3.94969e+17 
  3298.1121  4.99749e+17 
  3300.1245  3.79987e+17 
  3302.1372  3.52913e+17 
  3304.1509  2.85528e+17 
  3306.1648  3.46284e+17 
  3308.1792  3.94317e+17 
  3310.1941  3.18686e+17 
  3312.2097  4.00776e+17 
  3314.2256  2.94437e+17 
  3316.2422  3.45923e+17 
   3318.259  3.62819e+17 
  3320.2766  4.37164e+17 
  3322.2947  3.70279e+17 
  3324.3132  3.02314e+17 
  3326.3323  4.13007e+17 
  3328.3518  3.25873e+17 
  3330.3716  2.93138e+17 
  3332.3923  3.27681e+17 
  3334.4133  3.65621e+17 
  3336.4348  3.75694e+17 
  3338.4568   2.6479e+17 
  3340.4795  3.61679e+17 
  3342.5024   3.1257e+17 
  3344.5259  3.81152e+17 
  3346.5498  3.43713e+17 
  3348.5745  3.56846e+17 
  3350.5994  2.54981e+17 
   3352.625  3.17355e+17 
  3354.6509  3.24557e+17 
  3356.6772   4.4639e+17 
  3358.7043  3.52069e+17 
  3360.7317  3.94307e+17 
  3362.7598  3.78615e+17 
  3364.7881  3.67713e+17 
  3366.8169  4.33241e+17 
  3368.8464  3.93224e+17 
  3370.8762  3.57501e+17 
  3372.9065  4.58113e+17 
  3374.9375  4.26781e+17 
  3376.9688  4.83474e+17 
  3379.0005  5.02245e+17 
   3381.033  4.50826e+17 
  3383.0657  4.78718e+17 
  3385.0989  5.35494e+17 
  3387.1328  5.71945e+17 
   3389.167   5.3847e+17 
  3391.2017  5.08913e+17 
  3393.2368  4.25546e+17 
  3395.2725  5.61933e+17 
  3397.3086  4.83104e+17 
  3399.3452  4.57311e+17 
  3401.3821  5.63666e+17 
  3403.4197  4.97463e+17 
  3405.4578  5.06756e+17 
  3407.4961  4.81125e+17 
  3409.5352  4.68979e+17 
  3411.5745  4.46231e+17 
  3413.6145  4.71283e+17 
  3415.6548  5.62049e+17 
  3417.6956  5.05613e+17 
  3419.7368  4.88314e+17 
  3421.7786   4.5111e+17 
  3423.8208  4.91375e+17 
  3425.8635   4.7328e+17 
  3427.9065  4.66546e+17 
  3429.9502  4.84466e+17 
  3431.9944  5.14369e+17 
  3434.0388  4.73585e+17 
  3436.0837  4.35496e+17 
  3438.1292  4.60034e+17 
   3440.175  4.51969e+17 
  3442.2214  4.94237e+17 
  3444.2683  4.92522e+17 
  3446.3154  4.21454e+17 
  3448.3633  4.71142e+17 
  3450.4114   4.5196e+17 
  3452.4602  4.84204e+17 
   3454.509  4.08443e+17 
  3456.5586  3.94414e+17 
  3458.6086  4.01007e+17 
  3460.6592  4.30741e+17 
    3462.71  4.63705e+17 
  3464.7612   4.3033e+17 
   3466.813  4.06493e+17 
  3468.8652  4.65498e+17 
   3470.918  3.71066e+17 
  3472.9712   4.1559e+17 
  3475.0247  4.46037e+17 
  3477.0786   3.1633e+17 
  3479.1331  4.12172e+17 
   3481.188  3.52206e+17 
  3483.2434  3.74754e+17 
  3485.2991  3.98021e+17 
  3487.3552  4.58092e+17 
  3489.4119   4.3554e+17 
   3491.469  3.84648e+17 
  3493.5266  4.16215e+17 
  3495.5845  4.12956e+17 
  3497.6428  4.13662e+17 
  3499.7017  4.09825e+17 
   3501.761  4.29123e+17 
  3503.8208   3.7785e+17 
  3505.8809  4.28502e+17 
  3507.9414  4.35659e+17 
  3510.0024  4.23219e+17 
  3512.0637  4.82359e+17 
  3514.1255  4.30652e+17 
   3516.188   4.3994e+17 
  3518.2505   4.7438e+17 
  3520.3137   3.8413e+17 
  3522.3774  4.29036e+17 
  3524.4414  4.09944e+17 
  3526.5059  3.81657e+17 
  3528.5706   4.0743e+17 
   3530.636  4.14568e+17 
  3532.7017  4.32893e+17 
  3534.7676   4.8822e+17 
  3536.8342  4.99253e+17 
  3538.9011  4.61745e+17 
  3540.9685  4.75943e+17 
  3543.0364  4.42634e+17 
  3545.1045  4.06731e+17 
  3547.1731  4.72806e+17 
  3549.2422  4.77324e+17 
  3551.3115  4.63886e+17 
  3553.3816  4.58117e+17 
  3555.4519   4.5221e+17 
  3557.5225  5.47667e+17 
  3559.5935  5.03625e+17 
   3561.665  4.93112e+17 
  3563.7371  5.36954e+17 
  3565.8093  5.09545e+17 
  3567.8821  5.46712e+17 
  3569.9553  5.75001e+17 
  3572.0288  5.39106e+17 
  3574.1028  5.39627e+17 
  3576.1772  4.94466e+17 
  3578.2522  5.19265e+17 
  3580.3274  5.31252e+17 
  3582.4028  4.60179e+17 
   3584.479  5.10158e+17 
  3586.5554  5.51417e+17 
  3588.6321  4.85609e+17 
  3590.7092   4.9033e+17 
  3592.7871  4.44584e+17 
   3594.865  4.95946e+17 
  3596.9434  4.85336e+17 
  3599.0222  4.93514e+17 
  3601.1013  4.42251e+17 
  3603.1809  4.85877e+17 
   3605.261  5.27264e+17 
  3607.3413  4.87285e+17 
  3609.4221  5.10428e+17 
  3611.5034  5.00094e+17 
   3613.585  4.50238e+17 
   3615.667  4.33509e+17 
  3617.7493  4.66926e+17 
   3619.832  4.31005e+17 
  3621.9153   4.8014e+17 
  3623.9988  5.24292e+17 
  3626.0828  4.69448e+17 
   3628.167  4.95034e+17 
  3630.2517  5.03068e+17 
  3632.3369  5.45953e+17 
  3634.4221  5.18415e+17 
  3636.5081  5.50638e+17 
  3638.5942  4.90743e+17 
  3640.6809  5.67776e+17 
  3642.7681  5.58978e+17 
  3644.8555  5.07105e+17 
  3646.9431  5.77266e+17 
  3649.0312  5.67365e+17 
  3651.1199  5.23648e+17 
  3653.2087  5.29487e+17 
  3655.2981   5.4887e+17 
  3657.3877  5.43232e+17 
  3659.4778   5.6602e+17 
  3661.5681  5.34881e+17 
  3663.6589  5.27244e+17 
    3665.75  5.29165e+17 
  3667.8416  5.66796e+17 
  3669.9336  5.78585e+17 
  3672.0259  5.49943e+17 
  3674.1184   5.7151e+17 
  3676.2114  5.09053e+17 
  3678.3049  5.25789e+17 
  3680.3987  4.91293e+17 
  3682.4929  5.56019e+17 
  3684.5874   5.4916e+17 
  3686.6821  4.89214e+17 
  3688.7773  5.69853e+17 
   3690.873  5.65449e+17 
   3692.969  5.27782e+17 
  3695.0654  5.25909e+17 
  3697.1621  5.76697e+17 
   3699.259  5.60097e+17 
  3701.3564  5.67516e+17 
  3703.4543  5.86895e+17 
  3705.5525  5.68537e+17 
  3707.6509  5.72745e+17 
  3709.7498   5.6539e+17 
  3711.8491  5.62712e+17 
  3713.9485  5.40658e+17 
  3716.0486  5.40564e+17 
  3718.1489   5.8709e+17 
  3720.2495  6.10529e+17 
  3722.3506  5.75519e+17 
  3724.4519  6.02205e+17 
  3726.5537  5.67123e+17 
  3728.6558  6.18615e+17 
  3730.7581  5.72806e+17 
  3732.8608  5.68545e+17 
  3734.9641   6.0218e+17 
  3737.0674  5.98626e+17 
  3739.1714  6.11727e+17 
  3741.2754  5.63658e+17 
  3743.3799  6.30759e+17 
  3745.4849  5.71559e+17 
  3747.5901  6.37366e+17 
  3749.6956   6.1722e+17 
  3751.8015  5.89364e+17 
  3753.9077  6.01835e+17 
  3756.0144  5.92448e+17 
  3758.1213  5.87825e+17 
  3760.2285  6.30896e+17 
  3762.3362  6.53382e+17 
  3764.4441  6.14462e+17 
  3766.5525  6.62679e+17 
  3768.6609  6.76466e+17 
    3770.77  7.06769e+17 
  3772.8794  6.68886e+17 
   3774.989  6.82318e+17 
  3777.0989  6.69694e+17 
  3779.2092  6.92739e+17 
  3781.3198  6.97166e+17 
  3783.4309  7.48255e+17 
  3785.5422  7.42658e+17 
  3787.6538  7.87924e+17 
  3789.7659  7.92949e+17 
  3791.8782  7.96175e+17 
  3793.9907  7.73469e+17 
  3796.1038  8.19096e+17 
   3798.217  8.03012e+17 
  3800.3308  8.34725e+17 
  3802.4446   8.2235e+17 
  3804.5591  8.38104e+17 
  3806.6736  8.86158e+17 
  3808.7886  8.78238e+17 
  3810.9038  8.59533e+17 
  3813.0195  8.88503e+17 
  3815.1355  9.26076e+17 
  3817.2517  8.65164e+17 
  3819.3682  9.47513e+17 
  3821.4851  9.62122e+17 
  3823.6023  8.26433e+17 
  3825.7197  9.15096e+17 
  3827.8376   9.6385e+17 
  3829.9558  9.40748e+17 
  3832.0742  9.24338e+17 
  3834.1931  9.06829e+17 
  3836.3123    9.168e+17 
  3838.4316  8.76156e+17 
  3840.5515  8.65331e+17 
  3842.6714  9.21918e+17 
   3844.792   9.2148e+17 
  3846.9126  8.96724e+17 
  3849.0337  8.34026e+17 
  3851.1548  8.49859e+17 
  3853.2766   8.6516e+17 
  3855.3984  8.39911e+17 
  3857.5208  8.29155e+17 
  3859.6433  8.18502e+17 
  3861.7661  8.29637e+17 
  3863.8894  8.43424e+17 
  3866.0127  8.33253e+17 
  3868.1365  8.47891e+17 
  3870.2605   8.5576e+17 
   3872.385  7.93774e+17 
  3874.5098  7.93172e+17 
  3876.6348  8.49725e+17 
    3878.76  8.33079e+17 
  3880.8857  8.59447e+17 
  3883.0117   8.7893e+17 
  3885.1377  8.61341e+17 
  3887.2644  8.87264e+17 
  3889.3911  8.57762e+17 
  3891.5183  9.26339e+17 
  3893.6458  8.68649e+17 
  3895.7734  8.78313e+17 
  3897.9014  9.36213e+17 
  3900.0298   9.3552e+17 
  3902.1582  9.34552e+17 
  3904.2871  9.50929e+17 
  3906.4165  9.11659e+17 
  3908.5459  9.70608e+17 
  3910.6755  9.40293e+17 
  3912.8057  9.44354e+17 
   3914.936  9.45717e+17 
  3917.0667  9.20697e+17 
  3919.1975  9.74561e+17 
  3921.3289  9.25124e+17 
  3923.4604  9.63378e+17 
  3925.5923  9.25048e+17 
  3927.7244  9.32935e+17 
  3929.8567  1.00463e+16 
  3931.9893  9.57593e+17 
  3934.1223   9.7098e+17 
  3936.2556  9.33725e+17 
  3938.3889  9.46098e+17 
  3940.5227  9.66771e+17 
   3942.657  1.00258e+16 
  3944.7913   1.0499e+16 
  3946.9258  1.04139e+16 
  3949.0608  9.90701e+17 
   3951.196  9.72817e+17 
  3953.3315  1.00018e+16 
  3955.4673  1.03753e+16 
  3957.6035  1.04041e+16 
  3959.7397  1.08432e+16 
  3961.8762  1.02528e+16 
  3964.0132  1.00639e+16 
  3966.1504  1.01056e+16 
  3968.2878  1.01875e+16 
  3970.4255  1.05168e+16 
  3972.5635  9.82516e+17 
  3974.7017  1.03936e+16 
  3976.8401  1.01651e+16 
   3978.979  1.05484e+16 
  3981.1182  1.02476e+16 
  3983.2573  1.01801e+16 
   3985.397  1.03929e+16 
  3987.5369  1.04357e+16 
   3989.677  1.03135e+16 
  3991.8174  9.90994e+17 
   3993.958  9.95714e+17 
  3996.0991  9.48941e+17 
  3998.2402  9.83514e+17 
  4000.3818  9.20694e+17 
  4002.5234  9.03256e+17 
  4004.6655  8.79208e+17 
  4006.8079  8.85882e+17 
  4008.9502   8.5759e+17 
   4011.093  8.73299e+17 
  4013.2361   8.3119e+17 
  4015.3794  7.40448e+17 
  4017.5229  7.82201e+17 
  4019.6667  7.10245e+17 
  4021.8108  7.46993e+17 
  4023.9553  6.44418e+17 
  4026.0999  6.84684e+17 
  4028.2446  6.32396e+17 
  4030.3899  6.45891e+17 
  4032.5352  6.76885e+17 
  4034.6809  6.59788e+17 
  4036.8267  6.80337e+17 
  4038.9729  6.43508e+17 
  4041.1191  6.39699e+17 
  4043.2659  6.55465e+17 
  4045.4128  6.55321e+17 
  4047.5598  6.84578e+17 
  4049.7073  6.16961e+17 
   4051.855  6.33474e+17 
  4054.0027  6.10555e+17 
  4056.1509  6.30189e+17 
  4058.2993  6.53665e+17 
   4060.448   6.1539e+17 
  4062.5969  6.44828e+17 
  4064.7461  6.47194e+17 
  4066.8955  6.26404e+17 
  4069.0449  6.78724e+17 
  4071.1948  7.26958e+17 
   4073.345  6.72026e+17 
  4075.4954  7.41781e+17 
   4077.646   7.8175e+17 
  4079.7966   7.2334e+17 
  4081.9478  7.03588e+17 
  4084.0991  7.03169e+17 
  4086.2505  7.46081e+17 
  4088.4023  6.87748e+17 
  4090.5544  7.12162e+17 
  4092.7068  7.73089e+17 
  4094.8591  7.03733e+17 
  4097.0117  7.43724e+17 
   4099.165  7.67992e+17 
  4101.3179  7.84749e+17 
  4103.4717  8.10963e+17 
   4105.625   7.9654e+17 
  4107.7793  8.11772e+17 
  4109.9331  8.29047e+17 
  4112.0874  7.85142e+17 
  4114.2422  7.99534e+17 
   4116.397  7.38841e+17 
  4118.5522  7.73577e+17 
  4120.7075  7.36047e+17 
  4122.8628  7.12595e+17 
  4125.0186  7.07148e+17 
  4127.1748  7.43837e+17 
  4129.3311  7.13096e+17 
  4131.4873  7.41802e+17 
   4133.644  7.12219e+17 
  4135.8008  6.85333e+17 
   4137.958  6.82881e+17 
  4140.1152  7.27593e+17 
  4142.2729  7.00194e+17 
  4144.4307  6.86553e+17 
  4146.5884  7.32348e+17 
  4148.7466  6.90203e+17 
  4150.9053  7.29222e+17 
   4153.064  7.69305e+17 
  4155.2227   7.2554e+17 
  4157.3818  7.86347e+17 
   4159.541  7.84763e+17 
  4161.7007  7.80369e+17 
  4163.8604  7.75653e+17 
  4166.0205  7.83552e+17 
  4168.1807   7.9454e+17 
  4170.3408  8.30553e+17 
  4172.5015  8.13463e+17 
  4174.6626  8.37423e+17 
  4176.8237  8.66465e+17 
  4178.9849  8.75583e+17 
   4181.146  8.87122e+17 
  4183.3076  8.68642e+17 
  4185.4697  8.78709e+17 
  4187.6318  9.01356e+17 
  4189.7939  9.19616e+17 
  4191.9565   8.8619e+17 
  4194.1196  8.67181e+17 
  4196.2822  9.02207e+17 
  4198.4453  9.28743e+17 
  4200.6089  9.33001e+17 
  4202.7725   9.2681e+17 
   4204.936  9.40935e+17 
  4207.1001  9.08756e+17 
  4209.2642  9.49905e+17 
  4211.4287   9.1343e+17 
  4213.5933  9.33886e+17 
  4215.7578  8.95046e+17 
  4217.9229  9.48913e+17 
  4220.0879  9.56413e+17 
  4222.2534   9.4744e+17 
  4224.4189  9.88143e+17 
   4226.585  9.43388e+17 
   4228.751  9.72595e+17 
   4230.917  9.40942e+17 
  4233.0835  9.98903e+17 
    4235.25  9.47118e+17 
  4237.4165  9.89065e+17 
  4239.5835  9.50857e+17 
   4241.751  9.45898e+17 
   4243.918   9.5143e+17 
  4246.0859  9.21605e+17 
  4248.2534  9.82684e+17 
  4250.4214  9.73107e+17 
  4252.5894  9.26388e+17 
  4254.7578  1.00094e+16 
  4256.9263  9.67406e+17 
  4259.0952  1.00542e+16 
  4261.2637  9.92708e+17 
  4263.4331  9.93654e+17 
  4265.6025  1.05328e+16 
  4267.7715  1.02546e+16 
  4269.9414  1.05233e+16 
  4272.1113  1.06371e+16 
  4274.2812  1.05781e+16 
  4276.4512  1.07254e+16 
  4278.6216  1.16213e+16 
  4280.7925  1.08553e+16 
  4282.9629  1.04891e+16 
  4285.1343  1.05775e+16 
  4287.3052  1.11433e+16 
  4289.4766  1.10098e+16 
  4291.6479  1.12297e+16 
  4293.8198  1.09744e+16 
  4295.9917  1.10121e+16 
  4298.1636  1.05596e+16 
  4300.3359  1.09395e+16 
  4302.5083  1.08145e+16 
  4304.6807  1.01458e+16 
  4306.8535  1.06959e+16 
  4309.0264  1.12091e+16 
  4311.1992  1.10972e+16 
  4313.3726  1.06511e+16 
  4315.5464  1.11965e+16 
  4317.7197  1.08382e+16 
  4319.8936  1.04722e+16 
  4322.0674  1.09158e+16 
  4324.2417  1.06239e+16 
   4326.416  1.05181e+16 
  4328.5903  1.05627e+16 
  4330.7651  1.08689e+16 
  4332.9399  1.10245e+16 
  4335.1152   1.0315e+16 
    4337.29   1.1005e+16 
  4339.4653  1.10472e+16 
  4341.6411  1.07091e+16 
  4343.8169  1.04379e+16 
  4345.9927  9.97158e+17 
  4348.1685   1.0485e+16 
  4350.3447  1.09549e+16 
   4352.521  1.01546e+16 
  4354.6978  1.02316e+16 
  4356.8745   1.0098e+16 
  4359.0513  1.04286e+16 
   4361.228  1.04937e+16 
  4363.4053  1.03773e+16 
  4365.5825  1.02996e+16 
  4367.7603  1.03171e+16 
  4369.9375  9.90747e+17 
  4372.1157  1.07432e+16 
  4374.2935   1.0499e+16 
  4376.4717  1.08029e+16 
  4378.6499  1.05594e+16 
  4380.8286  1.07653e+16 
  4383.0068  1.02446e+16 
   4385.186  1.04253e+16 
  4387.3647  1.05771e+16 
  4389.5439  1.04338e+16 
  4391.7231   1.0637e+16 
  4393.9023  1.02117e+16 
   4396.082  1.04973e+16 
  4398.2617  1.06933e+16 
  4400.4414  1.01787e+16 
  4402.6216   1.0101e+16 
  4404.8018  1.02367e+16 
  4406.9819  1.02122e+16 
  4409.1626   9.8456e+17 
  4411.3428  1.00409e+16 
  4413.5239  9.90126e+17 
  4415.7046   9.6981e+17 
  4417.8857  9.73348e+17 
  4420.0669  9.79411e+17 
  4422.2485  9.62441e+17 
  4424.4297  9.66937e+17 
  4426.6113  9.61124e+17 
   4428.793  9.50543e+17 
  4430.9751  9.39899e+17 
  4433.1572  9.36586e+17 
  4435.3394  9.36603e+17 
   4437.522  9.54048e+17 
  4439.7041  9.34007e+17 
  4441.8872  9.41578e+17 
  4444.0698  9.31596e+17 
  4446.2529  9.13301e+17 
   4448.436  9.57538e+17 
  4450.6191  9.67619e+17 
  4452.8022  9.43089e+17 
  4454.9858  9.69465e+17 
  4457.1694  9.17404e+17 
  4459.3535   9.4469e+17 
  4461.5371  9.86559e+17 
  4463.7212  9.84344e+17 
  4465.9053  9.67585e+17 
  4468.0898  9.87575e+17 
  4470.2744  9.87228e+17 
   4472.459  9.70154e+17 
  4474.6436  9.93515e+17 
  4476.8286  1.00187e+16 
  4479.0137  9.97841e+17 
  4481.1987  1.05329e+16 
  4483.3838  1.00565e+16 
  4485.5693   1.0489e+16 
  4487.7549  1.06732e+16 
  4489.9404  1.03774e+16 
  4492.1265  1.03697e+16 
  4494.3125  1.07674e+16 
  4496.4985  1.04289e+16 
  4498.6846  1.03605e+16 
  4500.8706  1.05507e+16 
  4503.0571  1.03291e+16 
  4505.2437  1.02006e+16 
  4507.4307   1.0548e+16 
  4509.6172   1.0747e+16 
  4511.8042  1.03535e+16 
  4513.9912  1.07029e+16 
  4516.1787  1.06857e+16 
  4518.3657  1.04956e+16 
  4520.5532  1.05471e+16 
  4522.7407  1.05593e+16 
  4524.9287  1.01638e+16 
  4527.1162  1.01609e+16 
  4529.3042  1.03232e+16 
  4531.4922  1.00689e+16 
  4533.6807  9.69677e+17 
  4535.8691  1.01443e+16 
  4538.0571  9.60805e+17 
  4540.2456  1.01344e+16 
  4542.4346   1.0105e+16 
  4544.6235  1.02621e+16 
   4546.812  9.86012e+17 
   4549.001  1.00673e+16 
  4551.1904  1.02535e+16 
  4553.3794  9.88155e+17 
  4555.5688  9.92546e+17 
  4557.7583  1.02873e+16 
  4559.9478  1.04104e+16 
  4562.1377  1.00578e+16 
  4564.3276  9.70407e+17 
  4566.5176  1.02023e+16 
  4568.7075  1.02927e+16 
  4570.8975  1.00817e+16 
  4573.0879  1.02204e+16 
  4575.2783  1.00048e+16 
  4577.4688  9.91312e+17 
  4579.6592  9.88193e+17 
  4581.8501  9.89412e+17 
   4584.041   1.0126e+16 
  4586.2319  1.00194e+16 
  4588.4229  9.21637e+17 
  4590.6138  9.78256e+17 
  4592.8052  9.85925e+17 
  4594.9966  9.55378e+17 
   4597.188  9.56092e+17 
  4599.3794  9.54423e+17 
  4601.5713  9.36579e+17 
  4603.7627  9.67382e+17 
  4605.9546  9.58882e+17 
  4608.1465   9.7467e+17 
  4610.3389  9.85617e+17 
  4612.5308  9.37327e+17 
  4614.7231  9.29405e+17 
  4616.9155  9.66094e+17 
  4619.1079  1.00572e+16 
  4621.3008  9.83801e+17 
  4623.4932   9.6196e+17 
   4625.686  9.54834e+17 
  4627.8789  9.94224e+17 
  4630.0718  9.66527e+17 
  4632.2651  9.41789e+17 
   4634.458  9.34217e+17 
  4636.6514  9.58317e+17 
  4638.8447   9.8879e+17 
  4641.0381  9.49628e+17 
  4643.2319  9.72623e+17 
  4645.4253  9.56678e+17 
  4647.6191  9.41184e+17 
   4649.813  9.63006e+17 
  4652.0068  9.26903e+17 
  4654.2007  8.98193e+17 
   4656.395  9.45897e+17 
  4658.5894  8.98175e+17 
  4660.7837  9.63452e+17 
   4662.978  9.27588e+17 
  4665.1724  9.05721e+17 
  4667.3672  9.32438e+17 
  4669.5615  8.94959e+17 
  4671.7563  9.21243e+17 
  4673.9512    8.839e+17 
   4676.146  8.70551e+17 
  4678.3413  9.11383e+17 
  4680.5361  8.81719e+17 
  4682.7314  8.78431e+17 
  4684.9268  8.72458e+17 
  4687.1221   8.4478e+17 
  4689.3174  8.61352e+17 
  4691.5127  8.50209e+17 
  4693.7085  8.58039e+17 
  4695.9043  8.46459e+17 
  4698.1001  8.40557e+17 
  4700.2959  8.66202e+17 
  4702.4917   8.6575e+17 
   4704.688  8.43648e+17 
  4706.8838  8.51188e+17 
  4709.0801  8.15457e+17 
  4711.2764  8.18791e+17 
  4713.4727  8.70835e+17 
  4715.6689  8.42402e+17 
  4717.8657     8.08e+17 
   4720.062  8.38709e+17 
  4722.2588   8.2152e+17 
  4724.4556   7.8004e+17 
  4726.6523    8.254e+17 
  4728.8491  7.94327e+17 
  4731.0459  7.92804e+17 
  4733.2432  8.07949e+17 
  4735.4404  8.39761e+17 
  4737.6372  8.77575e+17 
  4739.8345  8.66727e+17 
  4742.0322  8.51005e+17 
  4744.2295  8.63425e+17 
  4746.4268  8.45958e+17 
  4748.6245  8.59913e+17 
  4750.8218  8.29134e+17 
  4753.0195  8.39864e+17 
  4755.2173  8.44929e+17 
   4757.415    8.229e+17 
  4759.6133  8.52156e+17 
   4761.811  8.66918e+17 
  4764.0093   8.5488e+17 
   4766.207   7.7335e+17 
  4768.4053  8.08797e+17 
  4770.6035  8.36383e+17 
  4772.8018  8.29132e+17 
  4775.0005  8.20391e+17 
  4777.1987  8.24086e+17 
   4779.397   8.3781e+17 
  4781.5957  8.30582e+17 
  4783.7944  8.26731e+17 
  4785.9932  8.21255e+17 
  4788.1919  8.13416e+17 
  4790.3906  8.27177e+17 
  4792.5894  8.80208e+17 
  4794.7886  8.61059e+17 
  4796.9873  8.28612e+17 
  4799.1865  8.51006e+17 
  4801.3857  7.76234e+17 
   4803.585  8.28142e+17 
  4805.7842   8.2321e+17 
  4807.9834  8.10194e+17 
  4810.1826  8.20208e+17 
  4812.3823  8.27294e+17 
  4814.5815  8.33862e+17 
  4816.7812  8.22061e+17 
   4818.981   8.5471e+17 
  4821.1802   8.9166e+17 
  4823.3799  8.64633e+17 
  4825.5801  8.12515e+17 
  4827.7798  8.54895e+17 
  4829.9795   8.4989e+17 
  4832.1797  8.46906e+17 
  4834.3794  8.42723e+17 
  4836.5796  8.73389e+17 
  4838.7798  8.55087e+17 
  4840.9795  8.72555e+17 
  4843.1797  8.68738e+17 
  4845.3804  8.79801e+17 
  4847.5806  8.58045e+17 
  4849.7808  8.76711e+17 
   4851.981  9.42095e+17 
  4854.1816  8.78974e+17 
  4856.3823  8.61111e+17 
  4858.5825    9.411e+17 
  4860.7832  8.90047e+17 
  4862.9839   9.0725e+17 
  4865.1846  8.98556e+17 
  4867.3853  9.36065e+17 
  4869.5859  9.35441e+17 
  4871.7871  9.40533e+17 
  4873.9878  9.11638e+17 
  4876.1885  8.96229e+17 
  4878.3896  9.06278e+17 
  4880.5908  9.35191e+17 
  4882.7915  9.36577e+17 
  4884.9927  9.48784e+17 
  4887.1938  9.03457e+17 
   4889.395  9.42498e+17 
  4891.5962  9.45869e+17 
  4893.7974  9.56681e+17 
   4895.999  9.23431e+17 
  4898.2002  9.08839e+17 
  4900.4019  9.34677e+17 
   4902.603  9.82559e+17 
  4904.8047  1.04867e+16 
  4907.0059  9.74683e+17 
  4909.2075  9.95291e+17 
  4911.4092  9.63515e+17 
  4913.6108  9.67583e+17 
  4915.8125  1.05358e+16 
  4918.0142  9.92146e+17 
  4920.2158  1.00566e+16 
  4922.4175  1.01652e+16 
  4924.6196  1.05644e+16 
  4926.8213  1.04698e+16 
  4929.0234  1.03926e+16 
  4931.2251  1.07194e+16 
  4933.4272  1.06032e+16 
  4935.6289   1.0253e+16 
  4937.8311  1.02591e+16 
  4940.0332  1.03811e+16 
  4942.2354  1.08257e+16 
  4944.4375  1.08216e+16 
  4946.6392  1.02055e+16 
  4948.8418  1.02336e+16 
  4951.0439  1.05568e+16 
  4953.2461   1.0264e+16 
  4955.4482  1.04723e+16 
  4957.6504  1.08005e+16 
   4959.853  1.02792e+16 
  4962.0552   1.0521e+16 
  4964.2578  1.05679e+16 
    4966.46  1.10421e+16 
  4968.6626  1.06974e+16 
  4970.8647  1.06543e+16 
  4973.0674  1.08269e+16 
    4975.27  1.08324e+16 
  4977.4727  1.11303e+16 
  4979.6748  1.11448e+16 
  4981.8774   1.0973e+16 
  4984.0801  1.06254e+16 
  4986.2827  1.07342e+16 
  4988.4854  1.09444e+16 
   4990.688  1.09688e+16 
  4992.8911  1.08609e+16 
  4995.0938  1.06439e+16 
  4997.2964  1.08911e+16 
   4999.499  1.09328e+16 
  5001.7017    1.086e+16 
  5003.9048  1.13828e+16 
  5006.1074  1.12313e+16 
  5008.3105  1.10825e+16 
  5010.5132  1.16543e+16 
  5012.7163   1.1021e+16 
  5014.9189  1.10808e+16 
  5017.1221  1.12216e+16 
  5019.3252  1.12548e+16 
  5021.5278  1.17493e+16 
   5023.731  1.19065e+16 
  5025.9341  1.15082e+16 
  5028.1367  1.16341e+16 
  5030.3398  1.14077e+16 
   5032.543  1.16465e+16 
  5034.7461  1.12753e+16 
  5036.9492  1.14789e+16 
  5039.1523  1.13053e+16 
  5041.3555  1.09206e+16 
  5043.5586  1.11407e+16 
  5045.7617  1.10577e+16 
  5047.9648   1.0892e+16 
   5050.168  1.08912e+16 
  5052.3711  1.09299e+16 
  5054.5742  1.05713e+16 
  5056.7773  1.05425e+16 
  5058.9805  1.05653e+16 
  5061.1836  1.00813e+16 
  5063.3872  1.03143e+16 
  5065.5903   9.5616e+17 
  5067.7935  1.00297e+16 
  5069.9966  1.00679e+16 
  5072.2002  9.84819e+17 
  5074.4033  9.32731e+17 
  5076.6064  9.50155e+17 
  5078.8096  9.74923e+17 
  5081.0132  9.25619e+17 
  5083.2163  9.83056e+17 
  5085.4199  9.46281e+17 
   5087.623  9.42543e+17 
  5089.8262  9.26479e+17 
  5092.0298  9.40354e+17 
  5094.2329   9.3121e+17 
   5096.436  9.58536e+17 
  5098.6396  9.48909e+17 
  5100.8428  9.49882e+17 
  5103.0464     9.22e+17 
  5105.2495  9.25113e+17 
  5107.4531  9.47035e+17 
  5109.6562  9.32231e+17 
  5111.8594  9.04656e+17 
   5114.063  9.22294e+17 
  5116.2661  8.94444e+17 
  5118.4697  8.66447e+17 
  5120.6729  9.02982e+17 
   5122.876  8.73427e+17 
  5125.0796  8.67555e+17 
  5127.2827  8.35476e+17 
  5129.4863   8.8961e+17 
  5131.6895  8.90228e+17 
  5133.8931  8.99745e+17 
  5136.0962  8.35739e+17 
  5138.2993  8.33098e+17 
  5140.5029  8.36114e+17 
  5142.7061  8.15913e+17 
  5144.9097  8.58444e+17 
  5147.1128  8.35211e+17 
  5149.3159  8.24104e+17 
  5151.5195  8.30225e+17 
  5153.7227  8.23129e+17 
  5155.9258  7.57572e+17 
  5158.1294  7.63379e+17 
  5160.3325  7.59828e+17 
  5162.5356  7.86424e+17 
  5164.7388  7.52448e+17 
  5166.9424  7.22722e+17 
  5169.1455  7.44802e+17 
  5171.3486  7.22005e+17 
  5173.5518  6.94963e+17 
  5175.7549  7.31889e+17 
  5177.9585  7.07269e+17 
  5180.1616  7.28425e+17 
  5182.3647   7.2106e+17 
  5184.5679  7.56992e+17 
   5186.771  7.25071e+17 
  5188.9741  7.49078e+17 
  5191.1772  7.05514e+17 
  5193.3804  7.28726e+17 
  5195.5835  7.22915e+17 
  5197.7866  7.24312e+17 
  5199.9897  7.55584e+17 
  5202.1929  7.19545e+17 
  5204.3955  6.76241e+17 
  5206.5986  7.18334e+17 
  5208.8018  7.06897e+17 
  5211.0049    7.335e+17 
   5213.208  7.14884e+17 
  5215.4106  6.79782e+17 
  5217.6138   7.1739e+17 
  5219.8164  7.36606e+17 
  5222.0195  6.69899e+17 
  5224.2227  7.03772e+17 
  5226.4253  7.35206e+17 
  5228.6284  7.20428e+17 
  5230.8311  7.44017e+17 
  5233.0337  7.82797e+17 
  5235.2368  7.35402e+17 
  5237.4395   7.0607e+17 
  5239.6421  7.87299e+17 
  5241.8452  7.82761e+17 
  5244.0479  7.77968e+17 
  5246.2505  8.13344e+17 
  5248.4531  7.72366e+17 
  5250.6558    7.953e+17 
  5252.8584  8.21578e+17 
   5255.061  7.85474e+17 
  5257.2637  8.19197e+17 
  5259.4663  8.00538e+17 
  5261.6685   7.7093e+17 
  5263.8711  7.63578e+17 
  5266.0737  8.05669e+17 
  5268.2764  7.96182e+17 
  5270.4785  7.72255e+17 
  5272.6812  7.47526e+17 
  5274.8833  7.60816e+17 
  5277.0859  8.11087e+17 
  5279.2881  7.83376e+17 
  5281.4907  8.02491e+17 
  5283.6929  7.53037e+17 
   5285.895  8.00283e+17 
  5288.0972  7.71395e+17 
  5290.2993  7.90318e+17 
  5292.5015  8.03854e+17 
  5294.7036  8.22308e+17 
  5296.9058  8.09656e+17 
  5299.1079  8.14584e+17 
  5301.3101  8.15114e+17 
  5303.5122  7.77258e+17 
  5305.7139  8.09944e+17 
   5307.916  7.72647e+17 
  5310.1182    8.039e+17 
  5312.3198  7.74753e+17 
   5314.522   8.0189e+17 
  5316.7236  7.43729e+17 
  5318.9253  7.70676e+17 
  5321.1274  7.45502e+17 
  5323.3291  7.15866e+17 
  5325.5308  6.93714e+17 
  5327.7324  7.50455e+17 
  5329.9341  6.91112e+17 
  5332.1357  7.29983e+17 
  5334.3374  7.14727e+17 
  5336.5386  7.28301e+17 
  5338.7402  6.69706e+17 
  5340.9419  6.66012e+17 
  5343.1431  7.12065e+17 
  5345.3447  7.17946e+17 
  5347.5459  7.32175e+17 
  5349.7471  6.87644e+17 
  5351.9482  7.07024e+17 
  5354.1499  7.26861e+17 
  5356.3511  6.97758e+17 
  5358.5518   6.9475e+17 
  5360.7534  7.05364e+17 
  5362.9541  6.91547e+17 
  5365.1553  6.68567e+17 
  5367.3564  6.71968e+17 
  5369.5571  6.64168e+17 
  5371.7583  6.82976e+17 
   5373.959    6.906e+17 
  5376.1597  7.01423e+17 
  5378.3608  6.90807e+17 
  5380.5615  7.33379e+17 
  5382.7622  6.83848e+17 
  5384.9629  6.85281e+17 
  5387.1636  7.41477e+17 
  5389.3643  7.49765e+17 
  5391.5649  7.25161e+17 
  5393.7651  7.55205e+17 
  5395.9658  7.56997e+17 
   5398.166  7.52299e+17 
  5400.3662  7.72363e+17 
  5402.5669  7.78437e+17 
  5404.7671  8.17638e+17 
  5406.9673  8.01162e+17 
  5409.1675  7.53134e+17 
  5411.3677  7.99392e+17 
  5413.5679  7.98856e+17 
  5415.7676  8.16203e+17 
  5417.9678  7.93822e+17 
  5420.1675  8.29317e+17 
  5422.3677  8.28479e+17 
  5424.5674  7.67189e+17 
  5426.7671  7.58995e+17 
  5428.9668  8.13212e+17 
  5431.1665  7.79736e+17 
  5433.3662   8.1729e+17 
  5435.5659  8.42657e+17 
  5437.7656  8.24206e+17 
  5439.9653  8.17645e+17 
  5442.1646  8.51089e+17 
  5444.3638   8.4591e+17 
  5446.5635  8.16464e+17 
  5448.7627  8.31342e+17 
  5450.9619  9.15449e+17 
  5453.1611  8.51343e+17 
  5455.3604  8.91431e+17 
  5457.5596  8.64985e+17 
  5459.7583  8.24425e+17 
  5461.9575  8.45874e+17 
  5464.1562  8.87777e+17 
   5466.355   8.6576e+17 
  5468.5542  8.51095e+17 
  5470.7529  8.72352e+17 
  5472.9517  8.86504e+17 
  5475.1504  9.12556e+17 
  5477.3486  8.73027e+17 
  5479.5474  9.02176e+17 
  5481.7461  9.06716e+17 
  5483.9443  8.87013e+17 
  5486.1426   9.1864e+17 
  5488.3413  9.38676e+17 
  5490.5391  9.19379e+17 
  5492.7378   9.4516e+17 
  5494.9355  9.07267e+17 
  5497.1338   8.8361e+17 
   5499.332  8.98792e+17 
  5501.5298  9.09943e+17 
   5503.728  8.80831e+17 
  5505.9258   9.3598e+17 
  5508.1235  9.15164e+17 
  5510.3213  8.67348e+17 
   5512.519   9.1057e+17 
  5514.7163  8.94435e+17 
  5516.9141  8.96094e+17 
  5519.1118  8.55427e+17 
  5521.3091  8.85003e+17 
  5523.5063  8.51801e+17 
  5525.7036  8.57318e+17 
  5527.9009  8.96992e+17 
  5530.0981  8.27545e+17 
  5532.2954  8.43766e+17 
  5534.4922  9.03945e+17 
  5536.6895  8.15556e+17 
  5538.8862   8.1157e+17 
   5541.083  8.10671e+17 
  5543.2798  8.61895e+17 
  5545.4766  8.46892e+17 
  5547.6733  8.35572e+17 
  5549.8701  8.23594e+17 
  5552.0669  8.52036e+17 
  5554.2632  8.57987e+17 
  5556.4595  8.76647e+17 
  5558.6558  8.17859e+17 
  5560.8521   8.6074e+17 
  5563.0483  8.33888e+17 
  5565.2446  8.66137e+17 
  5567.4409  8.77155e+17 
  5569.6367  8.62553e+17 
  5571.8325  9.01696e+17 
  5574.0288  9.00002e+17 
  5576.2246  7.38749e+17 
  5578.4204  8.49169e+17 
  5580.6157  8.97357e+17 
  5582.8115  9.21559e+17 
  5585.0068  9.21238e+17 
  5587.2026   9.1491e+17 
  5589.3979  8.71297e+17 
  5591.5933  8.76685e+17 
  5593.7886   9.0354e+17 
  5595.9839   9.3703e+17 
  5598.1787  8.66976e+17 
   5600.374  8.88086e+17 
  5602.5688  9.08299e+17 
  5604.7637  9.17994e+17 
  5606.9585  8.58147e+17 
  5609.1533  9.28247e+17 
  5611.3481  9.02377e+17 
  5613.5425  9.18854e+17 
  5615.7373  9.00559e+17 
  5617.9316  8.05598e+17 
   5620.126  9.42223e+17 
  5622.3203  9.02837e+17 
  5624.5146  8.98185e+17 
   5626.709  9.04678e+17 
  5628.9028  8.98875e+17 
  5631.0972  8.91678e+17 
   5633.291  8.80682e+17 
  5635.4849   9.1655e+17 
  5637.6787  9.16687e+17 
  5639.8721  9.08388e+17 
  5642.0659  9.07251e+17 
  5644.2598  9.23458e+17 
  5646.4531  9.12715e+17 
  5648.6465  8.76757e+17 
  5650.8398  9.75399e+17 
  5653.0332  9.04627e+17 
  5655.2261  9.37391e+17 
  5655.5894  7.96969e+17 
  5656.7324  9.26657e+17 
  5657.8755  9.09443e+17 
  5659.0181  9.34726e+17 
  5660.1611  9.60285e+17 
  5661.3042  9.18842e+17 
  5662.4473  9.40178e+17 
  5663.5903  8.78817e+17 
  5664.7334   9.6836e+17 
   5665.877  8.84884e+17 
    5667.02  8.67653e+17 
  5668.1636  9.01918e+17 
  5669.3066  9.06136e+17 
  5670.4502  8.34711e+17 
  5671.5933  9.06518e+17 
  5672.7368   8.9379e+17 
  5673.8804  9.56335e+17 
  5675.0239  9.46853e+17 
  5676.1675  9.67812e+17 
   5677.311  9.45779e+17 
  5678.4546  8.84301e+17 
  5679.5986  8.45394e+17 
  5680.7422  9.13098e+17 
  5681.8862  9.44359e+17 
  5683.0298  9.70414e+17 
  5684.1738  9.47619e+17 
  5685.3174  1.00595e+16 
  5686.4614  9.11576e+17 
  5687.6055  9.41842e+17 
  5688.7495   8.8701e+17 
  5689.8936  9.10389e+17 
  5691.0376  8.89127e+17 
  5692.1821  8.83431e+17 
  5693.3262  9.35647e+17 
  5694.4702   8.7111e+17 
  5695.6147  9.47587e+17 
  5696.7588  9.10889e+17 
  5697.9033  9.55407e+17 
  5699.0479  9.00816e+17 
  5700.1924    8.964e+17 
  5701.3369  9.10201e+17 
   5702.481  9.62841e+17 
   5703.626  9.32146e+17 
  5704.7705  9.16202e+17 
   5705.915   8.2258e+17 
  5707.0596  9.69475e+17 
  5708.2046  9.21771e+17 
  5709.3491  9.14711e+17 
  5710.4941  9.74102e+17 
  5711.6387  1.00868e+16 
  5712.7837  9.38071e+17 
  5713.9287   9.2462e+17 
  5715.0737  9.52596e+17 
  5716.2188  9.35037e+17 
  5717.3638  9.15205e+17 
  5718.5088  1.01277e+16 
  5719.6538  9.49727e+17 
  5720.7993  9.70499e+17 
  5721.9443  9.42405e+17 
  5723.0898  9.65435e+17 
  5724.2349  8.99674e+17 
  5725.3804  9.79257e+17 
  5726.5259  9.58991e+17 
  5727.6714  9.67036e+17 
  5728.8164  9.76555e+17 
  5729.9624  8.84795e+17 
  5731.1079  9.84607e+17 
  5732.2534  9.90387e+17 
  5733.3989  9.63953e+17 
  5734.5444  9.43694e+17 
  5735.6904   1.0128e+16 
  5736.8359  9.56302e+17 
  5737.9819  8.98015e+17 
  5739.1279  9.42521e+17 
  5740.2734  9.39605e+17 
  5741.4194  9.50635e+17 
  5742.5654  9.35436e+17 
  5743.7114  1.00299e+16 
  5744.8574  1.00702e+16 
  5746.0034  9.67681e+17 
  5747.1499  9.38036e+17 
  5748.2959  9.69396e+17 
  5749.4419  9.47508e+17 
  5750.5884   9.5627e+17 
  5751.7349  9.57705e+17 
  5752.8809  1.01438e+16 
  5754.0273  9.78937e+17 
  5755.1738  9.49859e+17 
  5756.3203  9.57019e+17 
  5757.4668   1.0599e+16 
  5758.6133   9.6188e+17 
  5759.7598  9.57881e+17 
  5760.9062  1.02958e+16 
  5762.0532  1.00312e+16 
  5763.1997  9.71059e+17 
  5764.3467  1.05076e+16 
  5765.4932  9.77552e+17 
  5766.6401  9.75145e+17 
  5767.7871  9.97694e+17 
  5768.9341  9.79659e+17 
  5770.0806  9.98646e+17 
   5771.228  1.03497e+16 
   5772.375  9.96125e+17 
   5773.522  1.00251e+16 
  5774.6689  9.09827e+17 
  5775.8159  1.01267e+16 
  5776.9634   1.0262e+16 
  5778.1104  9.78234e+17 
  5779.2578   9.6855e+17 
  5780.4053  9.83546e+17 
  5781.5527  9.37953e+17 
  5782.6997  9.87394e+17 
  5783.8472  9.61215e+17 
  5784.9946  9.25023e+17 
  5786.1421  9.71884e+17 
    5787.29  9.74753e+17 
  5788.4375  9.10202e+17 
   5789.585  9.66503e+17 
  5790.7329   1.0013e+16 
  5791.8804    9.891e+17 
  5793.0283  9.71085e+17 
  5794.1758  9.81431e+17 
  5795.3237  9.23751e+17 
  5796.4717  9.67878e+17 
  5797.6196  9.22878e+17 
  5798.7676  9.66001e+17 
  5799.9155  9.71782e+17 
  5801.0635  9.35915e+17 
  5802.2119  9.77612e+17 
  5803.3599  9.99971e+17 
  5804.5078  9.56854e+17 
  5805.6562  9.47753e+17 
  5806.8042   9.3881e+17 
  5807.9526  8.91696e+17 
  5809.1011  9.08475e+17 
  5810.2495  9.23477e+17 
  5811.3975   9.5434e+17 
  5812.5464  9.39607e+17 
  5813.6948  9.39478e+17 
  5814.8433  9.94916e+17 
  5815.9917  9.38945e+17 
  5817.1401  1.00319e+16 
  5818.2891  1.03033e+16 
  5819.4375   9.3874e+17 
  5820.5864  9.74855e+17 
  5821.7349  9.94156e+17 
  5822.8838  9.77797e+17 
  5824.0327  9.38187e+17 
  5825.1816  9.64036e+17 
  5826.3306  9.49012e+17 
  5827.4795  9.63694e+17 
  5828.6284  9.30443e+17 
  5829.7778  9.83403e+17 
  5830.9268  9.49688e+17 
  5832.0757  1.01414e+16 
  5833.2251  9.53248e+17 
   5834.374  1.00662e+16 
  5835.5234   9.9186e+17 
  5836.6729  9.88305e+17 
  5837.8218  1.00678e+16 
  5838.9712  9.92386e+17 
  5840.1206  9.98994e+17 
  5841.2705  9.13822e+17 
  5842.4199  9.53397e+17 
  5843.5693  9.05702e+17 
  5844.7188  9.26279e+17 
  5845.8687  9.77462e+17 
  5847.0181  9.44333e+17 
   5848.168  9.64218e+17 
  5849.3174  9.41623e+17 
  5850.4673  9.90516e+17 
  5851.6172  9.23822e+17 
  5852.7671   1.0189e+16 
   5853.917  9.53285e+17 
  5855.0669  9.21846e+17 
  5856.2168  9.34106e+17 
  5857.3667  9.38503e+17 
  5858.5166   8.8682e+17 
   5859.667  9.47453e+17 
  5860.8169  9.08702e+17 
  5861.9673  9.00054e+17 
  5863.1172  9.85866e+17 
  5864.2676  9.37724e+17 
   5865.418  9.00503e+17 
  5866.5684  9.36225e+17 
  5867.7188  9.01773e+17 
  5868.8691  9.12593e+17 
  5870.0195  9.57622e+17 
  5871.1699  8.78684e+17 
  5872.3203  8.72095e+17 
  5873.4712   9.0486e+17 
  5874.6216  9.27339e+17 
  5875.7725  9.28278e+17 
  5876.9229   8.7282e+17 
  5878.0737  8.90195e+17 
  5879.2246  8.76693e+17 
  5880.3755  8.76826e+17 
  5881.5259  8.50714e+17 
  5882.6768  8.33605e+17 
  5883.8281  8.82636e+17 
   5884.979  8.70958e+17 
  5886.1299  8.76522e+17 
  5887.2808  8.88369e+17 
  5888.4321  8.98768e+17 
   5889.583  8.59239e+17 
  5890.7344  8.83253e+17 
  5891.8857  8.54954e+17 
  5893.0366  8.22544e+17 
   5894.188  8.02463e+17 
  5895.3394  8.45557e+17 
  5896.4907  8.65408e+17 
  5897.6421  9.01217e+17 
  5898.7935  9.15273e+17 
  5899.9453  8.66961e+17 
  5901.0967  8.71054e+17 
   5902.248  8.40683e+17 
  5903.3999  8.45126e+17 
  5904.5513   8.7779e+17 
  5905.7031  8.22473e+17 
   5906.855  8.30154e+17 
  5908.0068  8.86405e+17 
  5909.1582  8.63976e+17 
  5910.3101  8.79724e+17 
  5911.4619  8.81215e+17 
  5912.6138  9.18403e+17 
  5913.7661  8.84813e+17 
   5914.918  8.99443e+17 
  5916.0698  8.77559e+17 
  5917.2222  8.92914e+17 
   5918.374  8.86209e+17 
  5919.5264  8.76358e+17 
  5920.6787  9.07795e+17 
  5921.8306  8.94855e+17 
  5922.9829  8.91551e+17 
  5924.1353  9.16343e+17 
  5925.2876  8.73839e+17 
  5926.4399  8.97913e+17 
  5927.5923   8.7567e+17 
  5928.7451  8.83445e+17 
  5929.8975  9.15035e+17 
  5931.0503  8.55835e+17 
  5932.2026  9.13326e+17 
  5933.3555  8.86778e+17 
  5934.5078  9.15661e+17 
  5935.6606  9.05477e+17 
  5936.8135  8.90628e+17 
  5937.9663  9.15277e+17 
  5939.1191   8.9567e+17 
   5940.272  9.20074e+17 
  5941.4248   9.2406e+17 
  5942.5776  9.07647e+17 
  5943.7305  9.20358e+17 
  5944.8838   9.1389e+17 
  5946.0366  9.02188e+17 
  5947.1899  9.08517e+17 
  5948.3428  8.59217e+17 
  5949.4961  9.01013e+17 
  5950.6494  9.25832e+17 
  5951.8027  8.77992e+17 
  5952.9561  8.98107e+17 
  5954.1094  9.31745e+17 
  5955.2627   9.1531e+17 
   5956.416  8.88603e+17 
  5957.5698  9.93926e+17 
  5958.7231   9.4914e+17 
  5959.8765  9.24666e+17 
  5961.0303  9.30958e+17 
  5962.1836  9.05527e+17 
  5963.3374  9.19656e+17 
  5964.4912  9.17902e+17 
   5965.645  9.61516e+17 
  5966.7988  9.20235e+17 
  5967.9526  9.20534e+17 
  5969.1064  9.21255e+17 
  5970.2603   9.2528e+17 
  5971.4141  9.11721e+17 
  5972.5679  8.98239e+17 
  5973.7222  8.59729e+17 
   5974.876  8.92684e+17 
  5976.0303  9.22471e+17 
  5977.1841  9.09907e+17 
  5978.3384   9.4598e+17 
  5979.4927  8.90387e+17 
   5980.647  9.48175e+17 
  5981.8013    9.138e+17 
  5982.9556   8.9627e+17 
  5984.1099  9.31064e+17 
  5985.2642  9.34874e+17 
  5986.4185  9.11654e+17 
  5987.5732  9.08323e+17 
  5988.7275  9.33853e+17 
  5989.8823  9.54607e+17 
  5991.0366  9.59864e+17 
  5992.1914  8.75093e+17 
  5993.3462  8.89151e+17 
  5994.5005   9.4135e+17 
  5995.6553  8.76814e+17 
  5996.8101  9.19991e+17 
  5997.9648  9.13565e+17 
  5999.1201  9.02398e+17 
  6000.2749  9.24586e+17 
  6001.4297  8.96123e+17 
  6002.5845  9.14486e+17 
  6003.7397  9.07826e+17 
   6004.895  9.03055e+17 
  6006.0498  8.71514e+17 
  6007.2051  8.54956e+17 
  6008.3604   9.0692e+17 
  6009.5156  9.22761e+17 
  6010.6704   8.5114e+17 
  6011.8257  8.77048e+17 
   6012.981  8.52679e+17 
  6014.1367  8.68964e+17 
   6015.292  8.82105e+17 
  6016.4473  8.00266e+17 
   6017.603  8.74216e+17 
  6018.7583  8.97441e+17 
  6019.9141  9.47608e+17 
  6021.0698  8.71594e+17 
  6022.2251  8.36384e+17 
  6023.3809  8.13746e+17 
  6024.5366  8.72836e+17 
  6025.6924  8.75174e+17 
  6026.8481  8.23703e+17 
  6028.0039  9.30986e+17 
  6029.1597  8.39352e+17 
  6030.3159  8.71603e+17 
  6031.4717  8.97075e+17 
  6032.6274  8.95599e+17 
  6033.7837  8.56841e+17 
  6034.9399  8.84316e+17 
  6036.0957  8.15827e+17 
   6037.252  8.65077e+17 
  6038.4082  8.18176e+17 
  6039.5645  8.92642e+17 
  6040.7207  8.49852e+17 
   6041.877  8.55263e+17 
  6043.0332  8.04859e+17 
  6044.1895  9.00051e+17 
  6045.3457  8.53897e+17 
  6046.5024  8.45781e+17 
  6047.6587  8.99902e+17 
  6048.8154  8.61331e+17 
  6049.9717  8.85703e+17 
  6051.1284  8.51943e+17 
  6052.2852  8.17786e+17 
  6053.4419   7.9783e+17 
  6054.5986  8.41132e+17 
  6055.7554   8.9231e+17 
  6056.9121  8.17298e+17 
  6058.0688  8.45507e+17 
  6059.2256    7.864e+17 
  6060.3828  8.30793e+17 
  6061.5396  8.36511e+17 
  6062.6963   8.7955e+17 
  6063.8535  8.46469e+17 
  6065.0107  8.09423e+17 
  6066.1675  8.09096e+17 
  6067.3247  8.08496e+17 
  6068.4819  8.29429e+17 
  6069.6392  8.45469e+17 
  6070.7964  7.89675e+17 
  6071.9536  8.07007e+17 
  6073.1108  8.20165e+17 
  6074.2686  8.05896e+17 
  6075.4258  8.10938e+17 
   6076.583  7.95959e+17 
  6077.7407  8.10972e+17 
  6078.8984  8.36305e+17 
  6080.0557  8.52964e+17 
  6081.2134  8.30746e+17 
  6082.3711  7.94768e+17 
  6083.5288  7.68536e+17 
  6084.6865  8.50492e+17 
  6085.8442  7.85684e+17 
   6087.002  7.48811e+17 
  6088.1597   8.3192e+17 
  6089.3174  7.88039e+17 
  6090.4756  7.86555e+17 
  6091.6333  8.15569e+17 
  6092.7915    8.321e+17 
  6093.9492  8.18644e+17 
  6095.1074  7.66069e+17 
  6096.2656  7.58354e+17 
  6097.4238  7.97111e+17 
  6098.5815  7.46159e+17 
  6099.7397  7.81442e+17 
  6100.8979  8.18554e+17 
  6102.0566  7.74828e+17 
  6103.2148  7.98189e+17 
   6104.373  7.71214e+17 
  6105.5312  8.31384e+17 
  6106.6899  7.75854e+17 
  6107.8481  7.70659e+17 
  6109.0068  7.54068e+17 
  6110.1655  8.32489e+17 
  6111.3237   7.5867e+17 
  6112.4824  7.59448e+17 
  6113.6411  7.91155e+17 
  6114.7998  8.26164e+17 
  6115.9585  7.79695e+17 
  6117.1172  7.75993e+17 
  6118.2759   7.6906e+17 
  6119.4351  8.00365e+17 
  6120.5938   7.6391e+17 
  6121.7529  7.34446e+17 
  6122.9116  7.72327e+17 
  6124.0708  7.61179e+17 
  6125.2295   8.1447e+17 
  6126.3887  7.42424e+17 
  6127.5479  7.37104e+17 
   6128.707  7.82311e+17 
  6129.8662  8.11823e+17 
  6131.0254  7.79985e+17 
  6132.1846  7.90227e+17 
  6133.3442  7.29109e+17 
  6134.5034  7.51855e+17 
  6135.6626   7.7833e+17 
  6136.8218  7.26289e+17 
  6137.9814  7.48909e+17 
  6139.1411  8.32719e+17 
  6140.3003  7.44544e+17 
    6141.46  7.69228e+17 
  6142.6196  7.36191e+17 
  6143.7793  8.05135e+17 
   6144.939  7.77252e+17 
  6146.0986  7.73255e+17 
  6147.2583  7.50561e+17 
   6148.418  7.87981e+17 
  6149.5781  8.05894e+17 
  6150.7378  7.70143e+17 
  6151.8975  7.91243e+17 
  6153.0576   7.7465e+17 
  6154.2173  7.89913e+17 
  6155.3774  7.51535e+17 
  6156.5376  7.36634e+17 
  6157.6978  7.59207e+17 
  6158.8579  7.76366e+17 
  6160.0181  7.57128e+17 
  6161.1782  8.14463e+17 
  6162.3384  7.74918e+17 
  6163.4985  7.74158e+17 
  6164.6587  8.20755e+17 
  6165.8193  7.70361e+17 
  6166.9795  7.87748e+17 
  6168.1401  8.06312e+17 
  6169.3003  7.55515e+17 
  6170.4609  7.50918e+17 
  6171.6216   8.2664e+17 
  6172.7822  8.03719e+17 
  6173.9424  7.91416e+17 
   6175.103  7.83368e+17 
  6176.2637  7.59924e+17 
  6177.4248  7.54161e+17 
  6178.5854    7.831e+17 
  6179.7461  7.70671e+17 
  6180.9067  7.26403e+17 
  6182.0679   7.9593e+17 
  6183.2285  8.02965e+17 
  6184.3896  7.93126e+17 
  6185.5508  7.61005e+17 
  6186.7114  7.10885e+17 
  6187.8726   7.9605e+17 
  6189.0337  7.53221e+17 
  6190.1948  7.58004e+17 
   6191.356  7.06916e+17 
  6192.5171   7.7151e+17 
  6193.6782  7.47364e+17 
  6194.8398   7.8029e+17 
   6196.001  7.58506e+17 
  6197.1621  7.12889e+17 
  6198.3237  7.57839e+17 
  6199.4849  7.85553e+17 
  6200.6465  7.34206e+17 
  6201.8081   7.5112e+17 
  6202.9697  7.27668e+17 
  6204.1309  7.45631e+17 
  6205.2925  7.88034e+17 
  6206.4541  7.08044e+17 
  6207.6157  7.46226e+17 
  6208.7778  7.58891e+17 
  6209.9395  7.05274e+17 
  6211.1011   6.9484e+17 
  6212.2632  6.94658e+17 
  6213.4248  7.09746e+17 
  6214.5869  6.74776e+17 
  6215.7485  7.13378e+17 
  6216.9106  6.98717e+17 
  6218.0728  6.88355e+17 
  6219.2344  7.53764e+17 
  6220.3965  6.65642e+17 
  6221.5586  6.91378e+17 
  6222.7212  6.94316e+17 
  6223.8833  6.70956e+17 
  6225.0454  6.71009e+17 
  6226.2075  6.46607e+17 
  6227.3701  6.58712e+17 
  6228.5322  7.09761e+17 
  6229.6948  6.72892e+17 
  6230.8569  6.07256e+17 
  6232.0195  6.32774e+17 
  6233.1821  6.62953e+17 
  6234.3442  6.10077e+17 
  6235.5068  6.47268e+17 
  6236.6694  5.98443e+17 
   6237.832  6.50945e+17 
  6238.9946  6.08524e+17 
  6240.1577  6.44486e+17 
  6241.3203  6.73845e+17 
  6242.4829  6.05754e+17 
   6243.646  5.93021e+17 
  6244.8086   6.4174e+17 
  6245.9717  6.42801e+17 
  6247.1343  5.49993e+17 
  6248.2974  6.07437e+17 
  6249.4604  6.10869e+17 
  6250.6235  6.06829e+17 
  6251.7866  6.18628e+17 
  6252.9497  5.76709e+17 
  6254.1128  5.63741e+17 
  6255.2759  5.83709e+17 
   6256.439   5.7447e+17 
  6257.6025   5.6855e+17 
  6258.7656  5.86384e+17 
  6259.9287   5.7579e+17 
  6261.0923  5.61904e+17 
  6262.2554  5.70021e+17 
  6263.4189  5.80131e+17 
  6264.5825  5.68054e+17 
  6265.7461  5.47441e+17 
  6266.9097  5.47557e+17 
  6268.0732  5.16377e+17 
  6269.2368  5.62452e+17 
  6270.4004  5.54389e+17 
   6271.564  5.66453e+17 
  6272.7275  5.14147e+17 
  6273.8916  5.73714e+17 
  6275.0552  5.35268e+17 
  6276.2192  5.32328e+17 
  6277.3828  5.55531e+17 
  6278.5469  5.58934e+17 
  6279.7109  5.21029e+17 
  6280.8745  5.40743e+17 
  6282.0386  5.63645e+17 
  6283.2026  5.57851e+17 
  6284.3667  5.72081e+17 
  6285.5308  5.82436e+17 
  6286.6948  5.39503e+17 
  6287.8589   5.2511e+17 
  6289.0234  5.50455e+17 
  6290.1875  5.74272e+17 
  6291.3521  6.10602e+17 
  6292.5161   5.6629e+17 
  6293.6807   5.9543e+17 
  6294.8452   5.7365e+17 
  6296.0093  5.81383e+17 
  6297.1738  5.00229e+17 
  6298.3384  6.08727e+17 
  6299.5029  6.39673e+17 
  6300.6675  5.39358e+17 
   6301.832  5.53493e+17 
  6302.9966  6.20308e+17 
  6304.1616  5.81898e+17 
  6305.3262  6.48021e+17 
  6306.4907   5.9294e+17 
  6307.6558  6.45046e+17 
  6308.8203  6.36026e+17 
  6309.9854  6.20247e+17 
  6311.1504  6.15697e+17 
  6312.3149  6.11731e+17 
    6313.48  6.06315e+17 
   6314.645  6.14131e+17 
  6315.8101  6.01458e+17 
  6316.9751  6.51912e+17 
  6318.1401   6.0449e+17 
  6319.3052  6.43864e+17 
  6320.4707  6.50846e+17 
  6321.6357  6.49685e+17 
  6322.8013   6.4214e+17 
  6323.9663  5.80163e+17 
  6325.1318  6.41567e+17 
  6326.2969  6.46673e+17 
  6327.4624  7.04542e+17 
  6328.6279  6.82065e+17 
  6329.7935  6.10989e+17 
   6330.959  6.35665e+17 
  6332.1245   6.8971e+17 
    6333.29  6.48476e+17 
  6334.4556  6.89212e+17 
  6335.6211  6.77054e+17 
  6336.7866  6.93436e+17 
  6337.9526  6.62667e+17 
  6339.1182   6.7249e+17 
  6340.2842  6.89929e+17 
  6341.4497  7.19583e+17 
  6342.6157  7.02842e+17 
  6343.7817  7.00066e+17 
  6344.9478  7.22721e+17 
  6346.1133   6.8467e+17 
  6347.2793  7.33233e+17 
  6348.4453  7.49302e+17 
  6349.6118  7.17442e+17 
  6350.7778  6.82285e+17 
  6351.9438    6.735e+17 
  6353.1099  6.91367e+17 
  6354.2764  7.45308e+17 
  6355.4424  6.86967e+17 
  6356.6089  6.86482e+17 
  6357.7749  6.97299e+17 
  6358.9414  6.77601e+17 
  6360.1079  6.93227e+17 
  6361.2744  6.97891e+17 
  6362.4404  6.93344e+17 
  6363.6069  6.45962e+17 
  6364.7734  7.09671e+17 
  6365.9404  6.93899e+17 
  6367.1069  7.48108e+17 
  6368.2734  6.92693e+17 
  6369.4399  7.31555e+17 
  6370.6069  6.92323e+17 
  6371.7734  7.05193e+17 
  6372.9404  6.94733e+17 
  6374.1069  7.07951e+17 
  6375.2739  6.87675e+17 
  6376.4409  6.91376e+17 
  6377.6079  6.94868e+17 
  6378.7744  7.41533e+17 
  6379.9414  7.21218e+17 
  6381.1084  7.42963e+17 
  6382.2754  7.10809e+17 
  6383.4429  6.99196e+17 
  6384.6099  7.35371e+17 
  6385.7769   7.0075e+17 
  6386.9443  7.37555e+17 
  6388.1113  7.00807e+17 
  6389.2788  7.25361e+17 
  6390.4458  7.10686e+17 
  6391.6133  6.59708e+17 
  6392.7808  7.44921e+17 
  6393.9482  7.09603e+17 
  6395.1152  7.52172e+17 
  6396.2827  6.98095e+17 
  6397.4502  7.38275e+17 
  6398.6177  7.32565e+17 
  6399.7856  7.32909e+17 
  6400.9531   7.2679e+17 
  6402.1206  7.25885e+17 
  6403.2886  7.11935e+17 
  6404.4561   7.0299e+17 
   6405.624  7.02527e+17 
  6406.7915   7.1067e+17 
  6407.9595   7.1197e+17 
  6409.1274  7.15992e+17 
  6410.2954  7.20857e+17 
  6411.4629  6.75281e+17 
  6412.6309  7.00579e+17 
  6413.7988  6.69914e+17 
  6414.9668  6.78557e+17 
  6416.1353  7.09436e+17 
  6417.3032   6.9401e+17 
  6418.4712   6.8336e+17 
  6419.6392  7.01409e+17 
  6420.8076  7.42381e+17 
  6421.9761  6.94968e+17 
   6423.144  7.50842e+17 
  6424.3125   7.0994e+17 
  6425.4805  7.12911e+17 
  6426.6489  7.01963e+17 
  6427.8174  7.13907e+17 
  6428.9858  7.52534e+17 
  6430.1543   7.1409e+17 
  6431.3228  7.49707e+17 
  6432.4912  7.40647e+17 
  6433.6602  7.32096e+17 
  6434.8286  7.33341e+17 
  6435.9971  7.29676e+17 
   6437.166  7.20283e+17 
  6438.3345   7.2571e+17 
  6439.5034  7.29026e+17 
  6440.6719  7.55835e+17 
  6441.8408  7.31995e+17 
  6443.0098  7.45176e+17 
  6444.1787  7.27691e+17 
  6445.3477  7.28057e+17 
  6446.5166  7.28646e+17 
  6447.6855  7.61906e+17 
  6448.8545  7.09248e+17 
  6450.0234  7.36488e+17 
  6451.1924  7.76766e+17 
  6452.3618   7.2626e+17 
  6453.5308  7.56119e+17 
  6454.7002  7.73435e+17 
  6455.8691  7.68993e+17 
  6457.0386  7.19017e+17 
   6458.208  7.49346e+17 
   6459.377  7.18616e+17 
  6460.5464  7.20833e+17 
  6461.7158  7.11256e+17 
  6462.8853  7.47552e+17 
  6464.0547   7.2514e+17 
  6465.2241   7.7868e+17 
  6466.3936  7.76304e+17 
  6467.5635  7.86446e+17 
  6468.7329  7.31451e+17 
  6469.9023  7.96694e+17 
  6471.0723  7.18091e+17 
  6472.2417  8.01791e+17 
  6473.4116  7.71348e+17 
  6474.5815  7.67238e+17 
   6475.751  7.60484e+17 
  6476.9209  7.60958e+17 
  6478.0908  7.28474e+17 
  6479.2607  7.29475e+17 
  6480.4307  8.13348e+17 
  6481.6006  7.76279e+17 
  6482.7705  7.16297e+17 
  6483.9404   7.8697e+17 
  6485.1108   7.6592e+17 
  6486.2808  8.18336e+17 
  6487.4507  7.37424e+17 
  6488.6211  7.88222e+17 
  6489.7915  7.26596e+17 
  6490.9614  7.63147e+17 
  6492.1318  7.37985e+17 
  6493.3022  7.20148e+17 
  6494.4722  7.63053e+17 
  6495.6426   7.6194e+17 
   6496.813  7.58549e+17 
  6497.9834  7.48684e+17 
  6499.1538   7.3191e+17 
  6500.3247  7.84365e+17 
  6501.4951  7.80532e+17 
  6502.6655  7.35381e+17 
  6503.8364  7.52673e+17 
  6505.0068  7.34877e+17 
  6506.1777  7.29146e+17 
  6507.3481  7.92514e+17 
   6508.519   7.9691e+17 
  6509.6899  7.18312e+17 
  6510.8604  7.64973e+17 
  6512.0312  7.10092e+17 
  6513.2021  7.77933e+17 
   6514.373  7.65524e+17 
  6515.5439  7.53066e+17 
  6516.7148  7.38778e+17 
  6517.8862  7.07201e+17 
  6519.0571  7.49352e+17 
   6520.228  7.23859e+17 
  6521.3994  7.10385e+17 
  6522.5703  7.64648e+17 
  6523.7417  7.47739e+17 
  6524.9126  7.45308e+17 
   6526.084  7.56978e+17 
  6527.2554  7.53278e+17 
  6528.4263  7.49938e+17 
  6529.5977  7.50016e+17 
   6530.769  7.60327e+17 
  6531.9404  7.92244e+17 
  6533.1118  7.04478e+17 
  6534.2837  7.22245e+17 
  6535.4551   7.2342e+17 
  6536.6265   7.6711e+17 
  6537.7983  7.03687e+17 
  6538.9697  7.42945e+17 
  6540.1411  7.59478e+17 
   6541.313  7.06615e+17 
  6542.4849  7.26814e+17 
  6543.6562  7.23949e+17 
  6544.8281  7.31365e+17 
     6546.0  7.10092e+17 
  6547.1719  7.32334e+17 
  6548.3438  7.18866e+17 
  6549.5156  7.12225e+17 
  6550.6875  7.25876e+17 
  6551.8594  7.13933e+17 
  6553.0312  6.69799e+17 
  6554.2036  7.05977e+17 
  6555.3755  6.28589e+17 
  6556.5474  7.06221e+17 
  6557.7197  7.21471e+17 
  6558.8921  7.40742e+17 
   6560.064  7.15843e+17 
  6561.2363  7.06837e+17 
  6562.4087  6.45705e+17 
  6563.5806  6.72826e+17 
  6564.7529  7.36436e+17 
  6565.9253  6.73797e+17 
  6567.0977  7.02855e+17 
  6568.2705  6.93049e+17 
  6569.4429  6.74811e+17 
  6570.6152  6.46229e+17 
  6571.7876  6.41932e+17 
  6572.9604  6.66912e+17 
  6574.1328  6.58687e+17 
  6575.3057  6.71795e+17 
   6576.478  6.62245e+17 
  6577.6509  7.01063e+17 
  6578.8237  6.60619e+17 
  6579.9961  6.28125e+17 
  6581.1689  6.36799e+17 
  6582.3418  6.77938e+17 
  6583.5146  6.15168e+17 
  6584.6875  6.17977e+17 
  6585.8604  6.40227e+17 
  6587.0332  6.51275e+17 
  6588.2065  6.26027e+17 
  6589.3794  6.48765e+17 
  6590.5522  6.63173e+17 
  6591.7256  6.32727e+17 
  6592.8984  6.57914e+17 
  6594.0718  6.33579e+17 
  6595.2446  6.18435e+17 
   6596.418  6.58662e+17 
  6597.5913     6.18e+17 
  6598.7646  6.58759e+17 
   6599.938  6.57181e+17 
  6601.1113  6.85942e+17 
  6602.2847  6.42518e+17 
   6603.458  6.41798e+17 
  6604.6313  6.73522e+17 
  6605.8047  6.79285e+17 
   6606.978  6.08062e+17 
  6608.1519  6.09199e+17 
  6609.3252  6.14609e+17 
   6610.499  6.46531e+17 
  6611.6724  6.30436e+17 
  6612.8462   6.3297e+17 
    6614.02   6.3197e+17 
  6615.1934  6.42455e+17 
  6616.3672  6.00602e+17 
   6617.541  6.10891e+17 
  6618.7148  6.47169e+17 
  6619.8887  6.65128e+17 
  6621.0625  6.38046e+17 
  6622.2363  6.47278e+17 
  6623.4102  6.50266e+17 
  6624.5845  6.07663e+17 
  6625.7583   6.3992e+17 
  6626.9326  6.15344e+17 
  6628.1064  6.18081e+17 
  6629.2803  6.23587e+17 
  6630.4546  6.45165e+17 
  6631.6289  6.40248e+17 
  6632.8032  6.36842e+17 
  6633.9771  6.60254e+17 
  6635.1514   6.2116e+17 
  6636.3257  6.18745e+17 
     6637.5  6.28063e+17 
  6638.6743  6.15547e+17 
  6639.8486  6.09788e+17 
  6641.0234  6.14216e+17 
  6642.1978  6.47371e+17 
  6643.3721  5.97633e+17 
  6644.5464  6.10198e+17 
  6645.7212  6.43697e+17 
  6646.8955  6.15461e+17 
  6648.0703  6.15448e+17 
  6649.2451  5.88986e+17 
  6650.4194  6.45212e+17 
  6651.5942  6.28693e+17 
   6652.769  6.38713e+17 
  6653.9438  5.89512e+17 
  6655.1187  6.07324e+17 
  6656.2935  6.20896e+17 
  6657.4683  5.94236e+17 
  6658.6431  5.85271e+17 
  6659.8179  5.90438e+17 
  6660.9932   6.0116e+17 
   6662.168  5.91698e+17 
  6663.3428  6.18896e+17 
  6664.5181  5.93372e+17 
  6665.6929  5.85843e+17 
  6666.8682  5.78661e+17 
  6668.0435  5.99302e+17 
  6669.2183  5.97701e+17 
  6670.3936  6.12182e+17 
  6671.5688  5.79096e+17 
  6672.7441  6.20589e+17 
  6673.9194  5.80994e+17 
  6675.0947  6.24397e+17 
    6676.27  5.61194e+17 
  6677.4458  5.94139e+17 
  6678.6211  5.90961e+17 
  6679.7964  5.75845e+17 
  6680.9717  6.14116e+17 
  6682.1475  6.21836e+17 
  6683.3232  5.90472e+17 
  6684.4985  6.00486e+17 
  6685.6743  5.86704e+17 
  6686.8496  6.00014e+17 
  6688.0254  5.85367e+17 
  6689.2012  5.78173e+17 
   6690.377  6.10777e+17 
  6691.5527  5.64776e+17 
  6692.7285  5.97639e+17 
  6693.9043  6.28884e+17 
  6695.0801  5.80955e+17 
  6696.2559  5.92835e+17 
  6697.4321  6.36678e+17 
  6698.6079  5.77805e+17 
  6699.7837  5.80422e+17 
    6700.96  5.74717e+17 
  6702.1357  6.03508e+17 
   6703.312  6.63138e+17 
  6704.4878  5.77136e+17 
  6705.6641  6.50535e+17 
  6706.8403  6.23493e+17 
  6708.0166  6.09112e+17 
  6709.1929  5.60891e+17 
  6710.3691  5.95687e+17 
  6711.5454   5.9235e+17 
  6712.7217  6.24862e+17 
  6713.8979  6.04519e+17 
  6715.0742  6.21544e+17 
  6716.2505  6.13498e+17 
  6717.4272  6.32269e+17 
  6718.6035  5.85648e+17 
  6719.7803  6.19932e+17 
  6720.9565   6.3578e+17 
  6722.1333  5.72747e+17 
  6723.3096  6.12193e+17 
  6724.4863  6.23593e+17 
  6725.6631   6.4179e+17 
  6726.8398  6.16958e+17 
  6728.0166  6.08111e+17 
  6729.1934  6.02431e+17 
  6730.3701   6.2371e+17 
  6731.5469  5.90841e+17 
  6732.7236  6.24866e+17 
  6733.9004  6.15528e+17 
  6735.0776  5.84545e+17 
  6736.2544  6.35404e+17 
  6737.4312   6.2742e+17 
  6738.6084  6.31081e+17 
  6739.7852  5.53186e+17 
  6740.9624  6.08238e+17 
  6742.1392  5.99272e+17 
  6743.3164  6.12151e+17 
  6744.4937  6.29149e+17 
  6745.6709  6.24045e+17 
  6746.8481  6.07501e+17 
  6748.0254   6.0102e+17 
  6749.2026  5.80151e+17 
  6750.3799  6.26874e+17 
  6751.5571  5.99994e+17 
  6752.7344  6.06776e+17 
  6753.9121  6.09216e+17 
  6755.0894  6.41587e+17 
  6756.2666  5.88932e+17 
  6757.4443  5.86833e+17 
  6758.6216   6.2703e+17 
  6759.7993  6.06041e+17 
  6760.9766  6.09866e+17 
  6762.1543  5.90377e+17 
   6763.332  5.64863e+17 
  6764.5098  5.87831e+17 
  6765.6875  5.56944e+17 
  6766.8652  5.98656e+17 
   6768.043  5.62643e+17 
  6769.2207  5.55092e+17 
  6770.3984  5.98489e+17 
  6771.5762  6.08025e+17 
  6772.7539  5.50964e+17 
  6773.9321  6.04151e+17 
  6775.1099  5.70646e+17 
  6776.2881  5.68173e+17 
  6777.4658  5.97791e+17 
   6778.644  5.52079e+17 
  6779.8218  5.59709e+17 
     6781.0  5.69498e+17 
  6782.1782   5.7953e+17 
   6783.356  5.33885e+17 
  6784.5342  5.60816e+17 
  6785.7124  5.58032e+17 
  6786.8906  5.31873e+17 
  6788.0688  5.35665e+17 
  6789.2471  5.65812e+17 
  6790.4258  5.18117e+17 
   6791.604  5.35699e+17 
  6792.7822  5.32065e+17 
  6793.9609   5.1667e+17 
  6795.1392  5.57213e+17 
  6796.3174  5.36783e+17 
  6797.4961  5.33493e+17 
  6798.6748  5.11298e+17 
   6799.853  5.07588e+17 
  6801.0317  5.22301e+17 
  6802.2104   4.9527e+17 
  6803.3892  5.23394e+17 
  6804.5674  4.73392e+17 
  6805.7461  4.96263e+17 
  6806.9248  4.90646e+17 
   6808.104  5.16532e+17 
  6809.2827  5.29117e+17 
  6810.4614  5.27179e+17 
  6811.6401  5.26493e+17 
  6812.8193  4.98714e+17 
   6813.998  4.99754e+17 
  6815.1768  5.15083e+17 
   6816.356  4.94476e+17 
  6817.5347  4.83046e+17 
  6818.7139  5.22529e+17 
  6819.8931  5.09927e+17 
  6821.0718  4.99145e+17 
   6822.251  4.98178e+17 
  6823.4302  5.23062e+17 
  6824.6094  5.04026e+17 
  6825.7886  4.64889e+17 
  6826.9678  5.15674e+17 
   6828.147  4.81468e+17 
  6829.3262  5.13701e+17 
  6830.5059  4.99421e+17 
  6831.6851  5.10256e+17 
  6832.8643  5.32328e+17 
  6834.0439  5.13536e+17 
  6835.2231  5.48603e+17 
  6836.4028  5.70052e+17 
   6837.582  4.98106e+17 
  6838.7617  5.38792e+17 
  6839.9414  5.01437e+17 
  6841.1206  5.73054e+17 
  6842.3003  5.39418e+17 
    6843.48  5.33532e+17 
  6844.6597  5.60538e+17 
  6845.8394  5.25499e+17 
   6847.019  5.29996e+17 
  6848.1987  5.30153e+17 
  6849.3784  5.32557e+17 
  6850.5586  5.60445e+17 
  6851.7383  5.17151e+17 
   6852.918  5.36911e+17 
  6854.0977  5.62217e+17 
  6855.2778  5.42141e+17 
   6856.458  5.49043e+17 
  6857.6377  5.57171e+17 
  6858.8179  5.02505e+17 
  6859.9976  5.42568e+17 
  6861.1777  5.47521e+17 
  6862.3579  5.57127e+17 
  6863.5381  5.80605e+17 
  6864.7183  5.79953e+17 
  6865.8984  6.13865e+17 
  6867.0786  5.41201e+17 
  6868.2588  5.73569e+17 
   6869.439  5.21175e+17 
  6870.6196  5.45138e+17 
  6871.7998   5.9969e+17 
    6872.98   5.8543e+17 
  6874.1602  5.68762e+17 
  6875.3408  5.51249e+17 
   6876.521  5.58418e+17 
  6877.7017  5.96877e+17 
  6878.8823  5.41348e+17 
  6880.0625  5.82417e+17 
  6881.2432  5.64916e+17 
  6882.4238  5.82767e+17 
  6883.6045  6.17592e+17 
  6884.7852  5.68785e+17 
  6885.9658   6.1724e+17 
  6887.1465  6.24424e+17 
  6888.3271  5.80291e+17 
  6889.5078  5.61113e+17 
  6890.6885   5.9659e+17 
  6891.8696  5.86359e+17 
  6893.0503  5.71497e+17 
   6894.231  5.92112e+17 
  6895.4121  5.85237e+17 
  6896.5928  5.76477e+17 
  6897.7739  5.70688e+17 
  6898.9546  5.58848e+17 
  6900.1357  5.91629e+17 
  6901.3169  6.60419e+17 
   6902.498   5.8436e+17 
  6903.6792  6.01401e+17 
  6904.8599   5.9713e+17 
   6906.041   6.0276e+17 
  6907.2222  5.98993e+17 
  6908.4038  5.64835e+17 
   6909.585  5.79349e+17 
  6910.7661  5.97172e+17 
  6911.9473  5.89368e+17 
  6913.1284  5.94993e+17 
  6914.3101  6.08114e+17 
  6915.4912  6.19518e+17 
  6916.6729  6.19959e+17 
   6917.854  5.82595e+17 
  6919.0356  5.72496e+17 
  6920.2168  6.51798e+17 
  6921.3984   5.9751e+17 
  6922.5801  5.98524e+17 
  6923.7617  5.84633e+17 
  6924.9434  6.19243e+17 
   6926.125  6.07613e+17 
  6927.3066  6.41378e+17 
  6928.4883  6.56362e+17 
  6929.6699  6.38555e+17 
  6930.8516  6.26329e+17 
  6932.0332  6.41677e+17 
  6933.2153  6.27751e+17 
   6934.397  6.38234e+17 
  6935.5786  6.36644e+17 
  6936.7607  6.14696e+17 
  6937.9424  6.60566e+17 
  6939.1245  6.21835e+17 
  6940.3062  6.33729e+17 
  6941.4883  6.24124e+17 
  6942.6704  6.63244e+17 
  6943.8525  6.65341e+17 
  6945.0342  6.63086e+17 
  6946.2163  6.52126e+17 
  6947.3984  6.23712e+17 
  6948.5806  6.82242e+17 
  6949.7627  6.32625e+17 
  6950.9448  6.49226e+17 
  6952.1274  6.16736e+17 
  6953.3096  6.47349e+17 
  6954.4917  6.35132e+17 
  6955.6743  6.43283e+17 
  6956.8564  6.43689e+17 
  6958.0386  6.37915e+17 
  6959.2212  6.59753e+17 
  6960.4033  6.58936e+17 
  6961.5859   6.2445e+17 
  6962.7686  6.26297e+17 
  6963.9507  6.24896e+17 
  6965.1333  6.43244e+17 
  6966.3159  6.29053e+17 
  6967.4985  6.29135e+17 
  6968.6812  6.51423e+17 
  6969.8638  6.63232e+17 
  6971.0464  6.61197e+17 
   6972.229  6.38553e+17 
  6973.4116   6.6455e+17 
  6974.5947  6.36809e+17 
  6975.7773  6.67279e+17 
    6976.96  6.68712e+17 
  6978.1431  6.65694e+17 
  6979.3257  6.47633e+17 
  6980.5088  6.27824e+17 
  6981.6914  6.55296e+17 
  6982.8745   6.5621e+17 
  6984.0576  6.39263e+17 
  6985.2402  6.34138e+17 
  6986.4233  6.22607e+17 
  6987.6064  6.27511e+17 
  6988.7896  6.61345e+17 
  6989.9727   6.1346e+17 
  6991.1558  6.64211e+17 
  6992.3389  6.25995e+17 
   6993.522  6.40749e+17 
  6994.7051  6.60049e+17 
  6995.8882  6.61697e+17 
  6997.0718  6.47914e+17 
  6998.2549  6.28097e+17 
   6999.438  6.66077e+17 
  7000.6216  6.56788e+17 
  7001.8047  6.79669e+17 
  7002.9883  6.47339e+17 
  7004.1714  6.63754e+17 
   7005.355  6.81843e+17 
  7006.5386  6.99604e+17 
  7007.7222  6.66793e+17 
  7008.9053  6.86308e+17 
  7010.0889  6.89835e+17 
  7011.2725  6.98414e+17 
  7012.4561    6.826e+17 
  7013.6396  6.69762e+17 
  7014.8232          0.0 
  7016.0073          0.0 
  7017.1909  6.78317e+17 
  7018.3745   6.8764e+17 
  7019.5581  6.87424e+17 
  7020.7422  6.77094e+17 
  7021.9258  6.84437e+17 
  7023.1099  6.95156e+17 
  7024.2935  6.91486e+17 
  7025.4775  7.09847e+17 
  7026.6611  6.82509e+17 
  7027.8452   6.7532e+17 
  7029.0293   6.6728e+17 
  7030.2134  6.95491e+17 
   7031.397  6.87428e+17 
  7032.5811  6.70527e+17 
  7033.7651  6.84397e+17 
  7034.9492  6.69384e+17 
  7036.1333  7.19698e+17 
  7037.3174  6.65578e+17 
   7038.502  6.75632e+17 
   7039.686  6.94155e+17 
  7040.8701  6.88174e+17 
  7042.0542  6.83404e+17 
  7043.2388  6.88094e+17 
  7044.4229  6.98012e+17 
  7045.6074  6.70318e+17 
  7046.7915  6.54018e+17 
  7047.9761    6.715e+17 
  7049.1602  6.73126e+17 
  7050.3447  7.11079e+17 
  7051.5293  6.77539e+17 
  7052.7139  6.47943e+17 
  7053.8984   6.7458e+17 
   7055.083  6.64019e+17 
  7056.2676  6.78796e+17 
  7057.4521  6.43777e+17 
  7058.6367  6.66313e+17 
  7059.8213  6.76551e+17 
  7061.0059  6.50563e+17 
  7062.1904  6.64912e+17 
  7063.3755  6.76248e+17 
  7064.5601  6.45357e+17 
  7065.7446  6.54597e+17 
  7066.9297  6.55327e+17 
  7068.1143  6.62384e+17 
  7069.2993  6.44283e+17 
  7070.4839  6.56002e+17 
  7071.6689   6.7007e+17 
   7072.854  6.37809e+17 
  7074.0386  6.61012e+17 
  7075.2236   6.2871e+17 
  7076.4087  6.67012e+17 
  7077.5938  6.28679e+17 
  7078.7788  6.48794e+17 
  7079.9639  6.50618e+17 
  7081.1489  6.43137e+17 
   7082.334  6.22062e+17 
   7083.519  6.58091e+17 
  7084.7046  6.36239e+17 
  7085.8896  6.18869e+17 
  7087.0747  6.23478e+17 
  7088.2598  6.21696e+17 
  7089.4453  6.27657e+17 
  7090.6304  6.59726e+17 
  7091.8159  6.32765e+17 
  7093.0015  6.36149e+17 
  7094.1865  6.43004e+17 
  7095.3721   6.5305e+17 
  7096.5576  6.34976e+17 
  7097.7427   6.0589e+17 
  7098.9282  6.10685e+17 
  7100.1138  6.37475e+17 
  7101.2993   6.4488e+17 
  7102.4849  6.16349e+17 
  7103.6704  6.25845e+17 
   7104.856  6.15088e+17 
  7106.0415  6.13966e+17 
  7107.2275  6.15093e+17 
  7108.4131  5.97025e+17 
  7109.5986   6.1933e+17 
  7110.7847  6.11312e+17 
  7111.9702  6.08147e+17 
  7113.1558  6.41803e+17 
  7114.3418  5.79463e+17 
  7115.5278  5.95723e+17 
  7116.7134  5.97451e+17 
  7117.8994  6.02174e+17 
   7119.085  6.11741e+17 
   7120.271  5.85065e+17 
   7121.457  5.89888e+17 
  7122.6431  6.09083e+17 
  7123.8291  5.92373e+17 
  7125.0151  5.69229e+17 
  7126.2012  5.85572e+17 
  7127.3872   5.6258e+17 
  7128.5732  5.79661e+17 
  7129.7593  5.89562e+17 
  7130.9453  6.03261e+17 
  7132.1318  5.65199e+17 
  7133.3179  5.99414e+17 
  7134.5039  5.97193e+17 
  7135.6904  5.86639e+17 
  7136.8765  5.67846e+17 
   7138.063  5.84896e+17 
   7139.249  6.11772e+17 
  7140.4355  5.89683e+17 
  7141.6221   5.6726e+17 
  7142.8081  5.75814e+17 
  7143.9946  5.87713e+17 
  7145.1812  5.72678e+17 
  7146.3677  5.71832e+17 
  7147.5542    5.931e+17 
  7148.7407  5.87853e+17 
  7149.9272  5.72681e+17 
  7151.1138  5.45814e+17 
  7152.3003  5.93999e+17 
  7153.4868  5.79931e+17 
  7154.6733  6.06931e+17 
  7155.8604  5.79288e+17 
  7157.0469  6.27363e+17 
  7158.2334  5.54718e+17 
  7159.4204  6.24674e+17 
  7160.6069  5.80049e+17 
  7161.7939  5.94094e+17 
  7162.9805  6.00297e+17 
  7164.1675  5.80367e+17 
  7165.3545  5.96127e+17 
   7166.541  5.90402e+17 
   7167.728  6.09931e+17 
   7168.915  6.27343e+17 
  7170.1021  6.08573e+17 
  7171.2891  6.12625e+17 
  7172.4761  6.05835e+17 
  7173.6631  5.82148e+17 
  7174.8501  5.78194e+17 
  7176.0371   6.3065e+17 
  7177.2241  6.03188e+17 
  7178.4111  5.81694e+17 
  7179.5981  6.21744e+17 
  7180.7856    6.007e+17 
  7181.9727  5.90544e+17 
  7183.1597  5.56233e+17 
  7184.3472   6.2106e+17 
  7185.5342  6.00716e+17 
  7186.7217  6.05828e+17 
  7187.9087  5.85066e+17 
  7189.0962   5.8346e+17 
  7190.2837  5.89347e+17 
  7191.4712  5.92057e+17 
  7192.6582  6.05445e+17 
  7193.8457  6.01856e+17 
  7195.0332  5.71203e+17 
  7196.2207  5.88094e+17 
  7197.4082  6.29049e+17 
  7198.5957  5.91266e+17 
  7199.7832  6.01269e+17 
  7200.9707  5.92784e+17 
  7202.1582  6.03944e+17 
  7203.3462  6.05714e+17 
  7204.5337  6.21758e+17 
  7205.7212  5.80316e+17 
  7206.9092  6.25007e+17 
  7208.0967  6.10238e+17 
  7209.2842  6.15154e+17 
  7210.4722  6.07851e+17 
  7211.6597  6.13721e+17 
  7212.8477  6.27783e+17 
  7214.0356  6.21197e+17 
  7215.2236  6.10714e+17 
  7216.4111  6.43505e+17 
  7217.5991  6.20916e+17 
  7218.7871  6.08165e+17 
  7219.9751  6.20067e+17 
  7221.1631  6.14054e+17 
  7222.3511  5.74154e+17 
  7223.5391   5.9342e+17 
  7224.7271   6.1354e+17 
   7225.915  5.99311e+17 
   7227.103   6.3209e+17 
   7228.291  6.15891e+17 
  7229.4795  6.29657e+17 
  7230.6675  5.89611e+17 
  7231.8555  6.20783e+17 
  7233.0439  5.90464e+17 
  7234.2319   6.3742e+17 
  7235.4204  6.04473e+17 
  7236.6084  6.16502e+17 
  7237.7969  6.04182e+17 
  7238.9849  6.40349e+17 
  7240.1733  5.87233e+17 
  7241.3618  6.05828e+17 
  7242.5503  6.31976e+17 
  7243.7388  6.01942e+17 
  7244.9268  6.39112e+17 
  7246.1152  6.41341e+17 
  7247.3037  6.00728e+17 
  7248.4922  6.10217e+17 
  7249.6807  6.28688e+17 
  7250.8696  6.37417e+17 
  7252.0581  6.26497e+17 
  7253.2466  6.07292e+17 
  7254.4351  6.16117e+17 
   7255.624  5.80521e+17 
  7256.8125  6.22251e+17 
   7258.001  6.04432e+17 
  7259.1899  5.94812e+17 
  7260.3784  6.18909e+17 
  7261.5674   5.9542e+17 
  7262.7559  5.96292e+17 
  7263.9448  5.94455e+17 
  7265.1338  6.09185e+17 
  7266.3223  6.13661e+17 
  7267.5112  5.99889e+17 
  7268.7002   5.7503e+17 
  7269.8892  5.93902e+17 
  7271.0781  6.21182e+17 
  7272.2671  5.56566e+17 
  7273.4556  6.38814e+17 
   7274.645  5.75055e+17 
   7275.834  6.31133e+17 
  7277.0229  5.61994e+17 
  7278.2119  5.81248e+17 
  7279.4009   6.0656e+17 
  7280.5898  5.59615e+17 
  7281.7793  5.59768e+17 
  7282.9683  5.52356e+17 
  7284.1577  6.28702e+17 
  7285.3467  5.76337e+17 
  7286.5361  5.74874e+17 
  7287.7251  5.99357e+17 
  7288.9141  5.68641e+17 
  7290.1035  6.06635e+17 
   7291.293  5.84962e+17 
  7292.4824  5.55237e+17 
  7293.6714  5.69999e+17 
  7294.8608  5.88822e+17 
  7296.0503  5.82685e+17 
  7297.2397  6.05463e+17 
  7298.4292  5.83186e+17 
  7299.6187  6.13736e+17 
  7300.8081  5.85585e+17 
  7301.9976  6.01553e+17 
   7303.187  6.05616e+17 
  7304.3765  5.71596e+17 
  7305.5659  6.04193e+17 
  7306.7559   5.7218e+17 
  7307.9453  5.68591e+17 
  7309.1348  5.79632e+17 
  7310.3247  6.05505e+17 
  7311.5142  5.76453e+17 
  7312.7041  5.94683e+17 
  7313.8936  5.72828e+17 
  7315.0835  5.96155e+17 
  7316.2729  5.63442e+17 
  7317.4629  5.91574e+17 
  7318.6528  5.72812e+17 
  7319.8423  5.76345e+17 
  7321.0322  5.84014e+17 
  7322.2222  6.04849e+17 
  7323.4121  5.95079e+17 
  7324.6021  5.76731e+17 
   7325.792  5.58047e+17 
  7326.9819  5.73016e+17 
  7328.1719   5.8725e+17 
  7329.3618  5.72212e+17 
  7330.5518  5.76215e+17 
  7331.7417  5.51268e+17 
  7332.9321   5.6637e+17 
  7334.1221  5.70868e+17 
   7335.312  5.68778e+17 
  7336.5024  5.74974e+17 
  7337.6924  5.65794e+17 
  7338.8823  5.49232e+17 
  7340.0728  5.73587e+17 
  7341.2627  5.39344e+17 
  7342.4531  5.39544e+17 
  7343.6431  5.40333e+17 
  7344.8335  5.87521e+17 
  7346.0239  5.73637e+17 
  7347.2144  5.66457e+17 
  7348.4043  5.62728e+17 
  7349.5947  5.47824e+17 
  7350.7852  5.69145e+17 
  7351.9756  5.57366e+17 
   7353.166  5.61156e+17 
  7354.3564  5.86035e+17 
  7355.5469  5.72206e+17 
  7356.7373  5.79442e+17 
  7357.9277  5.73729e+17 
  7359.1182  5.76895e+17 
  7360.3091  5.68037e+17 
  7361.4995  5.69484e+17 
  7362.6899  5.61584e+17 
  7363.8809   5.4712e+17 
  7365.0713  5.40547e+17 
  7366.2622   5.8152e+17 
  7367.4526  5.38704e+17 
  7368.6431  5.55322e+17 
   7369.834  5.45969e+17 
  7371.0249  4.99027e+17 
  7372.2153  5.80855e+17 
  7373.4062  5.40554e+17 
  7374.5972  5.51551e+17 
  7375.7881  5.23134e+17 
  7376.9785  5.47082e+17 
  7378.1694   5.5417e+17 
  7379.3604  5.59831e+17 
  7380.5513  5.73014e+17 
  7381.7422  5.48297e+17 
  7382.9331  5.48494e+17 
   7384.124  5.31877e+17 
  7385.3149  5.67831e+17 
  7386.5059  5.46474e+17 
  7387.6973  5.56761e+17 
  7388.8882    5.557e+17 
  7390.0791  5.13507e+17 
    7391.27  5.51369e+17 
  7392.4614  5.31855e+17 
  7393.6523  5.29117e+17 
  7394.8438    5.694e+17 
  7396.0347  5.37906e+17 
  7397.2261  5.48764e+17 
   7398.417   5.6456e+17 
  7399.6084  5.33864e+17 
  7400.7998  5.23514e+17 
  7401.9907  5.29356e+17 
  7403.1821  5.59051e+17 
  7404.3735  5.13429e+17 
  7405.5649  5.83152e+17 
  7406.7559  5.01851e+17 
  7407.9473          0.0 
  7409.1387          0.0 
  7410.3301          0.0 
  7411.5215          0.0 
  7412.7129          0.0 
  7413.9043  5.35469e+17 
  7415.0962   5.3529e+17 
  7416.2876  5.33034e+17 
   7417.479   5.2874e+17 
  7418.6704  5.40465e+17 
  7419.8623  5.33604e+17 
  7421.0537  5.53525e+17 
  7422.2451  5.22999e+17 
   7423.437  5.42918e+17 
  7424.6284  5.42106e+17 
  7425.8203  5.22291e+17 
  7427.0117  5.13522e+17 
  7428.2036  5.13718e+17 
  7429.3955  5.29827e+17 
  7430.5869  5.00772e+17 
  7431.7788  5.28725e+17 
  7432.9707  5.29497e+17 
  7434.1626  5.35767e+17 
   7435.354  5.15704e+17 
  7436.5459  5.17247e+17 
  7437.7378  5.34354e+17 
  7438.9297  5.08998e+17 
  7440.1216  5.07337e+17 
  7441.3135   5.0551e+17 
  7442.5054   5.1909e+17 
  7443.6973  5.18474e+17 
  7444.8892  5.34865e+17 
  7446.0815  5.18766e+17 
  7447.2734   5.0559e+17 
  7448.4653  5.00295e+17 
  7449.6577  4.89156e+17 
  7450.8496   5.1931e+17 
  7452.0415  5.09337e+17 
  7453.2339  5.13562e+17 
  7454.4258  4.88781e+17 
  7455.6182  4.73671e+17 
  7456.8101  5.25006e+17 
  7458.0024  4.83587e+17 
  7459.1948  5.08956e+17 
  7460.3867   4.9324e+17 
  7461.5791  5.12697e+17 
  7462.7715  4.78745e+17 
  7463.9634  5.03151e+17 
  7465.1558  5.05792e+17 
  7466.3481  5.08835e+17 
  7467.5405  5.06585e+17 
  7468.7329  5.08165e+17 
  7469.9253   5.0823e+17 
  7471.1177  4.96324e+17 
  7472.3101  4.82223e+17 
  7473.5024  5.23773e+17 
  7474.6948  5.33095e+17 
  7475.8877  4.80688e+17 
  7477.0801  5.00455e+17 
  7478.2725  5.25988e+17 
  7479.4648  4.63824e+17 
  7480.6577  4.86159e+17 
  7481.8501  5.08639e+17 
  7483.0425  4.92661e+17 
  7484.2354  4.99795e+17 
  7485.4282  4.94932e+17 
  7486.6206  4.98006e+17 
  7487.8135  4.90182e+17 
  7489.0059  4.75828e+17 
  7490.1987  4.93339e+17 
  7491.3916  4.96398e+17 
   7492.584   4.9072e+17 
  7493.7769  4.75269e+17 
  7494.9697  4.77985e+17 
  7496.1626  4.76232e+17 
   7497.355  4.74567e+17 
  7498.5483  4.75793e+17 
  7499.7407  4.50143e+17 
  7500.9336  4.70213e+17 
  7502.1265  4.76064e+17 
  7503.3198  4.68407e+17 
  7504.5127  4.80567e+17 
  7505.7056  4.75232e+17 
  7506.8984  5.11095e+17 
  7508.0913  4.48171e+17 
  7509.2842  4.93895e+17 
  7510.4775  4.68603e+17 
  7511.6704  4.67213e+17 
  7512.8633  4.55591e+17 
  7514.0566  4.69657e+17 
  7515.2495  4.58865e+17 
  7516.4429  4.58428e+17 
  7517.6357  4.34778e+17 
  7518.8291  4.54809e+17 
   7520.022  4.78992e+17 
  7521.2153  4.64893e+17 
  7522.4087  4.60281e+17 
  7523.6016  4.58798e+17 
  7524.7949  4.85231e+17 
  7525.9883  5.03582e+17 
  7527.1816   4.4144e+17 
   7528.375  4.67108e+17 
  7529.5679  4.44759e+17 
  7530.7612  4.72817e+17 
  7531.9546   4.5028e+17 
  7533.1479   4.6155e+17 
  7534.3413  4.61597e+17 
  7535.5347  4.75944e+17 
  7536.7285  4.40276e+17 
  7537.9219  4.40171e+17 
  7539.1152  4.71805e+17 
  7540.3086  4.44532e+17 
   7541.502  4.31099e+17 
  7542.6958  4.67465e+17 
  7543.8892  4.65759e+17 
  7545.0825  4.42424e+17 
  7546.2764   4.7129e+17 
  7547.4697  4.42548e+17 
  7548.6636   4.4788e+17 
  7549.8569  4.54877e+17 
  7551.0508  4.50425e+17 
  7552.2441  4.78119e+17 
   7553.438  4.43554e+17 
  7554.6318  4.60697e+17 
  7555.8252   4.3778e+17 
   7557.019  4.59528e+17 
  7558.2129  4.58097e+17 
  7559.4067  4.49274e+17 
  7560.6001  4.58942e+17 
  7561.7939  4.72378e+17 
  7562.9878  4.72489e+17 
  7564.1816    4.612e+17 
  7565.3755  4.48878e+17 
  7566.5693  4.43591e+17 
  7567.7632  4.40223e+17 
   7568.957  4.36247e+17 
  7570.1509  4.44936e+17 
  7571.3447  4.70045e+17 
  7572.5391  4.55791e+17 
  7573.7329   4.7253e+17 
  7574.9268  4.48657e+17 
  7576.1206  4.50799e+17 
  7577.3149  4.58186e+17 
  7578.5088  4.46721e+17 
  7579.7031  4.42767e+17 
   7580.897  4.71863e+17 
  7582.0908  4.57758e+17 
  7583.2852  4.66933e+17 
   7584.479   4.5452e+17 
  7585.6733  4.79393e+17 
  7586.8677  4.51686e+17 
  7588.0615  4.79633e+17 
  7589.2559  4.50254e+17 
  7590.4502  4.58412e+17 
  7591.6445  4.77745e+17 
  7592.8384   4.9658e+17 
  7594.0327  5.34271e+17 
  7595.2271  5.11275e+17 
  7596.4214  5.22507e+17 
  7597.6157  4.91233e+17 
  7598.8101  4.16527e+17 
  7600.0044  3.71494e+17 
  7601.1987  4.25416e+17 
  7602.3931  4.00325e+17 
  7603.5874  3.14928e+17 
  7604.7817  3.64614e+17 
  7605.9761    3.359e+17 
  7607.1704   4.5467e+17 
  7608.3652  4.63259e+17 
  7609.5596  4.31839e+17 
  7610.7539  5.24193e+17 
  7611.9487  4.66306e+17 
  7613.1431  4.76613e+17 
  7614.3374  4.58501e+17 
  7615.5322  4.84554e+17 
  7616.7266  4.52912e+17 
  7617.9214  4.89258e+17 
  7619.1157  5.27443e+17 
  7620.3105  4.74873e+17 
  7621.5049  4.83888e+17 
  7622.6997  5.00247e+17 
  7623.8945  4.57778e+17 
  7625.0889  5.04894e+17 
  7626.2837  4.61078e+17 
  7627.4785  5.01465e+17 
  7628.6733  5.09868e+17 
  7629.8682  4.93242e+17 
  7631.0625  4.71773e+17 
  7632.2573  4.76013e+17 
  7633.4521  4.63209e+17 
   7634.647  4.68155e+17 
  7635.8418  4.93114e+17 
  7637.0366  4.82647e+17 
  7638.2319  4.66084e+17 
  7639.4263  4.83031e+17 
  7640.6216  4.99818e+17 
  7641.8164  4.82105e+17 
  7643.0112  4.33606e+17 
  7644.2061  4.80061e+17 
  7645.4014  4.87559e+17 
  7646.5962  4.87587e+17 
   7647.791  4.72958e+17 
  7648.9863  4.85817e+17 
  7650.1812  4.82437e+17 
   7651.376  4.78379e+17 
  7652.5713  4.63637e+17 
  7653.7661  5.11018e+17 
  7654.9614  5.09378e+17 
  7656.1567  4.85055e+17 
  7657.3516   4.9289e+17 
  7658.5469  4.68802e+17 
  7659.7417  4.81868e+17 
   7660.937  4.66291e+17 
  7662.1323  4.86266e+17 
  7663.3276  5.00835e+17 
  7664.5225  4.78894e+17 
  7665.7178  4.64375e+17 
  7666.9131  4.87383e+17 
  7668.1084  4.97997e+17 
  7669.3037  4.90536e+17 
   7670.499  4.72905e+17 
  7671.6943   4.9909e+17 
  7672.8896  4.71899e+17 
   7674.085  4.86747e+17 
  7675.2803  4.87051e+17 
  7676.4756  4.76968e+17 
  7677.6709  4.78934e+17 
  7678.8662  4.71565e+17 
   7680.062  4.85148e+17 
  7681.2573  4.84272e+17 
  7682.4526  5.02548e+17 
  7683.6479  4.60618e+17 
  7684.8438  4.35884e+17 
  7686.0391  4.72228e+17 
  7687.2344  4.91107e+17 
  7688.4302  4.97024e+17 
  7689.6255  4.83629e+17 
  7690.8213  4.92237e+17 
  7692.0166  4.46649e+17 
  7693.2124  4.67919e+17 
  7694.4082  4.81528e+17 
  7695.6035  4.96033e+17 
  7696.7993  4.80847e+17 
  7697.9946  4.82559e+17 
  7699.1904  4.80327e+17 
  7700.3862  4.88303e+17 
   7701.582  4.89575e+17 
  7702.7773  4.98813e+17 
  7703.9731   4.8556e+17 
  7705.1689  4.63403e+17 
  7706.3647  4.80849e+17 
  7707.5605  4.77414e+17 
  7708.7563  4.37333e+17 
  7709.9521  4.96101e+17 
  7711.1479  4.69779e+17 
  7712.3438  5.08531e+17 
  7713.5396  5.08039e+17 
  7714.7354  4.52799e+17 
  7715.9312   4.8903e+17 
   7717.127  4.34301e+17 
  7718.3232  5.14096e+17 
   7719.519  4.74775e+17 
  7720.7148  4.81333e+17 
  7721.9106  4.26318e+17 
  7723.1069  4.44167e+17 
  7724.3027  4.72138e+17 
  7725.4985  4.72266e+17 
  7726.6948   4.5572e+17 
  7727.8906  4.51542e+17 
  7729.0869  4.55036e+17 
  7730.2827  4.51457e+17 
   7731.479  4.69962e+17 
  7732.6748  4.81151e+17 
  7733.8711  4.80397e+17 
  7735.0669  4.63054e+17 
  7736.2632  4.23848e+17 
  7737.4595  4.71231e+17 
  7738.6553   4.3256e+17 
  7739.8516   4.5317e+17 
  7741.0479  4.77535e+17 
  7742.2441  4.70349e+17 
  7743.4404  4.45381e+17 
  7744.6362  4.68513e+17 
  7745.8325  4.33281e+17 
  7747.0288  4.60478e+17 
  7748.2251  4.25269e+17 
  7749.4214  4.96657e+17 
  7750.6177  4.59037e+17 
   7751.814  4.62855e+17 
  7753.0103  4.63841e+17 
  7754.2065  4.53076e+17 
  7755.4028  4.80084e+17 
  7756.5991  4.78687e+17 
  7757.7959  4.27305e+17 
  7758.9922  4.53855e+17 
  7760.1885  4.73863e+17 
  7761.3848  4.62182e+17 
  7762.5815  4.80578e+17 
  7763.7778  4.44327e+17 
  7764.9741  4.41411e+17 
  7766.1709  4.58836e+17 
  7767.3672  4.65867e+17 
  7768.5635  4.46801e+17 
  7769.7603  4.82943e+17 
  7770.9565   4.6641e+17 
  7772.1533  4.61631e+17 
  7773.3496  4.56457e+17 
  7774.5464  4.69153e+17 
  7775.7427  4.62472e+17 
  7776.9395  4.58255e+17 
  7778.1362  4.93355e+17 
  7779.3325  4.79404e+17 
  7780.5293  4.77775e+17 
  7781.7261  4.57257e+17 
  7782.9229  4.32664e+17 
  7784.1196   4.4523e+17 
  7785.3159  4.94956e+17 
  7786.5127  4.80588e+17 
  7787.7095  4.77661e+17 
  7788.9062  4.42824e+17 
   7790.103  4.70815e+17 
  7791.2998  4.97719e+17 
  7792.4966  4.71754e+17 
  7793.6934   4.4075e+17 
  7794.8901  4.45519e+17 
  7796.0869  4.44745e+17 
  7797.2837  4.30226e+17 
  7798.4805  4.49562e+17 
  7799.6772  4.32152e+17 
   7800.874  4.45834e+17 
  7802.0713  4.93414e+17 
  7803.2681  4.44385e+17 
  7804.4648  4.66982e+17 
  7805.6616   4.3006e+17 
  7806.8589  4.53511e+17 
  7808.0557  4.30972e+17 
  7809.2524  4.50918e+17 
  7810.4497  4.84727e+17 
  7811.6465  4.61222e+17 
  7812.8433  4.45337e+17 
  7814.0405  4.59185e+17 
  7815.2378  4.63975e+17 
  7816.4346  4.67045e+17 
  7817.6318  4.22397e+17 
  7818.8286  4.32749e+17 
  7820.0259  4.30489e+17 
  7821.2227  4.84762e+17 
  7822.4199  4.40969e+17 
  7823.6172  4.49079e+17 
   7824.814  4.68295e+17 
  7826.0112  4.39086e+17 
  7827.2085  4.43678e+17 
  7828.4058  4.36683e+17 
   7829.603  4.52728e+17 
  7830.7998  4.40763e+17 
  7831.9971   4.3964e+17 
  7833.1943  4.66647e+17 
  7834.3916   4.3818e+17 
  7835.5889  4.48701e+17 
  7836.7861  4.45572e+17 
  7837.9834  4.61979e+17 
  7839.1807  4.50239e+17 
  7840.3779  4.46054e+17 
  7841.5752  4.48397e+17 
  7842.7725  4.71093e+17 
  7843.9697  4.48258e+17 
   7845.167  4.42448e+17 
  7846.3647  4.44438e+17 
   7847.562  4.35909e+17 
  7848.7593  4.72124e+17 
  7849.9565  4.53588e+17 
  7851.1543  4.95054e+17 
  7852.3516  4.66064e+17 
  7853.5488  4.70311e+17 
  7854.7466  4.61959e+17 
  7855.9438  4.56295e+17 
  7857.1411  4.82352e+17 
  7858.3389    4.896e+17 
  7859.5361  4.28525e+17 
  7860.7339  4.64349e+17 
  7861.9312  4.15645e+17 
  7863.1289  4.49048e+17 
  7864.3262  4.44238e+17 
  7865.5239   4.4773e+17 
  7866.7212  4.75972e+17 
  7867.9189  4.54324e+17 
  7869.1167  4.52742e+17 
   7870.314  4.38155e+17 
  7871.5117  4.25417e+17 
  7872.7095  4.67656e+17 
  7873.9072   4.4968e+17 
  7875.1045  4.70553e+17 
  7876.3022  4.70536e+17 
     7877.5  4.44883e+17 
  7878.6978   4.6873e+17 
  7879.8955  4.46483e+17 
  7881.0928  4.55619e+17 
  7882.2905  4.61076e+17 
  7883.4883  4.90368e+17 
   7884.686  4.60767e+17 
  7885.8838  4.75371e+17 
  7887.0815  4.47801e+17 
  7888.2793  4.71722e+17 
  7889.4775  4.72657e+17 
  7890.6753  4.63725e+17 
   7891.873  4.77441e+17 
  7893.0708  5.06797e+17 
  7894.2686  4.71844e+17 
  7895.4663  4.42626e+17 
  7896.6641  4.71539e+17 
  7897.8623  4.66817e+17 
  7899.0601  4.89409e+17 
  7900.2578  4.80964e+17 
  7901.4556  4.73938e+17 
  7902.6538  4.69223e+17 
  7903.8516  4.68786e+17 
  7905.0493  4.72499e+17 
  7906.2476  4.75082e+17 
  7907.4453  5.17501e+17 
  7908.6436  4.78316e+17 
  7909.8413    4.929e+17 
  7911.0396  4.14047e+17 
  7912.2373  5.29207e+17 
  7913.4355  4.95065e+17 
  7914.6333  4.55275e+17 
  7915.8315  4.49854e+17 
  7917.0293  4.64815e+17 
  7918.2275  4.77095e+17 
  7919.4258  4.65807e+17 
  7920.6235  4.78109e+17 
  7921.8218  4.82498e+17 
    7923.02  4.68403e+17 
  7924.2178  4.57434e+17 
   7925.416   4.7539e+17 
  7926.6143  4.42552e+17 
  7927.8125  4.84189e+17 
  7929.0107  4.78464e+17 
  7930.2085   4.5057e+17 
  7931.4067  4.66999e+17 
   7932.605  4.56659e+17 
  7933.8032  4.55532e+17 
  7935.0015  4.44779e+17 
  7936.1997  4.68086e+17 
  7937.3979  4.76308e+17 
  7938.5962   4.6481e+17 
  7939.7944  4.77085e+17 
  7940.9927  4.78995e+17 
  7942.1909  4.56878e+17 
  7943.3892  4.59001e+17 
  7944.5874  4.75464e+17 
  7945.7861  5.15792e+17 
  7946.9844  5.05141e+17 
  7948.1826  4.40102e+17 
  7949.3809  4.66792e+17 
  7950.5791  4.60791e+17 
  7951.7778  4.59426e+17 
  7952.9761  4.88441e+17 
  7954.1743  4.76435e+17 
  7955.3726  4.84749e+17 
  7956.5713  4.67728e+17 
  7957.7695  4.79858e+17 
  7958.9678  4.59409e+17 
  7960.1665  4.55923e+17 
  7961.3647  4.54483e+17 
  7962.5635  4.39557e+17 
  7963.7617  5.19736e+17 
  7964.9604  5.04898e+17 
  7966.1587  4.59862e+17 
  7967.3574   4.8015e+17 
  7968.5557  4.80167e+17 
  7969.7544  4.83553e+17 
  7970.9526   4.8158e+17 
  7972.1514  4.55354e+17 
  7973.3501  4.95876e+17 
  7974.5483  4.58566e+17 
  7975.7471  4.67471e+17 
  7976.9458  4.75956e+17 
   7978.144  4.73228e+17 
  7979.3428   4.3042e+17 
  7980.5415  4.75879e+17 
  7981.7402  4.67873e+17 
  7982.9385  4.35649e+17 
  7984.1372   4.8198e+17 
  7985.3359  4.65899e+17 
  7986.5347  4.46588e+17 
  7987.7334  4.42964e+17 
  7988.9321  4.43058e+17 
  7990.1309  4.51872e+17 
  7991.3296  4.51066e+17 
  7992.5283  4.64742e+17 
  7993.7266  4.60432e+17 
  7994.9253  5.19874e+17 
   7996.124  4.71107e+17 
  7997.3232  4.23358e+17 
   7998.522   4.4837e+17 
  7999.7207  4.60863e+17 
  8000.9194  4.71597e+17 
  8002.1182  4.58152e+17 
  8003.3169  4.59676e+17 
  8004.5156  4.53753e+17 
  8005.7144  4.54376e+17 
  8006.9131  4.28811e+17 
  8008.1123   4.4111e+17 
   8009.311   4.6657e+17 
  8010.5098  4.49612e+17 
  8011.7085  4.33896e+17 
  8012.9077  4.72282e+17 
  8014.1064  4.42568e+17 
  8015.3052  4.35579e+17 
  8016.5044  4.70208e+17 
  8017.7031  4.59461e+17 
  8018.9023    4.703e+17 
  8020.1011  4.90878e+17 
  8021.2998  4.60837e+17 
   8022.499  4.71138e+17 
  8023.6978  4.76659e+17 
   8024.897  4.71454e+17 
  8026.0957  4.38455e+17 
  8027.2949  4.81392e+17 
  8028.4937  4.68698e+17 
  8029.6929  4.62467e+17 
  8030.8916  4.53733e+17 
  8032.0908  4.57008e+17 
    8033.29  4.33725e+17 
  8034.4888  4.41579e+17 
   8035.688  4.75659e+17 
  8036.8872   4.5339e+17 
  8038.0859  4.64452e+17 
  8039.2852  4.62618e+17 
  8040.4844  4.38279e+17 
  8041.6831  4.44713e+17 
  8042.8823  4.53189e+17 
  8044.0815  4.67972e+17 
  8045.2808  4.20667e+17 
  8046.4795  4.38976e+17 
  8047.6787  4.74024e+17 
  8048.8779  4.31596e+17 
  8050.0771  4.16567e+17 
  8051.2764  4.50037e+17 
  8052.4756  4.63031e+17 
  8053.6748  4.55482e+17 
   8054.874  4.81253e+17 
  8056.0732  4.70972e+17 
  8057.2725  4.42014e+17 
  8058.4717  4.71732e+17 
  8059.6709  4.87519e+17 
  8060.8701  4.64576e+17 
  8062.0693    4.651e+17 
  8063.2686  4.44255e+17 
  8064.4678  4.61638e+17 
   8065.667  4.44894e+17 
  8066.8662  4.41935e+17 
  8068.0654  4.32729e+17 
  8069.2646  4.51668e+17 
  8070.4639  4.40313e+17 
  8071.6636  4.68165e+17 
  8072.8628  4.52028e+17 
   8074.062  4.60709e+17 
  8075.2612  4.42527e+17 
  8076.4609  4.29802e+17 
  8077.6602  4.46167e+17 
  8078.8594  4.55931e+17 
  8080.0586          0.0 
  8081.2583          0.0 
  8082.4575          0.0 
  8083.6572          0.0 
  8084.8564          0.0 
  8086.0557          0.0 
  8087.2554  4.50124e+17 
  8088.4546  4.65497e+17 
  8089.6538  4.60277e+17 
  8090.8535  4.30962e+17 
  8092.0527   4.6907e+17 
  8093.2524  4.47425e+17 
  8094.4517  4.71298e+17 
  8095.6514  4.54615e+17 
  8096.8506  4.68667e+17 
  8098.0503   4.4212e+17 
    8099.25  4.40162e+17 
  8100.4492  4.49186e+17 
  8101.6489  4.38438e+17 
  8102.8481  4.69937e+17 
  8104.0479  4.57916e+17 
  8105.2476  4.31935e+17 
  8106.4468  4.32722e+17 
  8107.6465  4.42289e+17 
  8108.8462   4.2611e+17 
  8110.0454  4.51312e+17 
  8111.2451   4.7579e+17 
  8112.4448  4.33445e+17 
  8113.6445  4.32533e+17 
  8114.8438  4.33116e+17 
  8116.0435  4.55266e+17 
  8117.2432  4.53538e+17 
  8118.4429  4.62518e+17 
  8119.6426  4.30699e+17 
  8120.8418  4.54613e+17 
  8122.0415  4.30266e+17 
  8123.2412  4.38581e+17 
  8124.4409   4.5658e+17 
  8125.6406  4.32445e+17 
  8126.8403  4.53017e+17 
    8128.04  4.49553e+17 
  8129.2397  4.42961e+17 
  8130.4395  4.38844e+17 
  8131.6392  4.32886e+17 
  8132.8389  4.41263e+17 
  8134.0386  4.43452e+17 
  8135.2383  4.46146e+17 
   8136.438  4.42257e+17 
  8137.6377  4.65557e+17 
  8138.8374  4.34552e+17 
  8140.0371   4.5897e+17 
  8141.2368  4.55723e+17 
  8142.4365  4.27718e+17 
  8143.6362  4.27533e+17 
  8144.8364  4.43821e+17 
  8146.0361  4.28627e+17 
  8147.2358  4.23116e+17 
  8148.4355   4.1325e+17 
  8149.6353  4.31883e+17 
   8150.835  4.38959e+17 
  8152.0352  4.48063e+17 
  8153.2349   4.0521e+17 
  8154.4346  3.95848e+17 
  8155.6343  4.76549e+17 
  8156.8345   4.4762e+17 
  8158.0342  4.22331e+17 
  8159.2339   4.2228e+17 
  8160.4341  4.42377e+17 
  8161.6338  4.08638e+17 
  8162.8335  4.39611e+17 
  8164.0337  4.14416e+17 
  8165.2334  4.15498e+17 
  8166.4336  4.25433e+17 
  8167.6333  4.44955e+17 
   8168.833  4.36334e+17 
  8170.0332  4.08572e+17 
  8171.2329  4.16095e+17 
  8172.4331  3.99491e+17 
  8173.6328    3.945e+17 
   8174.833  4.15674e+17 
  8176.0327  4.07783e+17 
  8177.2329  4.19143e+17 
  8178.4326  3.97273e+17 
  8179.6328  4.23659e+17 
  8180.8325  4.02042e+17 
  8182.0327   3.9628e+17 
  8183.2329  4.16193e+17 
  8184.4326   4.0018e+17 
  8185.6328  4.03571e+17 
  8186.8325  3.95514e+17 
  8188.0327  3.69962e+17 
  8189.2329  4.06045e+17 
  8190.4326  4.06313e+17 
  8191.6328  4.19977e+17 
   8192.833   4.2063e+17 
  8194.0332  4.07134e+17 
  8195.2334    3.924e+17 
  8196.4326  3.91204e+17 
  8197.6328  3.90084e+17 
   8198.833  4.06871e+17 
  8200.0332   3.9769e+17 
  8201.2334  4.07977e+17 
  8202.4336  4.33908e+17 
  8203.6338  4.26753e+17 
   8204.834  4.09551e+17 
  8206.0342  4.24311e+17 
  8207.2334  3.89816e+17 
  8208.4336  4.17663e+17 
  8209.6338  4.18245e+17 
   8210.834  4.05023e+17 
  8212.0342  4.19004e+17 
  8213.2344   4.1375e+17 
  8214.4346  4.09098e+17 
  8215.6348  3.93256e+17 
   8216.835  3.99981e+17 
  8218.0352  3.99173e+17 
  8219.2354  3.97057e+17 
  8220.4355  3.90754e+17 
  8221.6357  3.87809e+17 
  8222.8359  3.96653e+17 
  8224.0361  3.84268e+17 
  8225.2363  3.83536e+17 
  8226.4365  3.84278e+17 
  8227.6367  3.93483e+17 
  8228.8369  3.57568e+17 
  8230.0371  3.56016e+17 
  8231.2373  3.92784e+17 
  8232.4375   3.7534e+17 
  8233.6377  3.68586e+17 
  8234.8379  3.56928e+17 
  8236.0381   3.9907e+17 
  8237.2383  3.75876e+17 
  8238.4385  4.02702e+17 
  8239.6387  3.88419e+17 
  8240.8398  3.72279e+17 
    8242.04  3.81426e+17 
  8243.2402  3.79892e+17 
  8244.4404  3.89603e+17 
  8245.6406  3.86886e+17 
  8246.8408  3.73117e+17 
   8248.041   3.5876e+17 
  8249.2412    4.106e+17 
  8250.4414  3.57651e+17 
  8251.6416  3.68696e+17 
  8252.8428  3.68722e+17 
   8254.043   3.3281e+17 
  8255.2432  3.47014e+17 
  8256.4434  3.71025e+17 
  8257.6436  3.70256e+17 
  8258.8438  3.60532e+17 
  8260.0439  3.65261e+17 
  8261.2451  3.67696e+17 
  8262.4453  3.54612e+17 
  8263.6455   3.6475e+17 
  8264.8457   3.5228e+17 
  8266.0459  3.61964e+17 
  8267.2471  3.69906e+17 
  8268.4473  3.58276e+17 
  8269.6475  3.77507e+17 
  8270.8477  3.40481e+17 
  8272.0479  3.61349e+17 
   8273.249  3.66343e+17 
  8274.4492  3.35694e+17 
  8275.6494   3.4545e+17 
  8276.8496  3.39657e+17 
  8278.0508  3.34239e+17 
   8279.251  3.57232e+17 
  8280.4512  3.36932e+17 
  8281.6514  3.66298e+17 
  8282.8516  3.51115e+17 
  8284.0527  3.59942e+17 
  8285.2529   3.3512e+17 
  8286.4531  3.08222e+17 
  8287.6533  3.35069e+17 
  8288.8545  3.61773e+17 
  8290.0547  3.66058e+17 
  8291.2549  3.27358e+17 
  8292.4561  3.33975e+17 
  8293.6562  3.40168e+17 
  8294.8564    2.832e+17 
  8296.0576  3.49549e+17 
  8297.2578  3.18756e+17 
   8298.458  3.65045e+17 
  8299.6592    3.275e+17 
  8300.8594  3.48427e+17 
  8302.0596  3.70609e+17 
  8303.2598  3.19772e+17 
  8304.4609  3.36768e+17 
  8305.6611  3.13443e+17 
  8306.8613  3.10993e+17 
  8308.0625  3.45095e+17 
  8309.2627  3.21878e+17 
  8310.4639  3.12531e+17 
  8311.6641  3.08067e+17 
  8312.8643   3.0356e+17 
  8314.0654  3.18983e+17 
  8315.2656  3.13976e+17 
  8316.4658  3.08543e+17 
   8317.667  3.25609e+17 
  8318.8672  2.92235e+17 
  8320.0684  3.10016e+17 
  8321.2686  2.82397e+17 
  8322.4688  3.05374e+17 
  8323.6699  3.05466e+17 
  8324.8701  3.03349e+17 
  8326.0703  3.06416e+17 
  8327.2715  2.99784e+17 
  8328.4717  3.13045e+17 
  8329.6729  2.80613e+17 
   8330.873  3.19739e+17 
  8332.0742  3.17206e+17 
  8333.2744  3.14861e+17 
  8334.4746  2.95381e+17 
  8335.6758  3.19529e+17 
   8336.876  3.15463e+17 
  8338.0771  3.03437e+17 
  8339.2773  3.18738e+17 
  8340.4785  2.85903e+17 
  8341.6787   3.1347e+17 
  8342.8799  3.26396e+17 
  8344.0801   2.9195e+17 
  8345.2812  2.43337e+17 
  8346.4814  3.21037e+17 
  8347.6816  2.97936e+17 
  8348.8828  2.98789e+17 
   8350.083  3.34609e+17 
  8351.2842  2.91836e+17 
  8352.4844  3.65655e+17 
  8353.6855  3.76717e+17 
  8354.8857  3.58055e+17 
  8356.0869  3.01223e+17 
  8357.2871  2.95498e+17 
  8358.4883  3.11168e+17 
  8359.6885   3.1131e+17 
  8360.8896   3.4299e+17 
  8362.0898  3.10578e+17 
   8363.291  3.51775e+17 
  8364.4912  3.41433e+17 
  8365.6924  3.30653e+17 
  8366.8926  3.30521e+17 
  8368.0938  3.42233e+17 
  8369.2939  3.34643e+17 
  8370.4951  3.27282e+17 
  8371.6953  3.31644e+17 
  8372.8965  3.32532e+17 
  8374.0977  3.35953e+17 
  8375.2979  3.17125e+17 
   8376.499  3.47731e+17 
  8377.6992  3.53465e+17 
  8378.9004  3.17573e+17 
  8380.1006  3.55642e+17 
  8381.3018  3.53572e+17 
   8382.502  3.54683e+17 
  8383.7031  3.47796e+17 
  8384.9043  3.47164e+17 
  8386.1045  3.14458e+17 
  8387.3057  3.80851e+17 
  8388.5059  3.49656e+17 
   8389.707  3.69745e+17 
  8390.9072  3.31013e+17 
  8392.1084  3.49939e+17 
  8393.3096   3.7289e+17 
  8394.5098  3.64579e+17 
  8395.7109   3.7992e+17 
  8396.9111          0.0 
  8398.1123          0.0 
  8399.3135          0.0 
  8400.5137          0.0 
  8401.7148  3.94726e+17 
   8402.915  3.67631e+17 
  8404.1162   3.5957e+17 
  8405.3174  3.40882e+17 
  8406.5176  3.79372e+17 
  8407.7188  3.70701e+17 
  8408.9189  3.65779e+17 
  8410.1201  3.91482e+17 
  8411.3213  3.72233e+17 
  8412.5215  3.95126e+17 
  8413.7227  3.86531e+17 
  8414.9238  3.88544e+17 
   8416.124  3.94486e+17 
  8417.3252  3.58239e+17 
  8418.5264  3.92324e+17 
  8419.7266  3.73043e+17 
  8420.9277  3.87268e+17 
  8422.1279  3.76513e+17 
  8423.3291  3.78533e+17 
  8424.5303   4.0346e+17 
  8425.7305  4.01352e+17 
  8426.9316  4.02462e+17 
  8428.1328  3.67491e+17 
   8429.333  3.80011e+17 
  8430.5342  3.34179e+17 
  8431.7354  4.66965e+17 
  8432.9355  4.45399e+17 
  8434.1367  4.08702e+17 
  8435.3379  3.80995e+17 
  8436.5381  4.03977e+17 
  8437.7393  3.70081e+17 
  8438.9404   4.0592e+17 
  8440.1406  4.07892e+17 
  8441.3418  3.96116e+17 
   8442.543  4.13485e+17 
  8443.7432  3.99847e+17 
  8444.9443  3.91905e+17 
  8446.1455  4.11904e+17 
  8447.3457  4.21267e+17 
  8448.5469  4.05654e+17 
   8449.748  4.16993e+17 
  8450.9482  4.49773e+17 
  8452.1494  4.62002e+17 
  8453.3506  4.08779e+17 
  8454.5508  3.75921e+17 
   8455.752   4.2832e+17 
  8456.9531  3.89964e+17 
  8458.1533  4.04123e+17 
  8459.3545  4.18253e+17 
  8460.5557  3.92545e+17 
  8461.7568  4.07689e+17 
   8462.957  4.17268e+17 
  8464.1582  4.40621e+17 
  8465.3594  3.97726e+17 
  8466.5596  4.30058e+17 
  8467.7607  4.50776e+17 
  8468.9619  4.44216e+17 
  8470.1631  4.38382e+17 
  8471.3633  4.06518e+17 
  8472.5645  4.07751e+17 
  8473.7656  4.22058e+17 
  8474.9658  4.20154e+17 
   8476.167  4.04595e+17 
  8477.3682  4.13087e+17 
  8478.5684  4.22859e+17 
  8479.7695  4.16949e+17 
  8480.9707  4.11748e+17 
  8482.1719  4.33422e+17 
  8483.3721  4.32394e+17 
  8484.5732  4.33774e+17 
  8485.7744  4.38854e+17 
  8486.9756  4.31799e+17 
  8488.1758  4.55207e+17 
   8489.377   4.4363e+17 
  8490.5781  3.99506e+17 
  8491.7783  4.26178e+17 
  8492.9795  4.62326e+17 
  8494.1807   4.3455e+17 
  8495.3818  4.34699e+17 
   8496.582  4.51412e+17 
  8497.7832  4.11227e+17 
  8498.9844   4.0328e+17 
  8500.1846  4.26131e+17 
  8501.3857  4.22998e+17 
  8502.5869    3.934e+17 
  8503.7881  4.62831e+17 
  8504.9883  4.79167e+17 
  8506.1895  4.31772e+17 
  8507.3906  4.77268e+17 
  8508.5918  4.15543e+17 
   8509.792  4.29636e+17 
  8510.9932  4.30874e+17 
  8512.1943  4.42085e+17 
  8513.3955  4.23216e+17 
  8514.5957  4.37181e+17 
  8515.7969  4.33669e+17 
   8516.998  4.36988e+17 
  8518.1982  4.54614e+17 
  8519.3994  4.42654e+17 
  8520.6006   4.2735e+17 
  8521.8018   4.1195e+17 
   8523.002  4.47859e+17 
  8524.2031  4.21793e+17 
  8525.4043  4.33079e+17 
  8526.6055  4.42231e+17 
  8527.8057  4.42091e+17 
  8529.0068  4.37705e+17 
   8530.208   4.0433e+17 
  8531.4092  4.30288e+17 
  8532.6094  4.46735e+17 
  8533.8105  4.22429e+17 
  8535.0117  4.26559e+17 
  8536.2119  4.19396e+17 
  8537.4131   4.2995e+17 
  8538.6143  4.30569e+17 
  8539.8154  4.51279e+17 
  8541.0156  4.53304e+17 
  8542.2168  4.28383e+17 
   8543.418   4.3212e+17 
  8544.6191  4.33948e+17 
  8545.8193  4.21602e+17 
  8547.0205  4.36502e+17 
  8548.2217  4.47177e+17 
  8549.4229  4.38345e+17 
   8550.623  4.44986e+17 
  8551.8242  4.17374e+17 
  8553.0254  4.65432e+17 
  8554.2266  4.33566e+17 
  8555.4268  4.19947e+17 
  8556.6279  4.45682e+17 
  8557.8291  4.23261e+17 
  8559.0303  4.19866e+17 
  8560.2305  4.45772e+17 
  8561.4316  4.52554e+17 
  8562.6328  4.56215e+17 
   8563.833   4.2709e+17 
  8565.0342  4.25528e+17 
  8566.2354  4.06145e+17 
  8567.4365  4.52502e+17 
  8568.6367  4.46113e+17 
  8569.8379  4.28413e+17 
  8571.0391  4.22614e+17 
  8572.2393  4.29657e+17 
  8573.4404  4.26882e+17 
  8574.6416  4.23352e+17 
  8575.8428  4.24587e+17 
   8577.043  4.27519e+17 
  8578.2441  4.25865e+17 
  8579.4453  4.14734e+17 
  8580.6465   4.5764e+17 
  8581.8467  4.44122e+17 
  8583.0479  4.17561e+17 
   8584.249  4.29522e+17 
  8585.4492   4.3063e+17 
  8586.6504  4.14156e+17 
  8587.8516  4.33675e+17 
  8589.0527   4.3194e+17 
  8590.2529  4.27291e+17 
  8591.4541   4.0802e+17 
  8592.6553  4.24032e+17 
  8593.8555  4.49789e+17 
  8595.0566  4.20582e+17 
  8596.2578  4.31917e+17 
   8597.459  4.09466e+17 
  8598.6592  4.20807e+17 
  8599.8604   4.4646e+17 
  8601.0615   4.1621e+17 
  8602.2617  3.94303e+17 
  8603.4629  4.15899e+17 
  8604.6641  4.29192e+17 
  8605.8643  4.15894e+17 
  8607.0654  3.98386e+17 
  8608.2666  4.00143e+17 
  8609.4678   3.9655e+17 
   8610.668  3.90503e+17 
  8611.8691   4.2507e+17 
  8613.0703  3.95373e+17 
  8614.2705  4.09538e+17 
  8615.4717   3.9951e+17 
  8616.6729  4.21278e+17 
   8617.873  4.09173e+17 
  8619.0742  4.20771e+17 
  8620.2754  4.14362e+17 
  8621.4756  4.23032e+17 
  8622.6768  4.25356e+17 
  8623.8779  4.01508e+17 
  8625.0781  3.85144e+17 
  8626.2793  4.03195e+17 
  8627.4805  4.43735e+17 
  8628.6807  4.32986e+17 
  8629.8818  4.14573e+17 
   8631.083  3.93194e+17 
  8632.2832   3.7784e+17 
  8633.4844  4.35291e+17 
  8634.6855  4.28902e+17 
  8635.8857  4.07502e+17 
  8637.0869  4.01699e+17 
  8638.2881  3.92247e+17 
  8639.4883  4.08076e+17 
  8640.6895  4.00827e+17 
  8641.8906  3.89798e+17 
  8643.0908  3.82721e+17 
   8644.292   3.8069e+17 
  8645.4932   3.8726e+17 
  8646.6934   4.0569e+17 
  8647.8945  4.40607e+17 
  8649.0957  3.79876e+17 
  8650.2959  4.20727e+17 
  8651.4971  3.83736e+17 
  8652.6973  3.76681e+17 
  8653.8984  3.78772e+17 
  8655.0996  3.98661e+17 
  8656.2998  4.18865e+17 
   8657.501  3.89933e+17 
  8658.7021  3.22645e+17 
  8659.9023  4.34072e+17 
  8661.1035  3.99791e+17 
  8662.3037  3.97508e+17 
  8663.5049  3.76492e+17 
  8664.7061  3.76042e+17 
  8665.9062  3.71646e+17 
  8667.1074   3.6094e+17 
  8668.3076  3.86719e+17 
  8669.5088  4.13754e+17 
    8670.71  3.85045e+17 
  8671.9102  3.60586e+17 
  8673.1113  3.76655e+17 
  8674.3115  3.33821e+17 
  8675.5127  3.87103e+17 
  8676.7139  3.63339e+17 
  8677.9141  3.74982e+17 
  8679.1152  3.81287e+17 
  8680.3154  3.82802e+17 
  8681.5166  3.72385e+17 
  8682.7168  3.73033e+17 
   8683.918  3.70601e+17 
  8685.1191  3.60997e+17 
  8686.3193  3.74433e+17 
  8687.5205  3.72627e+17 
  8688.7207  3.57283e+17 
  8689.9219  3.60478e+17 
  8691.1221  3.61354e+17 
  8692.3232   3.7386e+17 
  8693.5234  3.33958e+17 
  8694.7246  3.51145e+17 
  8695.9258  3.30373e+17 
   8697.126  3.53198e+17 
  8698.3271  3.69637e+17 
  8699.5273  3.25999e+17 
  8700.7285  3.61932e+17 
  8701.9287  3.61878e+17 
  8703.1299  3.49763e+17 
  8704.3301  3.38432e+17 
  8705.5312  3.29616e+17 
  8706.7314  3.39103e+17 
  8707.9326  3.47355e+17 
  8709.1328  3.14202e+17 
   8710.334  3.32281e+17 
  8711.5342  3.37341e+17 
  8712.7354  3.22543e+17 
  8713.9355  3.25633e+17 
  8715.1367  3.29709e+17 
  8716.3369  3.14828e+17 
  8717.5381  3.02921e+17 
  8718.7383   3.4152e+17 
  8719.9395  3.26725e+17 
  8721.1396    3.407e+17 
  8722.3408  3.17688e+17 
   8723.541  2.98562e+17 
  8724.7422   3.2014e+17 
  8725.9424  3.12227e+17 
  8727.1436  3.19244e+17 
  8728.3438  3.02966e+17 
  8729.5439  3.16405e+17 
  8730.7451  2.87969e+17 
  8731.9453  2.75289e+17 
  8733.1465  3.08161e+17 
  8734.3467  2.93509e+17 
  8735.5479  2.92724e+17 
   8736.748  3.09399e+17 
  8737.9482  2.94848e+17 
  8739.1494  2.93763e+17 
  8740.3496  2.81607e+17 
  8741.5508   3.0129e+17 
   8742.751  2.74324e+17 
  8743.9521  3.05969e+17 
  8745.1523  2.91944e+17 
  8746.3525  2.88001e+17 
  8747.5537  2.94041e+17 
  8748.7539  2.94006e+17 
  8749.9551  2.95662e+17 
  8751.1553  2.82103e+17 
  8752.3555  2.59779e+17 
  8753.5566  2.97081e+17 
  8754.7568  2.66444e+17 
   8755.957  3.10199e+17 
  8757.1582  3.12942e+17 
  8758.3584  2.63712e+17 
  8759.5596  2.74016e+17 
  8760.7598  3.33606e+17 
    8761.96  2.87303e+17 
  8763.1611  3.32796e+17 
  8764.3613   3.0348e+17 
  8765.5615  2.77548e+17 
  8766.7617  2.70628e+17 
  8767.9629  3.10956e+17 
  8769.1631  3.39211e+17 
  8770.3643   2.4099e+17 
  8771.5645  2.46831e+17 
  8772.7646  2.80664e+17 
  8773.9648  2.95074e+17 
   8775.166  3.44869e+17 
  8776.3662  2.29801e+17 
  8777.5664  2.93173e+17 
  8778.7676  2.93394e+17 
  8779.9678  2.75491e+17 
   8781.168  2.74699e+17 
  8782.3682  2.64187e+17 
  8783.5693  2.81517e+17 
  8784.7695  2.83214e+17 
  8785.9697   2.9228e+17 
  8787.1699  2.81016e+17 
  8788.3711  2.84634e+17 
  8789.5713   2.8787e+17 
  8790.7715  2.83726e+17 
  8791.9727   2.6406e+17 
  8793.1729  2.71333e+17 
   8794.373  2.94872e+17 
  8795.5732  3.00802e+17 
  8796.7734  2.83308e+17 
  8797.9746   2.9525e+17 
  8799.1748  2.72949e+17 
   8800.375  2.97441e+17 
  8801.5752  2.99059e+17 
  8802.7754  2.71819e+17 
  8803.9766  2.74607e+17 
  8805.1768  3.04349e+17 
   8806.377  2.70792e+17 
  8807.5771  2.85018e+17 
  8808.7773   2.8862e+17 
  8809.9785  3.02741e+17 
  8811.1787  2.97878e+17 
  8812.3789  2.89735e+17 
  8813.5791  2.94183e+17 
  8814.7793  2.93484e+17 
  8815.9795  2.89786e+17 
  8817.1797  3.06355e+17 
  8818.3809  2.70331e+17 
  8819.5811  2.74552e+17 
  8820.7812  2.80691e+17 
  8821.9814  2.95635e+17 
  8823.1816  2.73116e+17 
  8824.3818  3.24895e+17 
   8825.582  3.06502e+17 
  8826.7822  3.83831e+17 
  8827.9824  2.66273e+17 
  8829.1826  2.60253e+17 
  8830.3838  2.77292e+17 
   8831.584  2.55997e+17 
  8832.7842  2.93078e+17 
  8833.9844  2.66006e+17 
  8835.1846  2.80964e+17 
  8836.3848  2.53611e+17 
   8837.585  2.85357e+17 
  8838.7852   3.1343e+17 
  8839.9854  2.75088e+17 
  8841.1855  2.73133e+17 
  8842.3857  2.78601e+17 
  8843.5859  2.79743e+17 
  8844.7861  2.85724e+17 
  8845.9863   2.6962e+17 
  8847.1865  3.16263e+17 
  8848.3867  2.58071e+17 
  8849.5869  2.81207e+17 
  8850.7871  2.80559e+17 
  8851.9873  2.88797e+17 
  8853.1875   2.8693e+17 
  8854.3877  2.85538e+17 
  8855.5879   2.7174e+17 
  8856.7881  2.64509e+17 
  8857.9883  2.64644e+17 
  8859.1885  2.69087e+17 
  8860.3887  2.59033e+17 
  8861.5889   2.7401e+17 
  8862.7891  2.72723e+17 
  8863.9893  2.77819e+17 
  8865.1895  2.51884e+17 
  8866.3896  2.79265e+17 
  8867.5889  2.63495e+17 
  8868.7891  2.19916e+17 
  8869.9893  2.59087e+17 
  8871.1895  2.66001e+17 
  8872.3896  2.51796e+17 
  8873.5898  2.69612e+17 
    8874.79  2.66177e+17 
  8875.9902  2.78842e+17 
  8877.1904  2.70182e+17 
  8878.3896  2.83707e+17 
  8879.5898  2.77038e+17 
    8880.79  2.81421e+17 
  8881.9902   3.1255e+17 
  8883.1904  2.75593e+17 
  8884.3906  3.29742e+17 
  8885.5898  3.41813e+17 
    8886.79  2.88415e+17 
  8887.9902  3.01064e+17 
  8889.1904  3.25045e+17 
  8890.3906  2.92679e+17 
  8891.5898  2.79183e+17 
    8892.79  2.70043e+17 
  8893.9902  2.74955e+17 
  8895.1904  2.92993e+17 
  8896.3896  2.71909e+17 
  8897.5898  2.65578e+17 
    8898.79  2.62718e+17 
  8899.9902  2.79943e+17 
  8901.1895  2.51306e+17 
  8902.3896  3.01428e+17 
  8903.5898  2.85039e+17 
    8904.79  3.07095e+17 
  8905.9893   3.0396e+17 
  8907.1895  2.75096e+17 
  8908.3896  2.65731e+17 
  8909.5889  2.92431e+17 
  8910.7891  2.96504e+17 
  8911.9893  2.55125e+17 
  8913.1885   2.5662e+17 
  8914.3887  2.81549e+17 
  8915.5889  2.34343e+17 
  8916.7881  2.65691e+17 
  8917.9883   2.9728e+17 
  8919.1885  3.16668e+17 
  8920.3877   2.4978e+17 
  8921.5879  2.95213e+17 
  8922.7881  2.96648e+17 
  8923.9873  3.05072e+17 
  8925.1875  2.62175e+17 
  8926.3867  2.93036e+17 
  8927.5869  2.77682e+17 
  8928.7871  2.62735e+17 
  8929.9863  2.86454e+17 
  8931.1865  2.86591e+17 
  8932.3857   2.7798e+17 
  8933.5859  2.78604e+17 
  8934.7852   2.6999e+17 
  8935.9854  2.98801e+17 
  8937.1846  2.68745e+17 
  8938.3848  2.88375e+17 
   8939.585  3.00824e+17 
  8940.7842  2.82627e+17 
  8941.9844  2.92072e+17 
  8943.1836  2.81504e+17 
  8944.3828  2.62132e+17 
   8945.583  2.62199e+17 
  8946.7822  2.68118e+17 
  8947.9824  2.84293e+17 
  8949.1816  2.76939e+17 
  8950.3818   2.9461e+17 
  8951.5811  2.91515e+17 
  8952.7812  2.95453e+17 
  8953.9805  3.08687e+17 
  8955.1807  3.41457e+17 
  8956.3799  3.46001e+17 
  8957.5791  2.72637e+17 
  8958.7793  2.49001e+17 
  8959.9785  3.11573e+17 
  8961.1787  2.74706e+17 
  8962.3779  2.88493e+17 
  8963.5771   2.7219e+17 
  8964.7773  2.65869e+17 
  8965.9766  2.71658e+17 
  8967.1758  2.88065e+17 
   8968.376  3.11822e+17 
  8969.5752   2.9258e+17 
  8970.7744  2.84079e+17 
  8971.9746   2.9175e+17 
  8973.1738  2.97554e+17 
   8974.373  3.13643e+17 
  8975.5732  2.85129e+17 
  8976.7725  2.75984e+17 
  8977.9717   2.7966e+17 
  8979.1719  2.62817e+17 
  8980.3711  2.96833e+17 
  8981.5703  2.92213e+17 
  8982.7695  2.74859e+17 
  8983.9697  2.70856e+17 
  8985.1689   2.8678e+17 
  8986.3682  3.13357e+17 
  8987.5674  2.75717e+17 
  8988.7666  2.68459e+17 
  8989.9668   3.0991e+17 
   8991.166  2.92573e+17 
  8992.3652  2.58525e+17 
  8993.5645  2.81158e+17 
  8994.7637  2.91897e+17 
  8995.9639  2.81333e+17 
  8997.1631  2.92995e+17 
  8998.3623  2.95793e+17 
  8999.5615  2.83798e+17 
  9000.7607   2.4597e+17 
    9001.96  2.59509e+17 
  9003.1592  2.98234e+17 
  9004.3594  2.29617e+17 
  9005.5586  2.75505e+17 
  9006.7578  2.79286e+17 
   9007.957  2.87185e+17 
  9009.1562  2.74041e+17 
  9010.3555  2.64716e+17 
  9011.5547  2.76838e+17 
  9012.7539  2.62887e+17 
  9013.9531  2.74915e+17 
  9015.1523  2.87464e+17 
  9016.3516  2.86009e+17 
  9017.5508  2.78479e+17 
    9018.75  2.78472e+17 
  9019.9492   2.6288e+17 
  9021.1484   3.1574e+17 
  9022.3477  2.83592e+17 
  9023.5469  2.83407e+17 
  9024.7461   2.8502e+17 
  9025.9453  2.67782e+17 
  9027.1445  2.92056e+17 
  9028.3438  2.65929e+17 
   9029.543  3.08611e+17 
  9030.7422  3.06634e+17 
  9031.9414  2.96454e+17 
  9033.1406  2.74037e+17 
  9034.3389  2.91751e+17 
  9035.5381  2.90464e+17 
  9036.7373  2.85675e+17 
  9037.9365  2.70007e+17 
  9039.1357  2.79555e+17 
   9040.335  2.59283e+17 
  9041.5342  2.86445e+17 
  9042.7324  2.80378e+17 
  9043.9316  2.71668e+17 
  9045.1309  2.94065e+17 
  9046.3301  2.85772e+17 
  9047.5293  2.70958e+17 
  9048.7285  2.93954e+17 
  9049.9268  3.02425e+17 
   9051.126  3.02537e+17 
  9052.3252  2.63728e+17 
  9053.5244  2.80029e+17 
  9054.7227   2.6484e+17 
  9055.9219  2.86174e+17 
  9057.1211  2.67157e+17 
  9058.3203  2.68695e+17 
  9059.5186  2.63725e+17 
  9060.7178  2.90425e+17 
   9061.917  2.78859e+17 
  9063.1152  2.77987e+17 
  9064.3145  2.74279e+17 
  9065.5137  2.96035e+17 
  9066.7119  2.83201e+17 
  9067.9111  2.76435e+17 
  9069.1104  2.97806e+17 
  9070.3086  2.75905e+17 
  9071.5078  3.00136e+17 
  9072.7061  2.68324e+17 
  9073.9053  2.75072e+17 
  9075.1045  2.58424e+17 
  9076.3027   2.8983e+17 
   9077.502   2.6335e+17 
  9078.7002  2.79451e+17 
  9079.8994  2.80606e+17 
  9081.0986  2.61819e+17 
  9082.2969  2.71821e+17 
  9083.4961  2.71797e+17 
  9084.6943  2.82009e+17 
  9085.8936  2.33318e+17 
  9087.0918  2.63754e+17 
   9088.291  2.46859e+17 
  9089.4893  2.77139e+17 
  9090.6885  2.71897e+17 
  9091.8867  2.67047e+17 
   9093.085  2.60973e+17 
  9094.2842  2.92778e+17 
  9095.4824  2.58589e+17 
  9096.6816  2.71683e+17 
  9097.8799  2.57205e+17 
  9099.0791  2.65492e+17 
  9100.2773  2.58668e+17 
  9101.4756  2.62543e+17 
  9102.6748     2.59e+17 
   9103.873  2.60918e+17 
  9105.0713  2.63406e+17 
  9106.2705  2.59693e+17 
  9107.4688  2.50866e+17 
   9108.667  2.44063e+17 
  9109.8662  2.63777e+17 
  9111.0645  2.70695e+17 
  9112.2627  2.69547e+17 
  9113.4619  2.50728e+17 
  9114.6602  2.45941e+17 
  9115.8584  2.76922e+17 
  9117.0566  2.62574e+17 
  9118.2559  2.71043e+17 
  9119.4541  2.72017e+17 
  9120.6523  2.52175e+17 
  9121.8506  2.76119e+17 
  9123.0498  2.59129e+17 
   9124.248  2.69602e+17 
  9125.4463  2.65555e+17 
  9126.6445  2.59117e+17 
  9127.8428  2.53049e+17 
   9129.041   2.5436e+17 
  9130.2402  2.72278e+17 
  9131.4385  2.49391e+17 
  9132.6367  2.65983e+17 
   9133.835  2.61874e+17 
  9135.0332  2.59188e+17 
  9136.2314  2.57533e+17 
  9137.4297  2.52269e+17 
  9138.6279   2.7492e+17 
  9139.8262   2.6554e+17 
  9141.0244  2.68458e+17 
  9142.2227  2.77245e+17 
  9143.4219  2.59981e+17 
  9144.6191  2.86001e+17 
  9145.8184  2.73502e+17 
  9147.0156  2.63276e+17 
  9148.2148   2.5246e+17 
  9149.4131  2.46886e+17 
  9150.6104  2.84395e+17 
  9151.8086  2.79131e+17 
  9153.0068  2.66469e+17 
  9154.2051  2.72759e+17 
  9155.4033  2.58873e+17 
  9156.6016  2.81787e+17 
  9157.7998  2.55729e+17 
   9158.998  2.73295e+17 
  9160.1963   2.8429e+17 
  9161.3945  2.82262e+17 
  9162.5928  2.71716e+17 
    9163.79  2.73749e+17 
  9164.9883  2.73884e+17 
  9166.1865  2.82715e+17 
  9167.3848  2.60567e+17 
   9168.583  2.86339e+17 
  9169.7812  2.71983e+17 
  9170.9785   2.7936e+17 
  9172.1768  2.86953e+17 
   9173.375  2.71822e+17 
  9174.5732  2.83537e+17 
  9175.7705  2.95395e+17 
  9176.9688  2.49775e+17 
   9178.167  2.71773e+17 
  9179.3652  2.89649e+17 
  9180.5625  2.92025e+17 
  9181.7607  3.04775e+17 
   9182.959  2.87229e+17 
  9184.1562  3.07152e+17 
  9185.3545  3.00184e+17 
  9186.5527   2.9664e+17 
    9187.75   2.9669e+17 
  9188.9482  3.11482e+17 
  9190.1455  3.07381e+17 
  9191.3438  3.02129e+17 
   9192.542  2.98559e+17 
  9193.7393  3.02248e+17 
  9194.9375  2.84254e+17 
  9196.1348  2.78358e+17 
   9197.333  3.11256e+17 
  9198.5303  3.07808e+17 
  9199.7285  2.84172e+17 
  9200.9258  3.28094e+17 
   9202.124  3.16619e+17 
  9203.3213  3.07543e+17 
  9204.5195  3.15146e+17 
  9205.7168  3.15911e+17 
   9206.915  3.10898e+17 
  9208.1123  3.25712e+17 
  9209.3105  3.09909e+17 
  9210.5078  3.16775e+17 
  9211.7061  3.13347e+17 
  9212.9033  3.29671e+17 
  9214.1006  3.21067e+17 
  9215.2988  3.12041e+17 
  9216.4961  3.17665e+17 
  9217.6934   3.3641e+17 
  9218.8916  3.15809e+17 
  9220.0889  3.31146e+17 
  9221.2861  3.34445e+17 
  9222.4844  3.26078e+17 
  9223.6816  3.55354e+17 
  9224.8789  3.35106e+17 
  9226.0771  3.60042e+17 
  9227.2744  3.38707e+17 
  9228.4717  3.43633e+17 
  9229.6689  3.33397e+17 
  9230.8672  3.23127e+17 
  9232.0645  3.24732e+17 
  9233.2617  3.48493e+17 
   9234.459  3.45948e+17 
  9235.6562   3.4518e+17 
  9236.8545  3.27128e+17 
  9238.0518  3.47657e+17 
   9239.249  3.26548e+17 
  9240.4463  3.17565e+17 
  9241.6436  3.29775e+17 
  9242.8408  3.43989e+17 
  9244.0381  3.44754e+17 
  9245.2354   3.3708e+17 
  9246.4326  3.36056e+17 
  9247.6309  3.31756e+17 
  9248.8281   3.4045e+17 
  9250.0254  3.36696e+17 
  9251.2227  3.47179e+17 
  9252.4199  3.50394e+17 
  9253.6172  3.36419e+17 
  9254.8145  3.59891e+17 
  9256.0117  3.33426e+17 
   9257.209   3.2573e+17 
  9258.4062   3.5405e+17 
  9259.6025  3.21266e+17 
  9260.7998   3.5067e+17 
  9261.9971  3.16964e+17 
  9263.1943  3.29119e+17 
  9264.3916   3.5421e+17 
  9265.5889  3.22031e+17 
  9266.7861   3.5029e+17 
  9267.9834  3.50028e+17 
  9269.1807  3.24585e+17 
   9270.377  3.54832e+17 
  9271.5742  3.23523e+17 
  9272.7715  3.50436e+17 
  9273.9688   3.3605e+17 
   9275.166  3.54611e+17 
  9276.3623  3.66925e+17 
  9277.5596  3.54376e+17 
  9278.7568  3.46052e+17 
  9279.9541  3.63387e+17 
  9281.1504  3.58151e+17 
  9282.3477  3.41584e+17 
  9283.5449  3.38189e+17 
  9284.7422  3.48211e+17 
  9285.9385  3.34892e+17 
  9287.1357  3.53647e+17 
   9288.332  3.60756e+17 
  9289.5293  3.47819e+17 
  9290.7266  3.55441e+17 
  9291.9229  3.39305e+17 
  9293.1201  3.55604e+17 
  9294.3174  3.52993e+17 
  9295.5137   3.5888e+17 
  9296.7109  3.52401e+17 
  9297.9072  3.60623e+17 
  9299.1045  3.55609e+17 
  9300.3008  3.51827e+17 
   9301.498   3.4686e+17 
  9302.6943  3.18012e+17 
  9303.8916  3.79253e+17 
  9305.0879  3.65019e+17 
  9306.2852  4.36851e+17 
  9307.4814  3.72191e+17 
  9308.6777  3.65019e+17 
   9309.875  3.26062e+17 
  9311.0713   3.4983e+17 
  9312.2686  3.99044e+17 
  9313.4648  4.11416e+17 
  9314.6611  3.11029e+17 
  9315.8584  3.37325e+17 
  9317.0547  3.68866e+17 
   9318.252  3.33496e+17 
  9319.4482  3.90986e+17 
  9320.6445  4.08091e+17 
  9321.8408  4.06525e+17 
  9323.0381  4.65007e+17 
  9324.2344  4.01125e+17 
  9325.4307  3.72623e+17 
   9326.627  3.19838e+17 
  9327.8242  3.45969e+17 
  9329.0205  3.63961e+17 
  9330.2168  3.66725e+17 
  9331.4131   4.1044e+17 
  9332.6094  4.13124e+17 
  9333.8066  3.93705e+17 
  9335.0029  3.69072e+17 
  9336.1992  4.04196e+17 
  9337.3955  3.55227e+17 
  9338.5918  3.92614e+17 
  9339.7881  3.31406e+17 
  9340.9844  3.91089e+17 
  9342.1807  3.90509e+17 
   9343.377  3.84519e+17 
  9344.5732  3.93733e+17 
  9345.7695  3.62834e+17 
  9346.9658  3.64138e+17 
  9348.1631  3.87657e+17 
  9349.3594  3.88334e+17 
  9350.5547  4.07847e+17 
   9351.751  3.86324e+17 
  9352.9473  4.13582e+17 
  9354.1436  3.66982e+17 
  9355.3398  3.72793e+17 
  9356.5361  3.80763e+17 
  9357.7324  4.08405e+17 
  9358.9287  3.70037e+17 
   9360.125  3.53063e+17 
  9361.3213  3.71006e+17 
  9362.5166  4.15403e+17 
  9363.7129  3.82275e+17 
  9364.9092   4.3862e+17 
  9366.1055  3.92375e+17 
  9367.3018   4.1042e+17 
  9368.4971  3.88338e+17 
  9369.6934  3.49759e+17 
  9370.8896  3.67881e+17 
  9372.0859  3.29634e+17 
  9373.2812   5.3778e+17 
  9374.4775  4.55519e+17 
  9375.6738  3.97255e+17 
  9376.8691  3.69923e+17 
  9378.0654  4.16296e+17 
  9379.2617   2.7653e+17 
   9380.457  2.94321e+17 
  9381.6533  3.60127e+17 
  9382.8496  3.72638e+17 
  9384.0449  4.03792e+17 
  9385.2412  4.07689e+17 
  9386.4365  3.64197e+17 
  9387.6328  4.19504e+17 
  9388.8281  4.13896e+17 
  9390.0244  3.91545e+17 
  9391.2197  3.71224e+17 
   9392.416  4.16864e+17 
  9393.6113  3.95546e+17 
  9394.8076  3.61489e+17 
  9396.0029  3.99675e+17 
  9397.1992  3.71335e+17 
  9398.3945  3.71419e+17 
  9399.5908  3.96841e+17 
  9400.7861  3.43438e+17 
  9401.9814  3.76245e+17 
  9403.1777  3.89767e+17 
   9404.373  3.57629e+17 
  9405.5693  4.05274e+17 
  9406.7646  3.82126e+17 
    9407.96  3.93341e+17 
  9409.1553   4.0927e+17 
  9410.3516  4.03345e+17 
  9411.5469  3.90961e+17 
  9412.7422   4.0405e+17 
  9413.9385   3.9325e+17 
  9415.1338  4.08861e+17 
  9416.3291  4.09669e+17 
  9417.5244  4.05745e+17 
  9418.7197  3.23136e+17 
   9419.916  4.51556e+17 
  9421.1113  4.35046e+17 
  9422.3066  4.21707e+17 
   9423.502  4.19498e+17 
  9424.6973  3.89505e+17 
  9425.8926  3.87026e+17 
  9427.0879  3.69209e+17 
  9428.2832  3.87712e+17 
  9429.4785  3.51762e+17 
  9430.6738  3.71203e+17 
  9431.8691  4.00408e+17 
  9433.0645  3.94318e+17 
  9434.2598  3.98171e+17 
  9435.4551  3.95329e+17 
  9436.6504  4.38574e+17 
  9437.8457  4.28198e+17 
   9439.041  5.40726e+17 
  9440.2363  4.00001e+17 
  9441.4316  3.59659e+17 
   9442.627  4.05826e+17 
  9443.8223  4.03142e+17 
  9445.0176   3.9266e+17 
  9446.2129  4.13042e+17 
  9447.4072  3.99839e+17 
  9448.6025  3.83266e+17 
  9449.7979  4.04008e+17 
  9450.9932   3.6939e+17 
  9452.1885   4.1811e+17 
  9453.3828  3.93404e+17 
  9454.5781   4.2261e+17 
  9455.7734  3.84938e+17 
  9456.9688   4.3327e+17 
  9458.1631  3.82349e+17 
  9459.3584  4.03822e+17 
  9460.5537  3.84237e+17 
   9461.748  4.19803e+17 
  9462.9434  3.50389e+17 
  9464.1387  3.80614e+17 
   9465.333  4.07435e+17 
  9466.5283  3.91764e+17 
  9467.7236  3.89106e+17 
   9468.918  4.04065e+17 
  9470.1133  3.81736e+17 
  9471.3076  3.80776e+17 
  9472.5029  3.69355e+17 
  9473.6973  4.40123e+17 
  9474.8926  4.03542e+17 
  9476.0869  3.98762e+17 
  9477.2822  4.77844e+17 
  9478.4766  4.04313e+17 
  9479.6719  3.77161e+17 
  9480.8662  3.32209e+17 
  9482.0605  3.82885e+17 
  9483.2559  3.89565e+17 
  9484.4502  4.08333e+17 
  9485.6455  3.64944e+17 
  9486.8398  4.03461e+17 
  9488.0342  3.93353e+17 
  9489.2285  3.91426e+17 
  9490.4238  3.82733e+17 
  9491.6182  3.76898e+17 
  9492.8125  4.03473e+17 
  9494.0078  4.12258e+17 
  9495.2021  3.78638e+17 
  9496.3965  3.79218e+17 
  9497.5908  3.87174e+17 
  9498.7861  3.27138e+17 
  9499.9805  3.35411e+17 
  9501.1748   4.1584e+17 
  9502.3691  4.01151e+17 
  9503.5635   3.3789e+17 
  9504.7578  4.12894e+17 
  9505.9521  3.94323e+17 
  9507.1465  3.65302e+17 
  9508.3408  3.60012e+17 
  9509.5361  3.80175e+17 
  9510.7305  3.72046e+17 
  9511.9248  3.95949e+17 
  9513.1191  3.78546e+17 
  9514.3135  3.81555e+17 
  9515.5078  3.57264e+17 
  9516.7021  3.87447e+17 
  9517.8965  4.22056e+17 
  9519.0898  4.32816e+17 
  9520.2842  4.25916e+17 
  9521.4785  3.29904e+17 
  9522.6729  3.22991e+17 
  9523.8672  3.28751e+17 
  9525.0615  3.65578e+17 
  9526.2559  3.90118e+17 
  9527.4502  3.88334e+17 
  9528.6436  3.61889e+17 
  9529.8379   3.1833e+17 
  9531.0322  3.40356e+17 
  9532.2266  3.58643e+17 
  9533.4199  3.44691e+17 
  9534.6143  3.65097e+17 
  9535.8086  3.70493e+17 
  9537.0029  3.83989e+17 
  9538.1963  3.48763e+17 
  9539.3906  3.52753e+17 
   9540.585  3.67763e+17 
  9541.7783  3.57053e+17 
  9542.9727  3.38758e+17 
   9544.166  3.37601e+17 
  9545.3604  3.68068e+17 
  9546.5547  3.25807e+17 
   9547.748  3.30431e+17 
  9548.9424  3.63624e+17 
  9550.1357  3.44852e+17 
  9551.3301  3.49411e+17 
  9552.5234  3.74083e+17 
  9553.7178   3.9523e+17 
  9554.9111  3.63404e+17 
  9556.1055  3.41919e+17 
  9557.2988  3.26062e+17 
  9558.4932  3.53255e+17 
  9559.6865  3.39447e+17 
  9560.8799  3.56045e+17 
  9562.0742  3.50766e+17 
  9563.2676  3.49398e+17 
  9564.4609  3.84025e+17 
  9565.6553  3.37566e+17 
  9566.8486  2.48957e+17 
   9568.042  3.63215e+17 
  9569.2354  3.33726e+17 
  9570.4297  3.25198e+17 
   9571.623  3.52091e+17 
  9572.8164  3.48513e+17 
  9574.0098  3.38193e+17 
  9575.2041   3.3164e+17 
  9576.3975  3.58831e+17 
  9577.5908  3.31779e+17 
  9578.7842  3.34681e+17 
  9579.9775   3.2677e+17 
  9581.1709  3.11758e+17 
  9582.3643  3.32991e+17 
  9583.5576   3.2491e+17 
   9584.752  3.35754e+17 
  9585.9453  3.37618e+17 
  9587.1387  3.14117e+17 
   9588.332  3.61754e+17 
  9589.5254  3.43463e+17 
  9590.7188  3.51044e+17 
  9591.9121  3.10735e+17 
  9593.1055  3.28842e+17 
  9594.2979  3.36928e+17 
  9595.4912  3.20292e+17 
  9596.6846  3.53457e+17 
  9597.8779  3.57711e+17 
  9599.0713  3.22703e+17 
  9600.2646  3.33274e+17 
   9601.458  3.26763e+17 
  9602.6504  3.41239e+17 
  9603.8438  3.48158e+17 
  9605.0371  3.21676e+17 
  9606.2305  3.48318e+17 
  9607.4238   2.7871e+17 
  9608.6162   3.5566e+17 
  9609.8096  3.34191e+17 
  9611.0029  3.34694e+17 
  9612.1953  3.24824e+17 
  9613.3887  3.08167e+17 
   9614.582  3.50149e+17 
  9615.7744  3.11629e+17 
  9616.9678  3.01694e+17 
  9618.1602  2.94326e+17 
  9619.3535  3.44492e+17 
  9620.5469  3.56944e+17 
  9621.7393  2.99174e+17 
  9622.9326  3.29456e+17 
   9624.125   3.0978e+17 
  9625.3184  3.06607e+17 
  9626.5107  3.40375e+17 
  9627.7041  3.26919e+17 
  9628.8965   3.1725e+17 
  9630.0898  3.25025e+17 
  9631.2822  3.29357e+17 
  9632.4746  3.08371e+17 
   9633.668  3.29271e+17 
  9634.8604  3.45622e+17 
  9636.0527  3.18268e+17 
  9637.2461  3.25479e+17 
  9638.4385  3.32416e+17 
  9639.6309  3.19603e+17 
  9640.8242  3.31599e+17 
  9642.0166  3.41524e+17 
   9643.209  3.33864e+17 
  9644.4014  3.23253e+17 
  9645.5947  3.18277e+17 
  9646.7871   3.1076e+17 
  9647.9795  3.16637e+17 
  9649.1719   3.2888e+17 
  9650.3643  3.03447e+17 
  9651.5566  3.17345e+17 
   9652.749  3.27349e+17 
  9653.9424  3.24519e+17 
  9655.1348  3.22291e+17 
  9656.3271    3.265e+17 
  9657.5195  3.28993e+17 
  9658.7119  3.28181e+17 
  9659.9043  3.31023e+17 
  9661.0967  3.34985e+17 
  9662.2891  3.10786e+17 
  9663.4814  3.21125e+17 
  9664.6738   3.2126e+17 
  9665.8662  3.37514e+17 
  9667.0576   3.2209e+17 
    9668.25  2.96355e+17 
  9669.4424  3.37912e+17 
  9670.6348  3.38413e+17 
  9671.8271  3.56516e+17 
  9673.0195  3.12683e+17 
  9674.2119  3.21153e+17 
  9675.4033  3.29058e+17 
  9676.5957  3.39796e+17 
  9677.7881  3.27964e+17 
  9678.9805  3.02981e+17 
  9680.1719   3.2485e+17 
  9681.3643  3.22676e+17 
  9682.5566   2.9105e+17 
   9683.748   3.2422e+17 
  9684.9404  3.19605e+17 
  9686.1328    3.303e+17 
  9687.3242  3.21844e+17 
  9688.5166  3.12178e+17 
   9689.708  3.42851e+17 
  9690.9004  3.11454e+17 
  9692.0928  3.12024e+17 
  9693.2842   3.4017e+17 
  9694.4766  3.20004e+17 
   9695.668  3.49923e+17 
  9696.8594  3.19758e+17 
  9698.0518  3.75828e+17 
  9699.2432  3.01521e+17 
  9700.4355  2.75529e+17 
   9701.627   3.1113e+17 
  9702.8193  3.08461e+17 
  9704.0107  3.16592e+17 
  9705.2021  3.08096e+17 
  9706.3945  3.26283e+17 
  9707.5859  3.17662e+17 
  9708.7773  3.22907e+17 
  9709.9688  2.89596e+17 
  9711.1611  2.98111e+17 
  9712.3525  3.00841e+17 
  9713.5439  3.31028e+17 
  9714.7354  3.08241e+17 
  9715.9277   2.9586e+17 
  9717.1191  2.99312e+17 
  9718.3105  3.08511e+17 
   9719.502  3.57964e+17 
  9720.6934  3.12519e+17 
  9721.8848   2.7197e+17 
  9723.0762  2.55438e+17 
  9724.2676  2.99493e+17 
    9725.46  3.31478e+17 
  9726.6514  2.99384e+17 
  9727.8428  3.22018e+17 
  9729.0342  2.93678e+17 
  9730.2256  3.23309e+17 
   9731.416  3.31482e+17 
  9732.6074  3.21306e+17 
  9733.7988  3.19513e+17 
  9734.9902  2.94949e+17 
  9736.1816  3.19847e+17 
   9737.373  3.01784e+17 
  9738.5645  2.62163e+17 
  9739.7559  3.21013e+17 
  9740.9473  3.12608e+17 
  9742.1377  3.14636e+17 
  9743.3291  3.21561e+17 
  9744.5205  3.04341e+17 
  9745.7119  2.93138e+17 
  9746.9023  2.85404e+17 
  9748.0938  2.88795e+17 
  9749.2852  3.08111e+17 
  9750.4756  3.17025e+17 
   9751.667  3.01396e+17 
  9752.8584   3.1134e+17 
  9754.0488  3.01296e+17 
  9755.2402   2.9078e+17 
  9756.4307  2.88334e+17 
  9757.6221  2.96723e+17 
  9758.8135  3.08338e+17 
  9760.0039  2.98038e+17 
  9761.1953  2.88781e+17 
  9762.3857  2.98455e+17 
  9763.5771  2.78579e+17 
  9764.7676  3.04325e+17 
   9765.959  3.10284e+17 
  9767.1494  3.05855e+17 
  9768.3398   3.1307e+17 
  9769.5312  3.07431e+17 
  9770.7217  3.04032e+17 
  9771.9121  3.24082e+17 
  9773.1035  3.11668e+17 
  9774.2939  3.22503e+17 
  9775.4844  2.95545e+17 
  9776.6758  2.95452e+17 
  9777.8662  3.07268e+17 
  9779.0566   3.2472e+17 
  9780.2471  3.11209e+17 
  9781.4385  3.08494e+17 
  9782.6289  3.14061e+17 
  9783.8193  2.92096e+17 
  9785.0098  3.08115e+17 
  9786.2002  3.54963e+17 
  9787.3906   4.3027e+17 
  9788.5811  3.65977e+17 
  9789.7715    3.104e+17 
  9790.9619  2.92961e+17 
  9792.1523  3.44668e+17 
  9793.3438  2.31369e+17 
  9794.5342  2.56334e+17 
  9795.7236  2.90079e+17 
  9796.9141  2.94417e+17 
  9798.1045  2.69681e+17 
  9799.2949   2.8846e+17 
  9800.4854  2.74779e+17 
  9801.6758  2.83264e+17 
  9802.8662  2.63106e+17 
  9804.0566   3.1479e+17 
  9805.2471  3.14546e+17 
  9806.4365  2.99135e+17 
   9807.627  2.73303e+17 
  9808.8174  3.29049e+17 
  9810.0078    3.178e+17 
  9811.1982   2.8186e+17 
  9812.3877  2.87738e+17 
  9813.5781  2.53483e+17 
  9814.7686  3.38735e+17 
   9815.958  2.85017e+17 
  9817.1484  2.91079e+17 
  9818.3389  2.78103e+17 
  9819.5283  3.10432e+17 
  9820.7188  2.94387e+17 
  9821.9082  2.85202e+17 
  9823.0986  2.77318e+17 
  9824.2891  2.91441e+17 
  9825.4785  2.91086e+17 
  9826.6689  3.04026e+17 
  9827.8584  2.77579e+17 
  9829.0479  3.05547e+17 
  9830.2383  2.73128e+17 
  9831.4277  3.02865e+17 
  9832.6182  2.78547e+17 
  9833.8076  2.83737e+17 
  9834.9971  3.03154e+17 
  9836.1875  3.07257e+17 
   9837.377  2.97862e+17 
  9838.5674   2.9504e+17 
  9839.7568  2.65983e+17 
  9840.9463  2.76944e+17 
  9842.1357  2.71091e+17 
  9843.3262  2.81996e+17 
  9844.5156  2.83035e+17 
  9845.7051  3.10114e+17 
  9846.8945   2.8193e+17 
   9848.084  2.65125e+17 
  9849.2734  2.66152e+17 
  9850.4639  2.80592e+17 
  9851.6533  2.71833e+17 
  9852.8428  2.91369e+17 
  9854.0322  2.77418e+17 
  9855.2217  2.77825e+17 
  9856.4111  2.86255e+17 
  9857.6006   2.7455e+17 
    9858.79  2.80804e+17 
  9859.9795  2.83844e+17 
  9861.1689  2.70904e+17 
  9862.3584  2.92846e+17 
  9863.5479   2.6358e+17 
  9864.7373  2.71217e+17 
  9865.9268  2.71876e+17 
  9867.1152  2.20231e+17 
  9868.3047  3.32788e+17 
  9869.4941  3.44745e+17 
  9870.6836   2.2399e+17 
   9871.873  2.57134e+17 
  9873.0615   2.4296e+17 
   9874.251  2.99262e+17 
  9875.4404  2.25322e+17 
  9876.6299   2.1994e+17 
  9877.8184  2.71871e+17 
  9879.0078  2.80027e+17 
  9880.1973  2.90113e+17 
  9881.3857  2.44604e+17 
  9882.5752  2.60147e+17 
  9883.7637  2.53015e+17 
  9884.9531  2.65539e+17 
  9886.1426  2.47952e+17 
  9887.3311  2.68711e+17 
  9888.5205   2.4996e+17 
   9889.709  2.41346e+17 
  9890.8984    2.443e+17 
  9892.0869  2.81522e+17 
  9893.2764   2.4459e+17 
  9894.4648  2.61857e+17 
  9895.6533  2.72448e+17 
  9896.8428  2.54775e+17 
  9898.0312  2.40119e+17 
  9899.2197  2.68071e+17 
  9900.4092  2.59181e+17 
  9901.5977  2.41881e+17 
  9902.7861  2.62587e+17 
  9903.9756  2.53377e+17 
  9905.1641  2.63946e+17 
  9906.3525  2.58282e+17 
   9907.541  2.42966e+17 
  9908.7295  2.61066e+17 
  9909.9189  2.64829e+17 
  9911.1074   2.3885e+17 
  9912.2959  2.73071e+17 
  9913.4844  2.50578e+17 
  9914.6729  2.01658e+17 
  9915.8613  2.41176e+17 
  9917.0498  2.46957e+17 
  9918.2383  2.47994e+17 
  9919.4268  2.85089e+17 
  9920.6152  2.58167e+17 
  9921.8037  2.77605e+17 
  9922.9922  2.48102e+17 
  9924.1807  2.30464e+17 
  9925.3691  2.60375e+17 
  9926.5576  2.49987e+17 
  9927.7461  2.51937e+17 
  9928.9346   2.5804e+17 
   9930.123  2.80662e+17 
  9931.3105  2.55055e+17 
   9932.499  2.73455e+17 
  9933.6875  2.57349e+17 
   9934.876  2.56391e+17 
  9936.0645  2.67763e+17 
   9937.252  2.58494e+17 
  9938.4404  2.71989e+17 
  9939.6289  2.70834e+17 
  9940.8164  3.04808e+17 
  9942.0049  2.95949e+17 
  9943.1934  2.27971e+17 
  9944.3809  3.26557e+17 
  9945.5693  2.23792e+17 
  9946.7568  2.32245e+17 
  9947.9453  2.47907e+17 
  9949.1328  2.74434e+17 
  9950.3213  2.37777e+17 
  9951.5088  2.50132e+17 
  9952.6973  2.65065e+17 
  9953.8848  2.63609e+17 
  9955.0732  2.33657e+17 
  9956.2607  2.93257e+17 
  9957.4492  2.75687e+17 
  9958.6367  2.72349e+17 
  9959.8242  2.23229e+17 
  9961.0127  2.56622e+17 
  9962.2002  2.52421e+17 
  9963.3877  1.96136e+17 
  9964.5762   3.3111e+17 
  9965.7637  2.31441e+17 
  9966.9512  2.66174e+17 
  9968.1387  3.30712e+17 
  9969.3271  2.58898e+17 
  9970.5146  2.80911e+17 
  9971.7021   2.8309e+17 
  9972.8896  2.54088e+17 
  9974.0771  2.67551e+17 
  9975.2646  2.82737e+17 
  9976.4521  2.41765e+17 
  9977.6396  2.80364e+17 
  9978.8271  2.91769e+17 
  9980.0146  2.82215e+17 
  9981.2021  2.61972e+17 
  9982.3896  2.71912e+17 
  9983.5771  2.68051e+17 
  9984.7646  2.66934e+17 
  9985.9521  2.85881e+17 
  9987.1396  2.74869e+17 
  9988.3271  2.70913e+17 
  9989.5146  2.64928e+17 
  9990.7021  2.80137e+17 
  9991.8896   2.8511e+17 
  9993.0762  2.76985e+17 
  9994.2637  2.77012e+17 
  9995.4512  3.07327e+17 
  9996.6387  2.92809e+17 
  9997.8252  2.88281e+17 
  9999.0127  3.11996e+17 
    10000.2  3.17063e+17 
  10001.387  2.58595e+17 
  10002.574  3.00274e+17 
  10003.761  2.58036e+17 
  10004.949  2.68706e+17 
  10006.136  3.07406e+17 
  10007.323  2.81635e+17 
   10008.51  2.21357e+17 
  10009.697  3.31899e+17 
  10010.884  3.25084e+17 
  10012.071  2.95841e+17 
  10013.258   3.8008e+17 
  10014.445  1.94408e+17 
  10015.632  2.39979e+17 
  10016.819  3.39613e+17 
  10018.006  2.58702e+17 
  10019.192  3.05797e+17 
  10020.379  2.59436e+17 
  10021.566  2.77711e+17 
  10022.753  3.29697e+17 
   10023.94  2.19894e+17 
  10025.127  3.32616e+17 
  10026.313  3.87571e+17 
    10027.5  3.15232e+17 
  10028.687  2.58397e+17 
  10029.873  2.87254e+17 
   10031.06  2.95158e+17 
  10032.247  3.10795e+17 
  10033.433   2.9358e+17 
   10034.62  3.10142e+17 
  10035.807  3.05914e+17 
  10036.993   3.0146e+17 
   10038.18  3.00353e+17 
  10039.366  2.99586e+17 
  10040.553  2.93068e+17 
  10041.739  2.75559e+17 
  10042.926  3.04513e+17 
  10044.112  3.02752e+17 
  10045.299  2.71888e+17 
  10046.485  3.38316e+17 
  10047.672  3.07898e+17 
  10048.858  2.97707e+17 
  10050.044  2.86647e+17 
  10051.231  2.95329e+17 
  10052.417   2.8301e+17 
  10053.604  3.05345e+17 
   10054.79  3.22313e+17 
  10055.976  2.73168e+17 
  10057.162   3.1909e+17 
  10058.349   3.6664e+17 
  10059.535  3.31191e+17 
  10060.721  3.05902e+17 
  10061.907  2.68623e+17 
  10063.093  2.76749e+17 
  10064.279  3.20424e+17 
  10065.466  3.08175e+17 
  10066.652  2.84664e+17 
  10067.838  3.20131e+17 
  10069.024  3.09991e+17 
   10070.21  2.71381e+17 
  10071.396  3.20764e+17 
  10072.582  2.68372e+17 
  10073.768  3.12843e+17 
  10074.954  3.02897e+17 
   10076.14  2.95255e+17 
  10077.326  2.65811e+17 
  10078.512  3.95679e+17 
  10079.697  3.14432e+17 
  10080.883  2.98642e+17 
  10082.069  2.61983e+17 
  10083.255   2.7398e+17 
  10084.441  2.74713e+17 
  10085.627  3.59026e+17 
  10086.812  2.77991e+17 
  10087.998  3.35202e+17 
  10089.184  2.76194e+17 
   10090.37   2.9565e+17 
  10091.555  2.83138e+17 
  10092.741  3.04639e+17 
  10093.927  2.96933e+17 
  10095.112  2.99558e+17 
  10096.298  2.98991e+17 
  10097.483  2.53559e+17 
  10098.669  2.31693e+17 
  10099.854  2.91391e+17 
   10101.04  3.23753e+17 
  10102.225  2.97104e+17 
  10103.411  3.44677e+17 
  10104.596  3.27103e+17 
  10105.782  3.54619e+17 
  10106.967  2.71586e+17 
  10108.153  2.58762e+17 
  10109.338  2.71224e+17 
  10110.523  3.03033e+17 
  10111.709  2.66488e+17 
  10112.894  3.06945e+17 
  10114.079  2.82728e+17 
  10115.265  3.17674e+17 
   10116.45  2.70908e+17 
  10117.635  2.74638e+17 
   10118.82  2.94215e+17 
  10120.006  3.27916e+17 
  10121.191  2.81302e+17 
  10122.376  3.81029e+17 
  10123.561  2.63668e+17 
  10124.746  3.72645e+17 
  10125.931  2.20765e+17 
  10127.117  2.45902e+17 
  10128.302  2.29406e+17 
  10129.487  2.68917e+17 
  10130.672   2.9852e+17 
  10131.857  2.79077e+17 
  10133.042    3.155e+17 
  10134.227   2.9748e+17 
  10135.412  2.90106e+17 
  10136.597  2.87451e+17 
  10137.781  2.88176e+17 
  10138.966   3.0676e+17 
  10140.151  2.96395e+17 
  10141.336  3.10464e+17 
  10142.521  2.76711e+17 
  10143.706  2.79318e+17 
   10144.89  2.86818e+17 
  10146.075  2.83109e+17 
   10147.26   2.6094e+17 
  10148.445  2.71188e+17 
  10149.629  2.48674e+17 
  10150.814  2.66191e+17 
  10151.999  3.31868e+17 
  10153.183  3.10508e+17 
  10154.368  2.41599e+17 
  10155.553  2.53421e+17 
  10156.737  3.40671e+17 
  10157.922  3.06178e+17 
  10159.106   3.0457e+17 
  10160.291     2.51e+17 
  10161.475  2.43309e+17 
   10162.66  2.56617e+17 
  10163.844  3.09662e+17 
  10165.029  3.08059e+17 
  10166.213  3.40814e+17 
  10167.398  2.25247e+17 
  10168.582  1.90315e+17 
  10169.766  3.76124e+17 
  10170.951  2.72337e+17 
  10172.135  1.73295e+17 
  10173.319  3.60039e+17 
  10174.504  2.10096e+17 
  10175.688  2.74343e+17 
  10176.872  2.59453e+17 
  10178.056  2.75837e+17 
  10179.241  2.90825e+17 
  10180.425  2.85977e+17 
  10181.609  2.80592e+17 
  10182.793  3.10894e+17 
  10183.977  2.28201e+17 
  10185.161  3.05953e+17 
  10186.345  3.35477e+17 
   10187.53  3.76099e+17 
  10188.714   3.2395e+17 
  10189.898  2.01274e+17 
  10191.082  2.75485e+17 
  10192.266  3.17674e+17 
   10193.45  2.07323e+17 
  10194.634  3.12752e+17 
  10195.817  2.87282e+17 
  10197.001  2.81722e+17 
  10198.185  3.10709e+17 
  10199.369  2.78343e+17 
  10200.553    2.459e+17 
  10201.737  2.76093e+17 
  10202.921  2.86476e+17 
  10204.104  2.00461e+17 
  10205.288  2.97406e+17 
  10206.472  2.41366e+17 
  10207.656  2.95565e+17 
  10208.839  2.93441e+17 
  10210.023  3.18988e+17 
  10211.207  2.52621e+17 
   10212.39  3.05166e+17 
  10213.574  2.62969e+17 
  10214.758  2.60393e+17 
  10215.941  3.12034e+17 
  10217.125  3.06859e+17 
  10218.308   3.4801e+17 
  10219.492   2.8475e+17 
  10220.675  3.13712e+17 
  10221.859  2.96891e+17 
  10223.042  2.49677e+17 
  10224.226  3.23864e+17 
  10225.409  2.68278e+17 
  10226.593   2.3464e+17 
  10227.776  3.08351e+17 
  10228.959   2.2178e+17 
  10230.143  3.46428e+17 
  10231.326  2.17983e+17 
  10232.509  2.64379e+17 
  10233.693  2.97713e+17 
  10234.876  3.06261e+17 
  10236.059  2.59593e+17 
  10237.242  3.26588e+17 
  10238.425    2.817e+17 
  10239.609  3.18315e+17 
  10240.792   2.5828e+17 
  10241.975  2.76987e+17 
  10243.158  2.77174e+17 
  10244.341   3.1981e+17 
  10245.524  3.18676e+17 
  10246.707  2.46658e+17 
   10247.89  3.15509e+17 
  10249.073  3.06498e+17 
  10250.256   2.7557e+17 
  10251.439   2.6152e+17 
  10252.622  2.85237e+17 
  10253.805  2.97298e+17 
  10254.988    2.676e+17 
  10256.171  2.58214e+17 
  10257.354  2.15829e+17 
  10258.537  2.98191e+17 
   10259.72  2.47295e+17 
  10260.903  2.46217e+17 
  10262.085  2.95851e+17 
  10263.268  2.89601e+17 
  10264.451  3.35584e+17 
  10265.634   2.6727e+17 
  10266.816  2.81834e+17 
  10267.999   2.1389e+17 
  10269.182  2.61349e+17 
  10270.364  3.13909e+17 
  10271.547  2.71617e+17 
   10272.73  2.45728e+17 
  10273.912  2.73748e+17 
  10275.095  2.73031e+17 
  10276.277   2.2848e+17 
   10277.46  2.60389e+17 
  10278.642  2.78882e+17 
  10279.825  2.67775e+17 
  10281.007  2.34901e+17 
   10282.19  3.24882e+17 
  10283.372  2.18885e+17 
  10284.555  2.13391e+17 
  10285.737  3.64037e+17 
  10286.919  1.80815e+17 
  10288.102  3.09533e+17 
  10289.284  2.06316e+17 
  10290.466  2.49819e+17 
  10291.649  2.37043e+17 
  10292.831  1.98107e+17 
  10294.013  3.09206e+17 
