# STATUS =
# OBJECT = 2019cca
# TELESCOPE = P200
# INSTRUMENT = SEDM
# DATE-OBS = 2019-04-27 00:00:00.000
# MJD = 58600.0
# EXPTIME =
# AIRMASS =
# SLIT =
# DISPERSER =
# SOURCE = DOI 10.3847/1538-4357/aca161
# FILTER =
# RESOLUTION =
# FLUX_STANDARD =
# EXTINCTION_CORRECTED =
# PHOTOMETRY_CALIBRATED =
# TELLURIC_CORRECTED =
# FLUX_UNITS =
# WAVE_UNITS =
# QUALITY =
# MIN_WAVE = 3100.245
# MAX_WAVE = 10236.749
# COMMENT =
 Wavelength        Flux 
   3101.288   3.209e-16 
   3102.331  -9.225e-16 
   3103.372   8.844e-18 
   3104.415  -4.675e-16 
   3105.458  -7.677e-18 
   3106.501  -2.835e-18 
   3107.543  -1.954e-16 
   3108.587   1.874e-16 
    3109.63    3.91e-16 
   3110.673  -1.016e-15 
   3111.715  -2.747e-16 
   3112.759    3.02e-16 
   3113.802   1.138e-15 
   3114.846  -5.562e-16 
   3115.889  -3.647e-16 
   3116.932  -1.467e-16 
   3117.976  -4.378e-16 
    3119.02   6.861e-16 
   3120.063    4.31e-17 
   3121.107   4.868e-16 
   3122.151  -8.841e-17 
   3123.194  -6.457e-17 
   3124.238   4.688e-16 
   3125.282   7.111e-17 
   3126.326   1.278e-16 
    3127.37   3.668e-17 
   3128.414  -4.578e-16 
   3129.459  -7.778e-16 
   3130.503  -1.755e-16 
   3131.547  -4.175e-16 
   3132.591   1.002e-16 
   3133.636   4.921e-16 
   3134.681  -4.636e-16 
   3135.725   -3.62e-17 
    3136.77  -1.138e-16 
   3137.815   1.964e-16 
    3138.86   3.706e-16 
   3139.904  -1.587e-16 
   3140.949  -3.943e-16 
   3141.994   1.894e-16 
   3143.038  -4.826e-17 
   3144.084  -8.919e-17 
   3145.129  -3.038e-17 
   3146.175   -3.76e-16 
   3147.219   8.582e-17 
   3148.265  -2.308e-16 
    3149.31   5.182e-16 
   3150.356  -1.063e-16 
   3151.401  -1.567e-16 
   3152.447  -4.545e-17 
   3153.493  -1.626e-16 
   3154.539  -1.268e-16 
   3155.584  -2.145e-16 
    3156.63   8.411e-17 
   3157.676   3.229e-16 
   3158.722       1e-16 
   3159.768   1.756e-16 
   3160.814  -7.633e-17 
    3161.86   2.096e-16 
   3162.906   1.785e-16 
   3163.952  -5.359e-16 
   3164.999  -4.148e-16 
   3166.046   1.604e-16 
   3167.092   2.068e-16 
   3168.138   1.527e-17 
   3169.185  -4.147e-16 
   3170.232   -1.84e-16 
   3171.278  -5.237e-18 
   3172.325  -1.583e-16 
   3173.372   1.063e-16 
   3174.419  -3.127e-16 
   3175.466  -1.079e-16 
   3176.513  -2.417e-16 
    3177.56  -1.895e-16 
   3178.608  -2.436e-17 
   3179.654   1.787e-16 
   3180.702  -1.452e-16 
   3181.749   3.041e-16 
   3182.796  -8.663e-17 
   3183.844  -1.003e-16 
   3184.892   -1.45e-16 
    3185.94   8.267e-17 
   3186.986   1.769e-16 
   3188.034  -2.523e-16 
   3189.082  -6.668e-17 
   3190.131  -1.509e-17 
   3191.178   5.152e-18 
   3192.226   1.736e-16 
   3193.274  -4.927e-17 
   3194.323    -3.1e-17 
    3195.37   8.464e-17 
   3196.418  -2.006e-16 
   3197.467  -3.004e-16 
   3198.515   1.349e-16 
   3199.563   2.758e-16 
   3200.612  -9.573e-17 
   3201.661  -1.309e-16 
   3202.709  -2.391e-16 
   3203.758  -6.765e-17 
   3204.806  -1.265e-16 
   3205.856   3.255e-16 
   3206.904   -3.88e-16 
   3207.953  -1.133e-16 
   3209.002    3.37e-18 
   3210.051   1.819e-16 
     3211.1   1.101e-16 
   3212.149   4.329e-17 
   3213.198   4.477e-17 
   3214.248   -1.21e-18 
   3215.296    1.37e-16 
   3216.346   1.688e-16 
   3217.396   2.107e-16 
   3218.445   1.774e-16 
   3219.494   2.827e-16 
   3220.544   8.073e-17 
   3221.594  -1.548e-16 
   3222.643  -3.799e-18 
   3223.693   3.132e-16 
   3224.743   9.675e-17 
   3225.794   1.496e-16 
   3226.843  -8.077e-17 
   3227.893  -1.116e-16 
   3228.943   6.547e-17 
   3229.994   -1.28e-16 
   3231.043  -6.858e-17 
   3232.094   2.026e-16 
   3233.144   1.693e-16 
   3234.194  -1.604e-16 
   3235.245  -9.638e-17 
   3236.296   -1.41e-16 
   3237.346  -8.868e-17 
   3238.396   -1.93e-16 
   3239.447   4.229e-17 
   3240.498  -2.055e-16 
   3241.549  -2.082e-16 
   3242.599  -2.204e-16 
   3243.651  -2.488e-17 
   3244.702    3.44e-17 
   3245.753   -2.39e-16 
   3246.804   2.395e-16 
   3247.855   8.439e-17 
   3248.906   5.089e-17 
   3249.957   -1.41e-16 
   3251.009  -6.392e-17 
    3252.06   9.896e-19 
   3253.112   2.619e-17 
   3254.163   8.384e-17 
   3255.215  -7.369e-17 
   3256.266  -1.632e-16 
   3257.318  -9.221e-17 
   3258.369     2.2e-16 
   3259.421   5.135e-17 
   3260.474   3.982e-17 
   3261.526   1.023e-16 
   3262.577   4.102e-17 
   3263.629   5.335e-17 
   3264.682   1.266e-16 
   3265.733    1.25e-16 
   3266.786   1.742e-16 
   3267.838   1.826e-16 
   3268.891    1.03e-16 
   3269.942  -1.572e-17 
   3270.995  -2.753e-17 
   3272.048  -9.683e-17 
   3273.101   1.285e-16 
   3274.153   -1.76e-17 
   3275.206   8.779e-17 
   3276.259    6.34e-18 
   3277.312   3.359e-18 
   3278.364  -4.339e-17 
   3279.417   1.037e-16 
    3280.47  -5.833e-17 
   3281.522   6.651e-19 
   3282.576   3.439e-17 
   3283.629    3.14e-17 
   3284.683  -7.113e-17 
   3285.735   3.305e-17 
   3286.789   2.351e-16 
   3287.842  -2.594e-17 
   3288.896  -1.009e-17 
   3289.949  -4.842e-17 
   3291.003   1.048e-16 
   3292.056  -6.622e-17 
    3293.11  -9.328e-18 
   3294.163  -2.135e-17 
   3295.217   1.046e-16 
   3296.272   7.513e-17 
   3297.325  -4.425e-18 
   3298.379  -2.893e-17 
   3299.433  -2.698e-17 
   3300.487  -9.847e-17 
   3301.541  -1.766e-16 
   3302.595   2.395e-17 
    3303.65   2.046e-17 
   3304.704  -1.713e-17 
   3305.758    8.41e-17 
   3306.813  -1.637e-16 
   3307.867   2.171e-17 
   3308.921  -9.688e-17 
   3309.976   3.796e-17 
   3311.031   2.121e-17 
   3312.086   7.593e-17 
    3313.14   6.136e-17 
   3314.195   7.453e-17 
    3315.25  -1.742e-16 
   3316.305   2.377e-17 
   3317.359  -3.485e-17 
   3318.415   2.873e-17 
    3319.47   1.049e-16 
   3320.525   1.042e-16 
    3321.58  -5.781e-17 
   3322.635     5.2e-17 
   3323.691    1.09e-16 
   3324.745  -9.333e-18 
   3325.801   1.904e-17 
   3326.857   4.191e-17 
   3327.913   8.762e-17 
   3328.967    4.75e-17 
   3330.023  -1.332e-16 
   3331.079  -1.394e-16 
   3332.135     2.1e-17 
    3333.19   1.077e-16 
   3334.246  -3.111e-17 
   3335.303  -3.559e-17 
   3336.358   7.313e-17 
   3337.414  -6.448e-17 
    3338.47   1.236e-17 
   3339.527   2.246e-17 
   3340.582   2.063e-18 
   3341.639   3.288e-17 
   3342.695  -4.218e-18 
   3343.752   1.009e-16 
   3344.808  -4.167e-17 
   3345.864  -4.361e-17 
   3346.921   -9.07e-17 
   3347.978   4.774e-17 
   3349.034  -1.583e-17 
   3350.091    6.12e-17 
   3351.148  -2.107e-17 
   3352.204   1.842e-17 
   3353.261   3.766e-17 
   3354.318  -9.037e-17 
   3355.375  -2.333e-17 
   3356.432   2.309e-17 
   3357.489    9.41e-17 
   3358.546   6.242e-17 
   3359.604   4.339e-17 
    3360.66  -7.171e-18 
   3361.718   9.153e-17 
   3362.775  -2.479e-17 
   3363.832    2.56e-17 
    3364.89   1.445e-16 
   3365.947   8.509e-17 
   3367.005  -2.315e-17 
   3368.062   1.499e-18 
    3369.12   7.935e-18 
   3370.178    1.14e-16 
   3371.236   8.489e-17 
   3372.293   8.931e-17 
   3373.351   7.626e-17 
   3374.409   -4.74e-17 
   3375.468   1.104e-17 
   3376.525   6.926e-17 
   3377.583   7.294e-17 
   3378.642   8.961e-18 
   3379.699  -3.759e-18 
   3380.758  -3.687e-17 
   3381.816   3.362e-17 
   3382.875   6.061e-17 
   3383.932   5.525e-17 
   3384.991  -3.608e-17 
    3386.05   -3.13e-17 
   3387.109   4.218e-17 
   3388.167   4.539e-17 
   3389.226    7.61e-18 
   3390.285   2.566e-17 
   3391.343    5.64e-17 
   3392.402   1.149e-17 
   3393.461   3.097e-17 
    3394.52   4.833e-17 
   3395.578   5.992e-17 
   3396.638  -5.947e-17 
   3397.697    2.11e-17 
   3398.756   5.616e-17 
   3399.815    3.59e-17 
   3400.874  -1.992e-17 
   3401.934    2.41e-17 
   3402.992   7.435e-17 
   3404.052  -2.263e-17 
   3405.112   2.435e-17 
   3406.172   2.432e-17 
    3407.23   8.186e-18 
    3408.29  -1.992e-17 
    3409.35  -2.147e-17 
    3410.41   4.001e-19 
   3411.469  -2.416e-17 
   3412.529   2.642e-17 
   3413.589   3.233e-17 
   3414.649   9.644e-18 
   3415.709   3.692e-17 
   3416.769   6.327e-17 
    3417.83   7.212e-18 
   3418.889   5.305e-17 
   3419.949  -3.689e-17 
    3421.01   4.681e-17 
    3422.07    4.81e-17 
    3423.13    -2.1e-19 
   3424.191   3.364e-17 
   3425.251   1.443e-17 
   3426.312  -2.141e-17 
   3427.372    3.37e-18 
   3428.433   3.145e-17 
   3429.494   2.586e-17 
   3430.554  -3.538e-17 
   3431.615   2.451e-17 
   3432.676   3.234e-17 
   3433.737  -6.013e-17 
   3434.797   5.671e-17 
   3435.858   -2.99e-17 
    3436.92   7.672e-17 
   3437.981   4.169e-17 
   3439.041   -5.78e-17 
   3440.103  -1.275e-18 
   3441.164   9.839e-17 
   3442.225  -3.208e-17 
   3443.286   5.676e-19 
   3444.348  -4.523e-17 
    3445.41  -3.569e-17 
    3446.47   3.074e-17 
   3447.532  -6.642e-17 
   3448.594   5.351e-17 
   3449.656   8.964e-18 
   3450.717   5.535e-17 
   3451.779   3.364e-17 
   3452.841   3.098e-17 
   3453.902   5.125e-17 
   3454.964  -6.853e-17 
   3456.026   7.406e-17 
   3457.088   4.232e-17 
    3458.15   5.766e-17 
   3459.212   5.543e-17 
   3460.274    1.63e-17 
   3461.337   2.017e-17 
   3462.398   4.429e-17 
   3463.461   6.702e-17 
   3464.523   5.987e-18 
   3465.585   1.551e-17 
   3466.648   2.363e-17 
    3467.71   3.877e-17 
   3468.773  -2.101e-17 
   3469.835   7.238e-18 
   3470.898  -2.661e-17 
   3471.961   1.509e-17 
   3473.024   1.609e-18 
   3474.086   -1.33e-17 
   3475.149  -9.964e-19 
   3476.212   4.972e-17 
   3477.274   9.838e-17 
   3478.337   6.393e-18 
   3479.401   -3.52e-17 
   3480.464  -5.131e-17 
   3481.526   2.221e-17 
    3482.59   2.752e-17 
   3483.653  -5.181e-17 
   3484.717  -2.114e-17 
   3485.779  -3.502e-17 
   3486.843  -6.382e-17 
   3487.907  -7.505e-17 
   3488.969   1.217e-17 
   3490.033  -6.353e-17 
   3491.097   2.385e-17 
   3492.161  -4.213e-17 
   3493.224  -1.403e-17 
   3494.288  -1.149e-17 
   3495.352   6.511e-17 
   3496.416   2.923e-17 
   3497.479   2.221e-18 
   3498.543  -6.645e-18 
   3499.607    3.77e-17 
    3500.67  -2.485e-18 
   3501.735   3.397e-17 
   3502.799  -3.642e-17 
   3503.863   2.144e-17 
   3504.927  -2.204e-17 
   3505.991   6.812e-17 
   3507.056   3.321e-17 
    3508.12  -2.784e-17 
   3509.184  -2.014e-17 
   3510.249  -9.391e-19 
   3511.313   2.478e-17 
   3512.377   1.255e-17 
   3513.442   3.015e-17 
   3514.507  -1.247e-17 
   3515.572  -3.937e-17 
   3516.636   1.707e-17 
   3517.701  -3.605e-19 
   3518.766   4.344e-17 
   3519.831   3.821e-17 
   3520.895   1.961e-17 
    3521.96   7.274e-18 
   3523.026  -2.614e-17 
    3524.09   1.824e-17 
   3525.155   1.356e-17 
   3526.221  -9.411e-18 
   3527.286   3.132e-17 
   3528.351  -2.196e-17 
   3529.416   2.663e-17 
   3530.482   5.189e-18 
   3531.547   6.861e-17 
   3532.612     8.9e-18 
   3533.678  -1.102e-18 
   3534.743  -8.203e-18 
   3535.808   2.472e-17 
   3536.874  -1.729e-17 
    3537.94   2.774e-17 
   3539.006  -1.893e-17 
   3540.071   6.044e-18 
   3541.137    -5.1e-17 
   3542.203   -1.05e-17 
   3543.268  -8.862e-18 
   3544.334   1.649e-17 
   3545.401   1.598e-17 
   3546.467  -8.811e-18 
   3547.532   3.098e-17 
   3548.599  -1.804e-17 
   3549.665  -2.172e-17 
   3550.732   7.771e-18 
   3551.797   3.311e-17 
   3552.864   5.357e-17 
    3553.93  -2.843e-17 
   3554.996   5.017e-17 
   3556.063   9.087e-18 
   3557.129   3.254e-17 
   3558.196   4.543e-17 
   3559.262   2.845e-17 
   3560.329    1.68e-17 
   3561.396  -8.099e-17 
   3562.463   3.888e-17 
   3563.529   3.881e-17 
   3564.596    3.24e-17 
   3565.663   -4.96e-17 
   3566.729   4.403e-17 
   3567.796  -2.397e-17 
   3568.863   3.588e-17 
   3569.931   -2.85e-17 
   3570.997   5.994e-18 
   3572.064   1.513e-17 
   3573.132  -3.746e-17 
   3574.199   4.799e-17 
   3575.266  -3.416e-18 
   3576.333   1.957e-17 
   3577.401  -3.049e-17 
   3578.468  -2.372e-17 
   3579.535  -8.276e-18 
   3580.603  -1.068e-17 
   3581.671   5.586e-19 
   3582.738   6.423e-18 
   3583.806   3.102e-17 
   3584.873   2.626e-17 
    3585.94  -4.425e-19 
   3587.008   7.978e-18 
   3588.076   6.933e-18 
   3589.145   1.871e-17 
   3590.212   1.207e-17 
    3591.28   4.714e-17 
   3592.348   1.252e-17 
   3593.416   3.163e-17 
   3594.484    4.64e-17 
   3595.552   1.489e-17 
    3596.62   1.734e-17 
   3597.688  -1.925e-17 
   3598.756   6.595e-17 
   3599.825    2.07e-17 
   3600.894   3.816e-17 
   3601.961   9.851e-18 
    3603.03   2.062e-17 
   3604.099   4.454e-17 
   3605.167    1.67e-17 
   3606.235   2.372e-17 
   3607.304  -3.305e-17 
   3608.373  -1.513e-17 
   3609.441   4.233e-17 
    3610.51  -1.622e-17 
   3611.579  -2.259e-17 
   3612.648  -2.276e-17 
   3613.716   4.242e-17 
   3614.785   1.576e-17 
   3615.854   4.594e-17 
   3616.922   9.764e-19 
   3617.992  -1.111e-18 
   3619.061   4.028e-17 
    3620.13   8.447e-18 
   3621.199  -1.449e-18 
   3622.268    3.83e-17 
   3623.338  -1.782e-18 
   3624.407   3.001e-17 
   3625.476   7.601e-18 
   3626.546   2.406e-18 
   3627.615   3.155e-17 
   3628.684   1.194e-18 
   3629.754   5.286e-17 
   3630.823   3.007e-17 
   3631.893   5.493e-17 
   3632.962   1.632e-17 
   3634.032   3.032e-17 
   3635.102  -2.084e-17 
   3636.172   8.647e-18 
   3637.241   5.248e-17 
   3638.311   1.183e-17 
   3639.381  -2.173e-17 
   3640.451  -4.458e-17 
   3641.521    1.57e-17 
   3642.591   3.737e-17 
   3643.661   1.912e-17 
   3644.731   6.034e-17 
   3645.801   4.512e-17 
   3646.871   9.455e-19 
   3647.941  -2.068e-17 
   3649.011   1.674e-17 
   3650.082   -9.07e-18 
   3651.153   1.914e-17 
   3652.222  -1.821e-17 
   3653.293   5.738e-17 
   3654.364   7.825e-17 
   3655.434   7.819e-18 
   3656.504   3.152e-17 
   3657.575   1.414e-17 
   3658.646  -1.299e-17 
   3659.716   1.639e-17 
   3660.787   1.364e-17 
   3661.858   8.451e-17 
   3662.929   4.401e-17 
   3663.999   7.112e-18 
    3665.07   -1.88e-17 
   3666.141   1.496e-17 
   3667.213  -9.491e-18 
   3668.283   1.661e-17 
   3669.354   4.566e-17 
   3670.426   3.116e-17 
   3671.496   6.016e-18 
   3672.567    1.59e-17 
   3673.639   1.562e-17 
    3674.71    2.37e-17 
   3675.781  -1.708e-17 
   3676.852   3.252e-17 
   3677.924   3.607e-17 
   3678.995   2.208e-17 
   3680.066   2.883e-17 
   3681.138   7.757e-18 
    3682.21   4.002e-17 
   3683.281  -2.439e-18 
   3684.353  -1.162e-17 
   3685.425   3.679e-17 
   3686.497   2.119e-18 
   3687.568   7.159e-18 
    3688.64   2.411e-17 
   3689.712   1.533e-17 
   3690.783   1.825e-17 
   3691.855   1.867e-17 
   3692.927   1.702e-17 
   3693.999   5.565e-18 
   3695.071  -1.885e-17 
   3696.143   1.836e-17 
   3697.215   7.283e-18 
   3698.287   2.616e-19 
   3699.359  -3.478e-18 
   3700.432   1.438e-17 
   3701.504  -9.005e-18 
   3702.576   7.002e-18 
   3703.648   2.846e-17 
   3704.721  -1.886e-17 
   3705.794  -1.425e-17 
   3706.865   6.856e-18 
   3707.938   1.792e-17 
   3709.011   3.009e-18 
   3710.083   1.464e-17 
   3711.156   4.984e-17 
   3712.229   3.636e-17 
   3713.301  -2.123e-17 
   3714.373   2.165e-17 
   3715.446    2.21e-17 
    3716.52  -3.286e-17 
   3717.592   9.647e-18 
   3718.665  -3.049e-18 
   3719.738   2.836e-17 
   3720.811   2.376e-17 
   3721.883  -7.313e-18 
   3722.957      -7e-18 
    3724.03  -4.288e-19 
   3725.103   4.663e-17 
   3726.176   -1.42e-17 
   3727.249   1.559e-17 
   3728.323  -3.103e-18 
   3729.395   -5.75e-19 
   3730.469   2.202e-17 
   3731.543  -2.932e-17 
   3732.616  -1.232e-17 
   3733.689   1.905e-18 
   3734.763  -1.326e-18 
   3735.836  -1.338e-17 
   3736.909  -1.299e-17 
   3737.983   1.469e-17 
   3739.057   3.156e-17 
   3740.131  -8.914e-19 
   3741.204   2.785e-17 
   3742.278  -2.932e-17 
   3743.352   2.528e-17 
   3744.426   3.673e-17 
   3745.499   2.854e-17 
   3746.573  -1.468e-17 
   3747.647   6.015e-18 
   3748.721  -3.985e-17 
   3749.795  -3.177e-17 
   3750.869   2.247e-17 
   3751.943  -1.205e-17 
   3753.017  -1.227e-17 
   3754.091   2.694e-17 
   3755.166  -1.311e-17 
   3756.239   -4.54e-18 
   3757.314   3.542e-17 
   3758.388  -2.299e-18 
   3759.463   8.841e-20 
   3760.536  -1.761e-17 
   3761.611   8.996e-18 
   3762.686  -4.039e-18 
    3763.76   5.626e-17 
   3764.834   1.182e-17 
   3765.909   1.688e-17 
   3766.984  -1.557e-18 
   3768.058  -7.645e-18 
   3769.133  -6.871e-18 
   3770.208  -1.349e-17 
   3771.283   1.152e-17 
   3772.357  -5.835e-18 
   3773.432   1.985e-17 
   3774.507   2.238e-17 
   3775.581  -1.208e-17 
   3776.656  -2.256e-20 
   3777.732   -9.16e-18 
   3778.807    3.38e-18 
   3779.881  -8.141e-20 
   3780.957   9.931e-18 
   3782.032  -2.208e-17 
   3783.106   8.903e-18 
   3784.182   1.688e-17 
   3785.257   5.754e-18 
   3786.333   2.745e-17 
   3787.407   1.096e-17 
   3788.483   7.227e-18 
   3789.558  -2.441e-18 
   3790.634   2.573e-18 
   3791.709   2.712e-17 
   3792.785   3.171e-17 
    3793.86  -1.718e-17 
   3794.935   8.365e-18 
   3796.011   1.401e-18 
   3797.087    -1.4e-17 
   3798.163   1.811e-17 
   3799.238   1.728e-17 
   3800.314  -5.381e-19 
    3801.39   1.641e-17 
   3802.465   1.426e-17 
   3803.541    2.53e-17 
   3804.617   3.304e-17 
   3805.693     1.2e-17 
   3806.768   1.231e-17 
   3807.845   3.542e-17 
   3808.921   4.298e-17 
   3809.996   1.325e-17 
   3811.072  -1.052e-17 
   3812.149  -2.174e-18 
   3813.225  -9.467e-18 
   3814.301   6.154e-18 
   3815.377  -8.548e-18 
   3816.454   1.821e-17 
    3817.53   1.984e-18 
   3818.606   1.427e-17 
   3819.682   4.084e-20 
   3820.759   1.826e-17 
   3821.835   2.259e-17 
   3822.911   3.152e-18 
   3823.988   2.207e-17 
   3825.065  -4.491e-18 
   3826.141   2.166e-18 
   3827.218   7.131e-18 
   3828.294   2.748e-17 
    3829.37  -6.449e-18 
   3830.447   8.973e-18 
   3831.524  -6.548e-18 
   3832.601   2.237e-17 
   3833.677   2.647e-17 
   3834.755   3.399e-17 
   3835.832   2.597e-17 
   3836.908  -6.846e-18 
   3837.985   4.863e-17 
   3839.062   1.857e-17 
    3840.14   3.927e-18 
   3841.216    8.02e-18 
   3842.293   -7.46e-18 
   3843.371   9.465e-19 
   3844.448    2.24e-17 
   3845.524    2.44e-17 
   3846.602   2.197e-17 
   3847.679   -1.76e-17 
   3848.756   1.687e-17 
   3849.833   2.141e-17 
   3850.911   1.146e-17 
   3851.989   7.299e-18 
   3853.065  -1.754e-17 
   3854.143  -3.902e-18 
   3855.221   3.821e-17 
   3856.298   2.558e-17 
   3857.375   3.325e-17 
   3858.453   1.175e-17 
   3859.531   3.069e-17 
   3860.608   1.596e-17 
   3861.686   1.478e-17 
   3862.764    2.05e-17 
   3863.841    4.19e-17 
   3864.919   3.378e-17 
   3865.997   4.134e-17 
   3867.075  -1.734e-18 
   3868.152   9.552e-18 
    3869.23   2.566e-17 
   3870.309    5.93e-18 
   3871.387   1.349e-17 
   3872.464  -5.228e-18 
   3873.542   1.215e-17 
   3874.621   2.372e-17 
   3875.698   2.201e-17 
   3876.776   2.734e-17 
   3877.855   1.322e-17 
   3878.933   9.096e-18 
   3880.011   2.399e-17 
   3881.089   2.792e-17 
   3882.168    2.41e-17 
   3883.245   1.902e-17 
   3884.324   5.039e-17 
   3885.403   2.185e-17 
   3886.481   2.969e-17 
   3887.559   1.028e-17 
   3888.638   4.317e-18 
   3889.717   3.012e-17 
   3890.794   1.067e-17 
   3891.873   4.184e-17 
   3892.952   5.063e-17 
   3894.031   1.181e-17 
   3895.109   1.837e-17 
   3896.188   1.927e-17 
   3897.267  -1.225e-17 
   3898.345   1.916e-17 
   3899.424   6.544e-18 
   3900.503   2.887e-17 
   3901.582   3.584e-17 
    3902.66   2.784e-17 
    3903.74   9.793e-18 
   3904.819   1.102e-17 
   3905.898   1.621e-18 
   3906.976   2.689e-17 
   3908.056   2.965e-17 
   3909.135   4.065e-18 
   3910.213   4.487e-17 
   3911.293   1.964e-17 
   3912.372   4.865e-17 
   3913.452    3.52e-17 
    3914.53   1.263e-17 
    3915.61   2.361e-17 
   3916.689   2.775e-17 
   3917.768   1.777e-17 
   3918.847   2.987e-17 
   3919.927   1.476e-17 
   3921.007   2.443e-17 
   3922.086   1.502e-17 
   3923.165   3.086e-17 
   3924.245  -5.064e-18 
   3925.324   2.963e-18 
   3926.404   2.562e-17 
   3927.484   1.524e-17 
   3928.563   1.456e-17 
   3929.642    3.72e-17 
   3930.722   4.502e-17 
   3931.802   3.183e-17 
   3932.881    1.76e-17 
   3933.961   2.792e-17 
   3935.041   1.178e-17 
   3936.121   2.484e-17 
   3937.201   5.321e-18 
   3938.281   1.988e-17 
   3939.361   1.237e-17 
   3940.441   3.658e-17 
    3941.52  -4.982e-18 
   3942.601   3.279e-17 
   3943.681   1.099e-17 
    3944.76   3.345e-17 
   3945.841   2.648e-17 
   3946.921   2.215e-17 
   3948.002   2.824e-17 
   3949.081   2.354e-17 
   3950.162   3.948e-17 
   3951.242   1.718e-17 
   3952.322     2.4e-17 
   3953.402   2.215e-17 
   3954.483   4.384e-17 
   3955.563   3.578e-17 
   3956.643   3.189e-17 
   3957.724   6.507e-18 
   3958.804   7.431e-18 
   3959.884   2.581e-17 
   3960.965   3.626e-17 
   3962.046    3.04e-17 
   3963.127  -6.009e-18 
   3964.207   2.035e-17 
   3965.287   2.271e-17 
   3966.368   8.484e-18 
   3967.448   3.868e-18 
   3968.529   2.627e-17 
    3969.61   1.157e-17 
   3970.691   1.401e-17 
   3971.771   3.562e-17 
   3972.852   1.538e-17 
   3973.934   6.205e-18 
   3975.015   3.151e-17 
   3976.095   2.626e-17 
   3977.176    2.08e-17 
   3978.257   2.604e-17 
   3979.338   1.835e-17 
   3980.419   4.702e-18 
     3981.5   -5.43e-19 
   3982.582   1.726e-17 
   3983.662   1.157e-17 
   3984.743   1.508e-17 
   3985.825   1.095e-17 
   3986.905   2.007e-17 
   3987.987   1.694e-17 
   3989.068   1.128e-17 
    3990.15   2.167e-18 
    3991.23   5.938e-18 
   3992.312   2.239e-17 
   3993.394   1.242e-18 
   3994.474     1.2e-17 
   3995.556   1.332e-17 
   3996.638  -1.845e-17 
   3997.719   2.128e-17 
     3998.8   1.187e-17 
   3999.882   8.086e-19 
   4000.964   3.721e-17 
   4002.045   2.981e-17 
   4003.126   4.537e-17 
   4004.208   1.725e-17 
    4005.29   2.953e-17 
   4006.371   1.431e-17 
   4007.453   3.039e-17 
   4008.535   1.756e-17 
   4009.616   1.815e-17 
   4010.698   4.246e-17 
    4011.78   1.987e-17 
   4012.862    2.12e-17 
   4013.944   2.326e-17 
   4015.026   7.765e-18 
   4016.108   1.532e-17 
   4017.189   5.116e-18 
   4018.271   5.786e-18 
   4019.354   5.466e-19 
   4020.436   2.383e-17 
   4021.517  -5.912e-18 
     4022.6   2.397e-17 
   4023.682   2.101e-17 
   4024.764   6.121e-18 
   4025.846   2.536e-19 
   4026.928   1.566e-17 
   4028.011   6.661e-19 
   4029.092  -8.768e-18 
   4030.175   3.084e-17 
   4031.257   2.184e-17 
    4032.34   5.674e-18 
   4033.421   2.524e-17 
   4034.504   3.527e-17 
   4035.587    1.11e-17 
   4036.668   2.566e-17 
   4037.751   3.257e-17 
   4038.834   2.061e-18 
   4039.917    3.13e-17 
   4040.998   7.377e-18 
   4042.081   2.379e-17 
   4043.164   3.168e-17 
   4044.246   1.227e-17 
   4045.329    1.83e-17 
   4046.412    5.25e-17 
   4047.495   2.006e-17 
   4048.577  -1.355e-17 
    4049.66  -1.664e-18 
   4050.743   2.077e-17 
   4051.825   1.407e-17 
   4052.908   1.142e-17 
   4053.991    4.08e-17 
   4055.074    3.39e-17 
   4056.156   3.908e-17 
   4057.239   3.614e-17 
   4058.323   1.857e-17 
   4059.405    2.38e-17 
   4060.488   3.053e-18 
   4061.571   3.347e-17 
   4062.655   1.806e-17 
   4063.737   4.278e-17 
    4064.82   2.833e-17 
   4065.904   3.391e-17 
   4066.986   2.973e-18 
   4068.069   8.393e-18 
   4069.153   1.594e-17 
   4070.236   3.826e-17 
   4071.319   1.756e-17 
   4072.402    1.57e-17 
   4073.486   2.504e-17 
   4074.568   2.465e-17 
   4075.652   2.194e-17 
   4076.735   1.872e-17 
   4077.819   5.214e-17 
   4078.902   5.998e-17 
   4079.985   3.249e-17 
   4081.069   4.225e-17 
   4082.152   2.104e-17 
   4083.236   3.398e-17 
   4084.319   2.172e-17 
   4085.403   1.681e-17 
   4086.486   4.696e-17 
    4087.57   3.857e-17 
   4088.654   1.321e-17 
   4089.738   2.172e-17 
    4090.82   1.006e-17 
   4091.904   1.171e-17 
   4092.988   2.681e-17 
   4094.071   1.851e-17 
   4095.155   2.278e-17 
   4096.239   2.692e-17 
   4097.323   2.859e-17 
   4098.407   3.027e-17 
   4099.491     2.8e-17 
   4100.575   1.126e-17 
   4101.658   4.207e-17 
   4102.742   3.736e-17 
   4103.826   8.348e-18 
    4104.91   5.077e-17 
   4105.994   2.422e-17 
   4107.078   3.558e-17 
   4108.162   3.735e-17 
   4109.246   4.071e-17 
    4110.33   3.302e-17 
   4111.414   1.086e-17 
   4112.499   1.458e-17 
   4113.582   1.539e-17 
   4114.666   3.424e-17 
   4115.751   2.765e-17 
   4116.834   5.577e-17 
   4117.919   6.703e-18 
   4119.003   5.032e-17 
   4120.088   4.575e-17 
   4121.171   2.583e-17 
   4122.256   4.102e-17 
    4123.34   2.945e-17 
   4124.424   2.544e-17 
   4125.509   3.214e-17 
   4126.593   2.566e-17 
   4127.678   3.375e-17 
   4128.762   2.545e-17 
   4129.847   2.395e-17 
   4130.931   2.646e-17 
   4132.015   3.896e-17 
     4133.1   3.577e-17 
   4134.185   2.233e-17 
   4135.269   5.762e-17 
   4136.353   3.344e-17 
   4137.438   4.076e-17 
   4138.523   4.799e-17 
   4139.607   2.301e-17 
   4140.692   2.716e-17 
   4141.777   2.928e-17 
   4142.862   3.195e-17 
   4143.946   2.765e-17 
   4145.031   3.753e-17 
   4146.116   8.436e-18 
     4147.2   3.317e-17 
   4148.285   3.277e-17 
    4149.37   3.285e-17 
   4150.455   1.989e-17 
    4151.54   5.853e-17 
   4152.625   3.559e-17 
    4153.71    4.49e-17 
   4154.794   4.743e-17 
   4155.879   5.821e-17 
   4156.965   3.366e-17 
    4158.05   2.893e-17 
   4159.134   9.415e-18 
   4160.219   2.166e-17 
   4161.305   4.048e-17 
   4162.389   3.105e-19 
   4163.475   3.369e-17 
    4164.56   2.888e-17 
   4165.645   2.549e-17 
    4166.73   3.277e-17 
   4167.815   1.382e-17 
   4168.901   3.131e-17 
   4169.985   3.901e-17 
   4171.071   2.484e-17 
   4172.156   5.054e-17 
   4173.242   3.597e-17 
   4174.326   3.533e-17 
   4175.412   2.107e-17 
   4176.498   5.782e-18 
   4177.582   4.641e-17 
   4178.668   1.493e-17 
   4179.754   3.601e-17 
   4180.839   2.757e-17 
   4181.924    3.66e-17 
    4183.01   9.529e-18 
   4184.096   3.071e-17 
    4185.18   2.028e-17 
   4186.266   4.117e-17 
   4187.352   4.089e-17 
   4188.438   9.114e-18 
   4189.523   3.102e-17 
   4190.608   1.397e-17 
   4191.694   1.917e-17 
   4192.779   2.658e-17 
   4193.865   4.086e-17 
   4194.951    3.02e-17 
   4196.037    1.96e-17 
   4197.122   2.666e-17 
   4198.208   2.294e-17 
   4199.294   3.353e-17 
   4200.379   4.216e-17 
   4201.465     2.8e-17 
   4202.551   3.427e-17 
   4203.637   1.792e-17 
   4204.723   1.378e-17 
   4205.809   1.596e-17 
   4206.895   3.623e-17 
   4207.981   4.207e-17 
   4209.066   1.341e-17 
   4210.152   2.712e-17 
   4211.239   1.946e-17 
   4212.324   1.958e-17 
    4213.41   3.258e-17 
   4214.496   1.261e-17 
   4215.583   4.295e-17 
   4216.668    3.64e-17 
   4217.754   1.828e-17 
   4218.841   1.604e-17 
   4219.926   1.924e-17 
   4221.013   3.036e-17 
   4222.099   2.657e-17 
   4223.185  -6.285e-18 
   4224.271   2.268e-17 
   4225.357   4.627e-17 
   4226.444   4.087e-17 
   4227.529   1.335e-17 
   4228.616   2.484e-17 
   4229.702  -5.368e-18 
   4230.789   1.301e-17 
   4231.874   3.549e-18 
   4232.961  -7.461e-18 
   4234.048  -1.363e-18 
   4235.133   4.102e-17 
    4236.22   4.307e-17 
   4237.307   3.121e-17 
   4238.393   1.394e-17 
   4239.479   4.271e-17 
   4240.566   2.863e-17 
   4241.652   2.802e-17 
   4242.738   2.166e-17 
   4243.825   3.573e-17 
   4244.912   3.079e-17 
   4245.998   2.061e-17 
   4247.084   1.126e-17 
   4248.171    2.89e-17 
   4249.258   2.617e-17 
   4250.344   2.432e-17 
   4251.431   2.066e-17 
   4252.518   1.393e-17 
   4253.605   1.503e-17 
    4254.69   1.077e-17 
   4255.777  -2.608e-18 
   4256.864   1.301e-17 
    4257.95   3.511e-17 
   4259.037   2.642e-17 
   4260.124   -1.63e-17 
   4261.211  -3.921e-18 
   4262.297   1.878e-17 
   4263.384   3.575e-17 
   4264.472   1.702e-17 
   4265.558   -5.44e-18 
   4266.645   9.915e-19 
   4267.732    2.09e-17 
   4268.819   2.249e-17 
   4269.905  -9.108e-18 
   4270.992  -6.499e-18 
    4272.08   2.289e-17 
   4273.166   3.373e-17 
   4274.253   2.115e-17 
    4275.34   3.572e-17 
   4276.427   1.724e-17 
   4277.514   3.262e-17 
   4278.601   2.468e-17 
   4279.688   2.732e-17 
   4280.775   1.815e-17 
   4281.862   3.034e-17 
   4282.949   4.666e-18 
   4284.037   2.268e-17 
   4285.123   1.477e-17 
    4286.21    2.04e-17 
   4287.298   2.771e-18 
   4288.384   3.271e-18 
   4289.472   2.117e-17 
   4290.559   2.057e-17 
   4291.647       3e-18 
   4292.733  -2.513e-19 
   4293.821   1.923e-17 
   4294.908   9.278e-18 
   4295.995   4.162e-17 
   4297.082   3.386e-17 
    4298.17   1.664e-17 
   4299.257   3.424e-17 
   4300.344   1.564e-17 
   4301.431   1.445e-17 
   4302.519   3.248e-17 
   4303.606    3.13e-17 
   4304.693   2.265e-17 
   4305.781   1.717e-17 
   4306.869   1.843e-17 
   4307.955  -4.738e-18 
   4309.043    1.72e-17 
   4310.131   1.411e-17 
   4311.217   3.765e-17 
   4312.305   1.823e-17 
   4313.393   2.784e-17 
   4314.481   2.972e-17 
   4315.568   3.458e-17 
   4316.655   2.425e-17 
   4317.743   1.807e-17 
    4318.83   5.224e-17 
   4319.918   2.589e-17 
   4321.006   4.742e-18 
   4322.094   2.427e-17 
    4323.18   2.475e-17 
   4324.268    2.37e-17 
   4325.356    2.65e-17 
   4326.443   1.666e-17 
   4327.531   2.939e-17 
   4328.619   2.041e-17 
   4329.707    8.75e-18 
   4330.794   5.098e-17 
   4331.882   4.316e-17 
    4332.97   1.888e-17 
   4334.057   1.206e-17 
   4335.145   2.307e-17 
   4336.233   1.576e-17 
   4337.321   3.347e-17 
   4338.408  -1.385e-17 
   4339.496    3.24e-17 
   4340.584   2.606e-17 
   4341.672   2.415e-17 
    4342.76   3.801e-17 
   4343.848   1.642e-17 
   4344.935    7.18e-18 
   4346.023   4.128e-17 
   4347.111   2.583e-17 
   4348.199   5.687e-17 
   4349.287   1.452e-17 
   4350.375    5.42e-17 
   4351.463   2.797e-17 
    4352.55   2.095e-17 
   4353.639   4.382e-18 
   4354.727    1.13e-17 
   4355.815   5.658e-18 
   4356.902   2.722e-18 
   4357.991  -2.023e-17 
   4359.079   1.845e-17 
   4360.166   3.767e-17 
   4361.255   1.297e-17 
   4362.343   2.644e-18 
   4363.431   1.763e-17 
   4364.519   3.466e-17 
   4365.607   5.579e-18 
   4366.696   7.956e-18 
   4367.783   8.815e-18 
   4368.871   3.416e-17 
    4369.96   8.418e-18 
   4371.048   4.388e-17 
   4372.136   1.814e-17 
   4373.224   4.729e-17 
   4374.313   1.019e-17 
     4375.4   9.133e-18 
   4376.489   1.654e-18 
   4377.577   3.454e-17 
   4378.666   2.491e-17 
   4379.753    3.02e-17 
   4380.842   3.484e-17 
    4381.93   2.008e-17 
   4383.018   1.754e-17 
   4384.106   4.278e-17 
   4385.195   3.131e-17 
   4386.284   2.634e-17 
   4387.371   1.978e-17 
    4388.46   4.014e-17 
   4389.548  -1.771e-19 
   4390.636  -8.888e-18 
   4391.725   2.402e-17 
   4392.813   1.157e-17 
   4393.902   4.918e-17 
    4394.99   2.358e-17 
   4396.079   2.157e-17 
   4397.167    4.22e-18 
   4398.255   2.137e-17 
   4399.344   3.715e-17 
   4400.432   4.874e-17 
   4401.521   2.185e-17 
   4402.609   3.787e-17 
   4403.698   2.431e-17 
   4404.787   6.572e-18 
   4405.874    2.66e-17 
   4406.963   1.654e-17 
   4408.052   1.537e-18 
   4409.141  -6.055e-18 
   4410.229   1.246e-17 
   4411.317   8.734e-18 
   4412.406    3.15e-17 
   4413.494   4.963e-18 
   4414.583   1.487e-17 
   4415.672   3.477e-18 
   4416.761   4.208e-17 
   4417.849   4.848e-17 
   4418.938   3.896e-17 
   4420.027   9.445e-18 
   4421.114   2.004e-17 
   4422.203   2.342e-17 
   4423.292   1.525e-17 
   4424.381   9.943e-18 
   4425.469   2.971e-17 
   4426.558   1.193e-17 
   4427.647   2.301e-17 
   4428.735  -6.482e-18 
   4429.824    2.89e-17 
   4430.913   2.728e-17 
   4432.002   3.496e-17 
    4433.09   3.763e-17 
   4434.179   3.761e-17 
   4435.268    3.15e-17 
   4436.357   2.133e-17 
   4437.446    1.03e-17 
   4438.535   3.104e-17 
   4439.624   1.952e-17 
   4440.712   5.389e-17 
   4441.801   2.266e-17 
    4442.89  -3.742e-18 
   4443.978   3.283e-17 
   4445.067   2.923e-17 
   4446.157   2.475e-17 
   4447.246   7.026e-19 
   4448.334   3.004e-17 
   4449.423   1.866e-17 
   4450.512   4.254e-17 
     4451.6   4.109e-17 
    4452.69   2.855e-17 
   4453.779   4.366e-17 
   4454.868    8.87e-18 
   4455.956   1.232e-17 
   4457.045  -5.076e-18 
   4458.135   3.023e-17 
   4459.223   1.067e-18 
   4460.312   7.335e-18 
   4461.401   3.755e-17 
   4462.491   8.255e-18 
   4463.579   4.497e-17 
   4464.668   4.889e-17 
   4465.758   3.099e-17 
   4466.846   2.208e-17 
   4467.935   1.305e-17 
   4469.024    4.44e-17 
   4470.114   3.656e-17 
   4471.202   9.778e-18 
   4472.291   5.082e-18 
   4473.381   1.132e-17 
   4474.469   2.226e-17 
   4475.559    3.39e-17 
   4476.648   1.951e-17 
   4477.736   1.829e-17 
   4478.826   9.187e-18 
   4479.915   3.712e-17 
   4481.004   2.832e-17 
   4482.093   1.142e-17 
   4483.182    3.39e-17 
   4484.272   2.656e-17 
    4485.36  -9.302e-18 
   4486.449   4.125e-17 
   4487.539   9.753e-18 
   4488.628   1.007e-17 
   4489.717    2.48e-17 
   4490.806   1.022e-17 
   4491.896   1.776e-17 
   4492.984   2.612e-17 
   4494.074    1.38e-17 
   4495.163   1.269e-17 
   4496.253   3.891e-17 
   4497.341   2.631e-17 
   4498.431   6.855e-18 
    4499.52   3.609e-17 
   4500.609   1.124e-17 
   4501.698   1.995e-17 
   4502.788   2.629e-17 
   4503.877   3.013e-17 
   4504.966    4.97e-17 
   4506.055    1.05e-17 
   4507.145   1.175e-17 
   4508.234   1.117e-17 
   4509.323   2.981e-17 
   4510.413   2.708e-17 
   4511.502    2.61e-17 
   4512.591   5.776e-17 
    4513.68   2.099e-17 
    4514.77     5.7e-17 
   4515.859   3.651e-17 
   4516.948   3.701e-17 
   4518.038   4.009e-17 
   4519.127   3.525e-17 
   4520.216   2.547e-17 
   4521.306   3.501e-17 
   4522.395   2.123e-17 
   4523.484     5.8e-17 
   4524.574  -8.056e-18 
   4525.663   3.164e-17 
   4526.753   3.705e-17 
   4527.842   4.038e-17 
   4528.931   4.316e-17 
   4530.021   8.356e-18 
    4531.11   4.303e-17 
   4532.199   2.235e-17 
   4533.289   2.027e-17 
   4534.379   4.077e-17 
   4535.467   2.043e-17 
   4536.557   2.134e-17 
   4537.647   2.815e-17 
   4538.735    3.03e-17 
   4539.825   4.241e-17 
   4540.915    2.37e-17 
   4542.005   3.035e-17 
   4543.093   3.789e-17 
   4544.183    5.66e-17 
   4545.273   5.948e-17 
   4546.362   3.345e-17 
   4547.451   1.886e-17 
   4548.541   5.126e-18 
   4549.631   2.077e-17 
    4550.72   3.991e-17 
   4551.809   2.014e-17 
   4552.899   1.386e-17 
   4553.988   7.942e-18 
   4555.078   4.017e-17 
   4556.167   5.366e-17 
   4557.256   3.746e-17 
   4558.346   1.052e-17 
   4559.436   7.266e-18 
   4560.526   3.027e-17 
   4561.614   1.513e-18 
   4562.704   2.588e-17 
   4563.794   9.562e-18 
   4564.883   2.078e-17 
   4565.973   2.403e-17 
   4567.062   9.163e-18 
   4568.152   3.614e-17 
   4569.241   1.862e-17 
   4570.331   2.731e-17 
   4571.421    2.73e-17 
    4572.51   3.443e-17 
   4573.599   7.561e-18 
   4574.689  -6.643e-18 
   4575.779   1.883e-17 
   4576.868   5.499e-18 
   4577.958   3.118e-17 
   4579.048   4.538e-17 
   4580.137  -3.198e-18 
   4581.226   3.118e-17 
   4582.316   7.197e-18 
   4583.406   1.905e-17 
   4584.495   1.984e-17 
   4585.585   4.758e-17 
   4586.675   2.503e-17 
   4587.764   5.101e-17 
   4588.854   3.601e-17 
   4589.943   2.719e-17 
   4591.033   2.035e-17 
   4592.122   1.676e-17 
   4593.212   4.389e-17 
   4594.302   1.406e-17 
   4595.391   2.143e-17 
   4596.481   2.871e-17 
   4597.571   1.522e-17 
   4598.661   3.103e-17 
    4599.75   3.253e-17 
   4600.839   1.812e-17 
   4601.929   7.676e-18 
   4603.018   4.512e-17 
   4604.108   9.414e-18 
   4605.198   2.309e-17 
   4606.288   1.975e-17 
   4607.377   2.187e-17 
   4608.467   2.778e-17 
   4609.557   1.649e-17 
   4610.646   1.221e-17 
   4611.736   2.333e-17 
   4612.826   8.181e-18 
   4613.916   1.401e-17 
   4615.004   2.482e-17 
   4616.094   2.473e-17 
   4617.184   3.378e-17 
   4618.273    1.16e-17 
   4619.363   4.648e-17 
   4620.453   2.522e-17 
   4621.543   2.032e-17 
   4622.632   7.855e-18 
   4623.722    1.92e-17 
   4624.812   3.178e-17 
   4625.901   1.066e-17 
   4626.991   1.303e-17 
   4628.081   1.945e-17 
    4629.17   2.132e-17 
    4630.26   3.139e-17 
    4631.35   3.771e-17 
    4632.44   1.017e-17 
   4633.529   2.648e-17 
   4634.618   1.584e-17 
   4635.708   6.752e-18 
   4636.797   3.642e-17 
   4637.887   2.461e-17 
   4638.977   3.089e-17 
   4640.067   3.903e-17 
   4641.156   3.093e-17 
   4642.246  -5.086e-19 
   4643.336   1.588e-17 
   4644.425    3.79e-17 
   4645.515   6.745e-18 
   4646.605   1.554e-17 
   4647.695   3.891e-17 
   4648.784   1.581e-17 
   4649.874   2.508e-17 
   4650.964    4.57e-17 
   4652.053   2.483e-17 
   4653.143    2.46e-17 
   4654.233   3.448e-17 
   4655.323   4.034e-17 
   4656.412   2.454e-17 
   4657.502   3.756e-17 
   4658.592   2.206e-17 
   4659.681   1.174e-17 
    4660.77   4.945e-17 
    4661.86   2.553e-17 
    4662.95   2.456e-17 
   4664.039   2.916e-17 
   4665.129   3.072e-17 
   4666.219   1.999e-17 
   4667.308   2.581e-18 
   4668.398  -4.834e-18 
   4669.488   2.778e-17 
   4670.578   2.395e-17 
   4671.667   3.189e-17 
   4672.757   1.741e-17 
   4673.847   1.963e-17 
   4674.936   3.994e-17 
   4676.026   2.065e-17 
   4677.116   2.839e-17 
   4678.206   1.478e-17 
   4679.295   2.842e-17 
   4680.385    2.09e-17 
   4681.475    1.78e-17 
   4682.564   1.732e-17 
   4683.654   4.605e-17 
   4684.743    2.73e-17 
   4685.832   8.483e-18 
   4686.922   5.124e-17 
   4688.012   2.692e-17 
   4689.102    2.11e-17 
   4690.191   1.767e-17 
   4691.281   2.015e-17 
   4692.371   1.772e-17 
    4693.46    2.42e-17 
    4694.55   9.685e-18 
    4695.64   2.085e-17 
    4696.73   1.904e-17 
   4697.819   1.339e-17 
   4698.909   4.432e-17 
   4699.998   3.174e-17 
   4701.087    1.27e-17 
   4702.177   1.621e-17 
   4703.267   1.607e-17 
   4704.357   1.555e-17 
   4705.446   3.822e-18 
   4706.536   2.412e-17 
   4707.626   2.986e-17 
   4708.715   2.799e-17 
   4709.805   1.015e-17 
   4710.895   2.213e-17 
   4711.984   3.126e-17 
   4713.073   1.995e-17 
   4714.163   3.222e-18 
   4715.253   1.788e-17 
   4716.342   9.239e-18 
   4717.432   2.716e-17 
   4718.522   3.746e-17 
   4719.612   1.085e-17 
   4720.701    2.96e-17 
    4721.79   2.222e-17 
    4722.88   1.825e-17 
   4723.969   3.554e-17 
   4725.059   1.865e-17 
   4726.149   1.944e-17 
   4727.239   3.516e-17 
   4728.328   2.531e-17 
   4729.417   3.098e-17 
   4730.507   1.839e-17 
   4731.596   2.194e-17 
   4732.686   1.498e-17 
   4733.776   1.883e-17 
   4734.866   2.633e-17 
   4735.954   1.099e-17 
   4737.044   2.731e-17 
   4738.134    2.28e-17 
   4739.223   1.754e-17 
   4740.313     1.8e-18 
   4741.403   3.019e-17 
   4742.491   1.005e-17 
   4743.581   6.222e-18 
   4744.671   1.477e-17 
   4745.761   1.362e-17 
    4746.85   1.972e-17 
   4747.939   1.165e-17 
   4749.029   4.042e-17 
   4750.118    2.29e-17 
   4751.208   3.674e-17 
   4752.297   1.994e-17 
   4753.387    2.17e-17 
   4754.476   2.382e-17 
   4755.566   2.025e-17 
   4756.656   2.483e-17 
   4757.744   2.076e-17 
   4758.834   2.628e-17 
   4759.924   2.792e-17 
   4761.014    1.52e-17 
   4762.102    2.43e-17 
   4763.192   2.326e-17 
   4764.282    2.61e-17 
    4765.37   4.436e-17 
    4766.46   4.177e-17 
    4767.55   3.018e-17 
    4768.64   2.083e-17 
   4769.728   3.779e-17 
   4770.818   2.688e-17 
   4771.908   2.351e-17 
   4772.996   1.714e-17 
   4774.086   4.259e-17 
   4775.176   3.084e-17 
   4776.265   4.644e-18 
   4777.354   3.577e-17 
   4778.444   2.845e-17 
   4779.533   4.442e-17 
   4780.622  -2.149e-20 
   4781.712   1.691e-17 
   4782.801   4.422e-17 
   4783.891   3.548e-17 
    4784.98   7.733e-18 
   4786.069  -4.377e-19 
   4787.159   3.032e-17 
   4788.247   5.174e-17 
   4789.337   8.853e-18 
   4790.427   2.192e-18 
   4791.515   1.969e-17 
   4792.605   2.931e-17 
   4793.694   4.032e-17 
   4794.784   1.213e-17 
   4795.873   3.041e-17 
   4796.962    1.91e-17 
   4798.052   1.591e-17 
    4799.14   3.291e-17 
    4800.23   1.501e-17 
   4801.319   2.325e-17 
   4802.409    8.82e-18 
   4803.497    2.68e-17 
   4804.587   1.678e-17 
   4805.676   1.753e-17 
   4806.765   1.773e-17 
   4807.854    2.85e-17 
   4808.944   4.007e-19 
   4810.033   2.113e-17 
   4811.122   3.959e-18 
   4812.211   1.661e-17 
   4813.301    2.46e-17 
   4814.389   2.974e-17 
   4815.479   3.102e-17 
   4816.568   2.955e-17 
   4817.658   2.298e-17 
   4818.746   2.026e-17 
   4819.836    1.42e-17 
   4820.925   3.108e-17 
   4822.013   2.854e-17 
   4823.103   1.748e-17 
   4824.192   1.792e-17 
   4825.282   5.563e-17 
    4826.37   3.222e-17 
   4827.459   2.933e-17 
   4828.549   2.839e-17 
   4829.637   2.622e-17 
   4830.727   7.483e-19 
   4831.816   1.915e-17 
   4832.905   3.232e-17 
   4833.994   2.196e-17 
   4835.083   3.833e-17 
   4836.172    3.07e-17 
   4837.261   4.418e-17 
    4838.35   1.857e-17 
   4839.439   3.263e-17 
   4840.527   1.008e-17 
   4841.617   4.768e-17 
   4842.706   1.577e-17 
   4843.795    3.61e-17 
   4844.884   2.103e-17 
   4845.973   3.091e-17 
   4847.062   3.128e-17 
    4848.15   2.061e-17 
   4849.239   3.473e-17 
   4850.329   2.124e-17 
   4851.418   2.158e-17 
   4852.506   2.841e-17 
   4853.595   2.931e-17 
   4854.685   3.287e-17 
   4855.773   1.185e-17 
   4856.862   4.433e-17 
   4857.951   3.692e-17 
    4859.04   3.893e-17 
   4860.128    1.76e-17 
   4861.217   1.546e-17 
   4862.307   3.883e-17 
   4863.395   3.115e-17 
   4864.484   2.913e-17 
   4865.573   4.183e-17 
   4866.662   6.641e-18 
    4867.75   1.788e-17 
   4868.839   2.823e-17 
   4869.928   3.385e-17 
   4871.016   1.677e-17 
   4872.105   1.708e-17 
   4873.194   3.002e-17 
   4874.283   2.552e-17 
   4875.371   2.738e-17 
    4876.46   1.739e-17 
   4877.549   3.329e-17 
   4878.637    2.11e-17 
   4879.726   2.928e-17 
   4880.815   4.832e-17 
   4881.904   9.265e-18 
   4882.992   3.715e-18 
   4884.081   2.732e-17 
    4885.17   2.755e-17 
   4886.258   3.711e-17 
   4887.347   5.174e-17 
   4888.436   1.194e-17 
   4889.524   3.188e-17 
   4890.613   2.574e-17 
   4891.702   3.252e-17 
    4892.79   2.898e-17 
   4893.878   3.253e-17 
   4894.967   2.709e-17 
   4896.056   2.305e-17 
   4897.144   3.003e-17 
   4898.233   3.388e-17 
   4899.321   1.785e-17 
    4900.41   2.094e-17 
   4901.498   8.464e-18 
   4902.587   3.788e-17 
   4903.676   6.775e-18 
   4904.763   2.772e-17 
   4905.852   3.886e-17 
   4906.941   2.219e-17 
    4908.03   1.563e-17 
   4909.117   2.471e-17 
   4910.206   1.918e-17 
   4911.295   3.112e-17 
   4912.382   3.802e-17 
   4913.471    3.19e-17 
    4914.56   2.069e-17 
   4915.648   2.653e-17 
   4916.736    1.83e-17 
   4917.825   1.873e-17 
   4918.913    2.72e-17 
   4920.001   2.074e-17 
   4921.089   1.893e-17 
   4922.178   3.325e-17 
   4923.267    2.93e-17 
   4924.354   3.765e-17 
   4925.443   3.604e-17 
   4926.531   2.719e-17 
   4927.619   3.282e-17 
   4928.707   1.506e-17 
   4929.796   2.706e-17 
   4930.884   3.325e-17 
   4931.972   2.053e-17 
    4933.06   3.622e-17 
   4934.149   1.855e-17 
   4935.236    4.05e-17 
   4936.324   2.364e-17 
   4937.413   1.494e-17 
     4938.5   3.615e-18 
   4939.589   2.901e-17 
   4940.677   1.992e-17 
   4941.765   2.762e-17 
   4942.853   2.722e-17 
   4943.941   2.519e-18 
   4945.029   1.609e-17 
   4946.117   3.478e-17 
   4947.205   2.636e-18 
   4948.293   3.284e-17 
   4949.382   1.532e-17 
   4950.469   3.591e-17 
   4951.557    1.72e-17 
   4952.646   1.891e-18 
   4953.733   2.168e-17 
   4954.821   1.683e-17 
   4955.909   2.026e-17 
   4956.997   2.834e-17 
   4958.085   2.845e-17 
   4959.173   2.274e-17 
   4960.261   3.322e-17 
   4961.348   2.809e-17 
   4962.436   3.203e-17 
   4963.524   1.955e-17 
   4964.612    4.39e-17 
     4965.7    8.76e-18 
   4966.788  -3.685e-20 
   4967.876   2.007e-17 
   4968.963    2.15e-17 
   4970.051   5.005e-17 
   4971.139    1.87e-17 
   4972.227   9.311e-18 
   4973.314   1.127e-17 
   4974.402   3.093e-17 
    4975.49   3.882e-17 
   4976.577   2.066e-17 
   4977.665   9.764e-18 
   4978.753   1.401e-17 
   4979.841   3.443e-17 
   4980.928   3.746e-17 
   4982.015   3.311e-17 
   4983.103   5.037e-17 
    4984.19   1.195e-17 
   4985.278   1.134e-17 
   4986.366   3.695e-17 
   4987.453   2.959e-17 
   4988.541   1.754e-17 
   4989.628   3.962e-17 
   4990.716    2.16e-17 
   4991.803   4.496e-17 
   4992.891   2.207e-17 
   4993.978   1.835e-17 
   4995.065   2.693e-17 
   4996.153   3.897e-17 
   4997.241    3.61e-17 
   4998.328    3.18e-17 
   4999.415   3.799e-17 
   5000.503    4.24e-17 
    5001.59   2.124e-17 
   5002.677   3.052e-17 
   5003.764   3.315e-17 
   5004.852   2.088e-17 
    5005.94   3.825e-17 
   5007.026   4.093e-17 
   5008.114   5.694e-18 
   5009.201   2.841e-17 
   5010.288   3.416e-17 
   5011.375   3.956e-17 
   5012.463   1.662e-17 
    5013.55    2.62e-17 
   5014.637   1.657e-17 
   5015.724   3.299e-17 
   5016.812   3.776e-17 
   5017.898   3.462e-17 
   5018.986   2.646e-17 
   5020.073   3.076e-17 
    5021.16   3.308e-17 
   5022.247   2.631e-17 
   5023.334   3.263e-17 
   5024.421   4.009e-17 
   5025.508   1.456e-17 
   5026.595   1.273e-17 
   5027.682   5.217e-17 
    5028.77   3.089e-17 
   5029.856   2.153e-17 
   5030.943   2.754e-17 
    5032.03   2.841e-17 
   5033.116   9.556e-18 
   5034.204   1.646e-17 
   5035.291   3.867e-17 
   5036.377   1.318e-17 
   5037.464   2.513e-17 
   5038.551   3.109e-17 
   5039.638    3.69e-17 
   5040.724   3.001e-17 
   5041.812   2.009e-17 
   5042.899   8.119e-18 
   5043.985   4.292e-17 
   5045.072   2.536e-17 
   5046.159   3.615e-17 
   5047.246   3.954e-17 
   5048.332   2.327e-17 
   5049.419   1.139e-17 
   5050.506     6.8e-18 
   5051.591    1.86e-17 
   5052.678   2.972e-17 
   5053.765    3.25e-17 
   5054.852   1.249e-17 
   5055.938   1.506e-17 
   5057.025   1.166e-17 
   5058.112   2.869e-17 
   5059.198   1.831e-17 
   5060.284   1.598e-17 
   5061.371   1.373e-17 
   5062.458   3.577e-17 
   5063.544   2.046e-17 
    5064.63     3.5e-17 
   5065.717   3.167e-17 
   5066.803   3.004e-17 
   5067.889   4.099e-17 
   5068.976   1.562e-17 
   5070.063   2.327e-17 
   5071.148   3.322e-17 
   5072.235    2.55e-17 
   5073.322   9.125e-18 
   5074.407   2.898e-17 
   5075.494   3.868e-17 
    5076.58   3.715e-17 
   5077.666   8.782e-18 
   5078.752   2.965e-17 
   5079.839   1.111e-17 
   5080.925   2.753e-17 
   5082.011   2.497e-17 
   5083.097    2.34e-17 
   5084.184   6.302e-18 
   5085.269   1.427e-17 
   5086.355   4.576e-17 
   5087.442   2.512e-17 
   5088.528   1.882e-17 
   5089.613   3.717e-17 
     5090.7   4.205e-18 
   5091.786    3.43e-17 
   5092.871    3.68e-17 
   5093.957   1.632e-17 
   5095.044    1.86e-17 
    5096.13   7.831e-18 
   5097.215   2.415e-17 
   5098.301   1.619e-17 
   5099.387   1.901e-17 
   5100.473   3.381e-17 
   5101.559   2.862e-17 
   5102.645   2.804e-17 
   5103.731   2.339e-17 
   5104.816   3.646e-17 
   5105.902    6.62e-18 
   5106.988   2.003e-17 
   5108.073   1.795e-17 
   5109.159   1.977e-17 
   5110.245   5.894e-17 
   5111.331   3.635e-17 
   5112.416   2.044e-17 
   5113.502   4.109e-17 
   5114.588   7.892e-18 
   5115.673   1.088e-17 
   5116.758   2.123e-17 
   5117.844   2.587e-17 
    5118.93   4.263e-17 
   5120.015   2.672e-17 
   5121.101    2.07e-17 
   5122.186   2.157e-17 
   5123.271   2.292e-17 
   5124.357   3.835e-17 
   5125.443   1.354e-17 
   5126.527   3.491e-17 
   5127.613   1.526e-17 
   5128.699   2.141e-17 
   5129.784   2.012e-17 
   5130.869   4.326e-17 
   5131.954   1.102e-17 
    5133.04   2.161e-17 
   5134.124   8.905e-18 
    5135.21   2.862e-17 
   5136.295   2.522e-17 
   5137.381   1.872e-17 
   5138.465   2.582e-17 
   5139.551   2.591e-17 
   5140.636   1.728e-17 
   5141.721   2.475e-17 
   5142.806   1.769e-17 
   5143.891   1.818e-17 
   5144.977   2.312e-17 
   5146.061   3.258e-17 
   5147.146   2.126e-17 
   5148.232   1.926e-17 
   5149.316   2.647e-17 
   5150.401   3.465e-17 
   5151.486   3.319e-17 
   5152.572   4.263e-17 
   5153.656   2.181e-17 
   5154.741   3.639e-17 
   5155.826   6.967e-18 
    5156.91   3.254e-17 
   5157.995   4.118e-17 
    5159.08   2.052e-17 
   5160.165   2.445e-17 
   5161.249   1.841e-17 
   5162.334   2.074e-17 
   5163.419   2.555e-17 
   5164.503   5.919e-18 
   5165.588   3.949e-17 
   5166.673   1.733e-17 
   5167.758   2.451e-17 
   5168.842   2.958e-17 
   5169.927   8.115e-18 
   5171.012   2.215e-17 
   5172.096   3.057e-17 
    5173.18    2.27e-17 
   5174.265   3.417e-17 
   5175.349  -1.234e-18 
   5176.434   2.261e-17 
   5177.518    2.32e-17 
   5178.603   2.929e-17 
   5179.687   3.707e-17 
   5180.771   3.101e-17 
   5181.856    1.62e-17 
   5182.939   3.542e-17 
   5184.024   1.013e-17 
   5185.109    1.83e-17 
   5186.193   2.742e-17 
   5187.277   3.653e-17 
   5188.361   2.911e-17 
   5189.446   6.198e-18 
   5190.529   1.304e-17 
   5191.613   4.297e-18 
   5192.698   4.369e-17 
   5193.782   1.867e-17 
   5194.866   1.185e-17 
    5195.95   2.732e-17 
   5197.034   1.897e-17 
   5198.117   3.983e-17 
   5199.202   1.965e-17 
   5200.286   5.182e-17 
    5201.37   4.043e-17 
   5202.453   3.256e-17 
   5203.538   2.447e-17 
   5204.622    1.85e-18 
   5205.705   2.167e-17 
   5206.789   2.575e-17 
   5207.873   2.054e-17 
   5208.957   3.076e-17 
    5210.04   3.121e-17 
   5211.124   2.984e-17 
   5212.208   2.227e-17 
   5213.291   1.282e-17 
   5214.375   4.539e-17 
   5215.459   5.731e-17 
   5216.543   3.268e-17 
   5217.626     1.7e-17 
   5218.709   3.318e-17 
   5219.793   2.374e-17 
   5220.876   1.781e-17 
    5221.96   2.824e-17 
   5223.044   1.635e-17 
   5224.127   4.315e-17 
    5225.21   3.411e-17 
   5226.294   1.827e-17 
   5227.377   2.749e-17 
    5228.46   4.505e-17 
   5229.544   3.637e-18 
   5230.627   3.622e-17 
    5231.71   2.651e-17 
   5232.793    1.68e-17 
   5233.877   1.834e-17 
    5234.96   2.796e-17 
   5236.043   1.778e-17 
   5237.126   1.269e-17 
    5238.21  -1.782e-18 
   5239.292   9.647e-18 
   5240.375   3.726e-17 
   5241.459   2.839e-17 
   5242.542   1.557e-17 
   5243.624   8.394e-18 
   5244.708   3.591e-17 
   5245.791   4.305e-17 
   5246.873   1.385e-17 
   5247.956   3.514e-17 
   5249.039   2.113e-17 
   5250.123   3.364e-17 
   5251.205   1.835e-17 
   5252.288   3.833e-17 
   5253.371   4.276e-17 
   5254.453   3.183e-17 
   5255.536    2.81e-17 
   5256.619   3.773e-17 
   5257.702   3.219e-17 
   5258.784   1.762e-17 
   5259.867   2.701e-17 
    5260.95    3.15e-17 
   5262.031   7.814e-18 
   5263.114   2.697e-17 
   5264.197   1.924e-17 
    5265.28   2.928e-17 
   5266.362   3.827e-17 
   5267.444   1.757e-17 
   5268.527   1.617e-17 
   5269.609   1.261e-17 
   5270.692    3.43e-17 
   5271.774       2e-17 
   5272.857   3.728e-17 
   5273.938   3.862e-17 
   5275.021   2.076e-17 
   5276.103   1.057e-17 
   5277.185   2.638e-17 
   5278.267   1.474e-17 
    5279.35   2.223e-17 
   5280.431   3.389e-17 
   5281.514   1.009e-17 
   5282.596   3.545e-17 
   5283.678   5.233e-17 
    5284.76   2.257e-17 
   5285.842   2.928e-18 
   5286.924   1.444e-18 
   5288.006   1.419e-17 
   5289.088   3.665e-17 
    5290.17   3.202e-17 
   5291.252   7.666e-18 
   5292.333   3.706e-17 
   5293.415   1.729e-17 
   5294.498   2.665e-17 
   5295.579   2.324e-17 
   5296.661   3.597e-17 
   5297.743   1.039e-17 
   5298.825    4.53e-17 
   5299.906   1.257e-17 
   5300.987   4.869e-17 
   5302.069   2.178e-17 
    5303.15   3.629e-17 
   5304.232   2.657e-17 
   5305.314   1.822e-17 
   5306.396    1.44e-17 
   5307.476   2.391e-17 
   5308.558   2.037e-17 
    5309.64   2.254e-17 
   5310.721   -3.09e-18 
   5311.802   2.177e-17 
   5312.884   3.713e-17 
   5313.965    3.53e-17 
   5315.046   2.042e-17 
   5316.128    3.88e-17 
   5317.209   2.349e-17 
    5318.29   3.376e-17 
   5319.371   2.273e-17 
   5320.452     2.8e-17 
   5321.534   1.096e-17 
   5322.614   2.223e-17 
   5323.696   1.595e-17 
   5324.777   1.801e-17 
   5325.857   4.835e-18 
   5326.938   2.273e-17 
    5328.02  -4.748e-18 
   5329.101   2.332e-17 
   5330.181   2.668e-17 
   5331.262   7.166e-18 
   5332.343   1.676e-17 
   5333.423   2.639e-17 
   5334.505    2.07e-17 
   5335.586   2.521e-17 
   5336.667   4.319e-17 
   5337.747   4.216e-17 
   5338.828   3.637e-17 
   5339.908   1.698e-17 
   5340.988   3.081e-17 
   5342.069   2.299e-17 
    5343.15  -3.183e-18 
    5344.23   2.529e-17 
   5345.311   3.312e-17 
   5346.391  -1.174e-17 
   5347.472    2.45e-17 
   5348.552   2.782e-17 
   5349.633   3.793e-17 
   5350.713   1.366e-17 
   5351.793   2.629e-17 
   5352.873   1.158e-17 
   5353.954   1.139e-19 
   5355.034   1.964e-17 
   5356.114   1.321e-17 
   5357.194   2.091e-17 
   5358.275   2.328e-17 
   5359.354   9.681e-18 
   5360.435   2.968e-17 
   5361.515   1.725e-17 
   5362.595   2.303e-17 
   5363.675   1.261e-17 
   5364.755   2.277e-17 
   5365.835   2.289e-17 
   5366.914   2.802e-17 
   5367.994    1.26e-17 
   5369.075   2.258e-17 
   5370.155   1.515e-17 
   5371.234    2.29e-17 
   5372.314   8.794e-18 
   5373.394   2.389e-17 
   5374.473   2.311e-17 
   5375.553   2.593e-17 
   5376.633   1.434e-17 
   5377.713   3.496e-18 
   5378.791   7.317e-18 
   5379.871   2.108e-17 
   5380.951   2.214e-17 
    5382.03   2.785e-17 
    5383.11   2.665e-17 
   5384.189   7.061e-18 
   5385.269   1.279e-17 
   5386.348   3.173e-17 
   5387.427   1.877e-17 
   5388.507   2.117e-17 
   5389.585   2.607e-17 
   5390.665   1.524e-17 
   5391.744   3.377e-17 
   5392.824   3.741e-17 
   5393.902   1.773e-17 
   5394.982   1.857e-17 
   5396.061   7.919e-18 
   5397.139   1.985e-17 
   5398.219   3.713e-17 
   5399.298   3.167e-17 
   5400.377   2.692e-17 
   5401.456   1.281e-17 
   5402.535   3.065e-17 
   5403.614   2.544e-17 
   5404.692   3.145e-17 
   5405.771   2.824e-17 
    5406.85   1.538e-17 
   5407.928   1.696e-17 
   5409.007   2.935e-17 
   5410.086   3.078e-17 
   5411.165   2.993e-17 
   5412.243    2.75e-17 
   5413.322   2.125e-17 
   5414.401   1.058e-17 
   5415.479    1.83e-17 
   5416.557   5.443e-18 
   5417.636   4.538e-18 
   5418.715   3.183e-17 
   5419.793   3.292e-17 
   5420.871   2.011e-17 
    5421.95   3.542e-18 
   5423.027   8.607e-18 
   5424.106   2.953e-17 
   5425.184   2.844e-17 
   5426.263   1.344e-17 
    5427.34   1.252e-17 
   5428.419   1.193e-17 
   5429.497   1.881e-17 
   5430.575   1.616e-17 
   5431.653   2.637e-17 
   5432.731    1.89e-17 
   5433.809   1.043e-17 
   5434.887   3.091e-17 
   5435.965   2.271e-17 
   5437.043   2.487e-17 
    5438.12   2.908e-17 
   5439.198   3.091e-17 
   5440.276   1.898e-17 
   5441.354    2.14e-17 
   5442.431   2.868e-17 
   5443.509   2.157e-17 
   5444.587   1.819e-17 
   5445.664   3.623e-17 
   5446.742   2.098e-17 
    5447.82   2.269e-17 
   5448.898    1.94e-17 
   5449.975   8.998e-18 
   5451.052   1.827e-17 
    5452.13   2.444e-17 
   5453.207   1.766e-17 
   5454.284   2.972e-17 
   5455.362   2.441e-17 
    5456.44   3.387e-18 
   5457.516   1.102e-17 
   5458.594   2.887e-17 
   5459.671   3.953e-17 
   5460.747   2.649e-17 
   5461.825   2.392e-17 
   5462.902   1.481e-17 
    5463.98   2.576e-17 
   5465.056   1.688e-17 
   5466.133   8.298e-18 
    5467.21  -7.228e-19 
   5468.287   2.053e-17 
   5469.364   1.128e-17 
   5470.441   2.051e-17 
   5471.518   3.523e-17 
   5472.594   3.656e-17 
   5473.671   2.558e-17 
   5474.748   1.309e-17 
   5475.824   1.911e-17 
   5476.901   3.632e-17 
   5477.978   4.453e-17 
   5479.055    2.46e-17 
   5480.131   2.166e-17 
   5481.207    1.76e-17 
   5482.284    2.52e-17 
    5483.36   1.876e-17 
   5484.437    1.66e-17 
   5485.513   1.145e-17 
   5486.589   1.825e-17 
   5487.665   1.549e-17 
   5488.742   1.535e-17 
   5489.818   2.705e-17 
   5490.894   2.584e-17 
    5491.97    2.77e-17 
   5493.047   2.787e-17 
   5494.122   1.536e-17 
   5495.198   7.479e-18 
   5496.275   1.161e-17 
   5497.351   1.881e-17 
   5498.426   3.122e-17 
   5499.502   3.374e-17 
   5500.579   1.381e-17 
   5501.654   2.225e-17 
    5502.73    2.71e-17 
   5503.806   2.221e-17 
   5504.882   3.513e-17 
   5505.957   2.549e-17 
   5507.033    2.18e-17 
   5508.109   3.118e-17 
   5509.184   2.947e-17 
    5510.26   3.239e-17 
   5511.335   3.031e-17 
   5512.411   1.703e-17 
   5513.486   2.776e-17 
   5514.562    2.38e-17 
   5515.637   2.333e-17 
   5516.712   2.589e-17 
   5517.787   2.337e-17 
   5518.863   2.327e-17 
   5519.938   3.089e-17 
   5521.013   3.179e-17 
   5522.088   3.048e-17 
   5523.164   3.188e-17 
   5524.238   2.202e-17 
   5525.314   2.127e-17 
   5526.389    2.86e-17 
   5527.464   2.446e-17 
   5528.538   1.966e-17 
   5529.614   1.595e-17 
   5530.689   1.944e-17 
   5531.763   2.214e-17 
   5532.838   2.712e-17 
   5533.913   2.453e-17 
   5534.988   1.527e-17 
   5536.062   3.088e-17 
   5537.137   2.948e-17 
   5538.212   2.338e-17 
   5539.286   2.848e-17 
    5540.36    2.58e-17 
   5541.435   2.086e-17 
    5542.51   1.386e-17 
   5543.584    2.29e-17 
   5544.658   2.291e-17 
   5545.733   1.212e-17 
   5546.807   2.155e-17 
   5547.881   2.875e-17 
   5548.956   2.023e-17 
    5550.03   2.228e-17 
   5551.104   2.348e-17 
   5552.178   2.501e-17 
   5553.252   1.781e-17 
   5554.326   4.314e-18 
     5555.4   1.431e-17 
   5556.474    2.38e-17 
   5557.549   2.321e-17 
   5559.233   2.804e-17 
   5560.751   1.928e-17 
   5562.269   2.042e-17 
   5563.788   2.724e-17 
   5565.306   1.912e-17 
   5566.825   2.581e-17 
   5568.344   1.837e-17 
   5569.862   1.478e-17 
   5571.381   1.079e-17 
   5572.899   3.058e-17 
   5574.418   2.086e-18 
   5575.937   2.718e-17 
   5577.455   2.538e-17 
   5578.974   7.594e-18 
   5580.492   8.076e-18 
   5582.011   5.339e-17 
   5583.531   2.505e-17 
   5585.049   1.243e-17 
   5586.568    3.12e-17 
   5588.086   1.548e-17 
   5589.606   1.978e-17 
   5591.125   2.522e-17 
   5592.643   2.983e-17 
   5594.163   2.069e-17 
   5595.681   1.349e-17 
     5597.2   2.376e-17 
    5598.72    1.28e-17 
   5600.238   1.217e-17 
   5601.758     3.8e-17 
   5603.276   2.771e-17 
   5604.796   2.141e-17 
   5606.316   2.499e-17 
   5607.834   2.758e-17 
   5609.354   2.165e-17 
   5610.872   1.978e-17 
   5612.392   1.956e-17 
   5613.911   2.419e-17 
    5615.43   2.454e-17 
    5616.95   2.238e-17 
   5618.469   2.743e-17 
   5619.989   1.391e-17 
   5621.508   2.304e-17 
   5623.027   2.354e-17 
   5624.547   3.128e-17 
   5626.066   3.015e-17 
   5627.586    2.38e-17 
   5629.105    2.37e-17 
   5630.625   3.016e-17 
   5632.145   2.587e-17 
   5633.664   1.551e-17 
   5635.184   2.585e-17 
   5636.703   3.244e-17 
   5638.223   3.214e-17 
   5639.743    1.87e-17 
   5641.263   1.538e-17 
   5642.783   1.413e-17 
   5644.302   2.949e-17 
   5645.822   3.387e-17 
   5647.342   1.116e-17 
   5648.862   3.469e-17 
   5650.382   1.373e-17 
   5651.901   2.244e-17 
   5653.422   2.554e-17 
   5654.942   2.746e-17 
   5656.461   1.945e-17 
   5657.982   2.281e-17 
   5659.501   1.467e-17 
   5661.022   1.803e-17 
   5662.541   1.786e-17 
   5664.062   2.039e-17 
   5665.582    1.78e-17 
   5667.102   3.457e-17 
   5668.622   3.076e-17 
   5670.142   2.741e-17 
   5671.663   2.034e-17 
   5673.183   3.087e-17 
   5674.703    1.62e-17 
   5676.224   2.086e-17 
   5677.744   2.579e-17 
   5679.264   2.907e-17 
   5680.785   3.735e-17 
   5682.305    2.04e-17 
   5683.826   2.317e-17 
   5685.346   1.646e-17 
   5686.866   8.582e-18 
   5688.387   9.786e-18 
   5689.907   3.838e-17 
   5691.428   1.224e-17 
   5692.948   3.361e-17 
   5694.469   2.117e-17 
    5695.99   2.538e-17 
    5697.51   2.316e-17 
   5699.031   2.702e-17 
   5700.552   1.611e-17 
   5702.073   1.024e-17 
   5703.593   2.214e-17 
   5705.114   1.301e-17 
   5706.635   2.225e-17 
   5708.155   2.735e-17 
   5709.677   2.142e-17 
   5711.197   1.832e-17 
   5712.718   2.263e-17 
    5714.24   2.311e-17 
    5715.76   2.581e-17 
   5717.281   1.904e-17 
   5718.802    1.53e-17 
   5720.323   1.164e-17 
   5721.845   2.397e-17 
   5723.365   2.556e-17 
   5724.887   2.236e-17 
   5726.407   2.157e-17 
   5727.929   1.077e-17 
    5729.45   2.097e-17 
   5730.971   2.717e-17 
   5732.492   2.466e-17 
   5734.013   2.875e-17 
   5735.535   3.853e-17 
   5737.056   3.664e-17 
   5738.577   3.471e-17 
   5740.099   2.909e-17 
    5741.62   3.527e-18 
   5743.141   2.391e-17 
   5744.662    2.44e-17 
   5746.184   2.902e-17 
   5747.706   2.256e-17 
   5749.227   2.803e-17 
   5750.749   1.833e-17 
    5752.27   2.465e-17 
   5753.792   2.616e-17 
   5755.314   2.801e-17 
   5756.835   2.523e-17 
   5758.357   2.972e-17 
   5759.878   2.701e-17 
     5761.4   2.796e-17 
   5762.922   1.301e-17 
   5764.443   7.355e-18 
   5765.965   2.057e-17 
   5767.486   2.443e-17 
   5769.009   1.071e-17 
   5770.531   2.922e-17 
   5772.052    2.96e-17 
   5773.574   2.854e-17 
   5775.096   2.401e-17 
   5776.618   2.716e-17 
    5778.14   2.107e-17 
   5779.662   2.059e-17 
   5781.184   1.815e-17 
   5782.705   2.413e-17 
   5784.228   1.593e-17 
    5785.75   1.636e-17 
   5787.272   2.248e-17 
   5788.794   2.434e-17 
   5790.316   1.582e-17 
   5791.838   2.395e-17 
    5793.36   2.364e-17 
   5794.882    3.28e-17 
   5796.405   1.441e-17 
   5797.927   2.473e-17 
   5799.449   1.116e-17 
   5800.971   1.599e-17 
   5802.494   2.777e-17 
   5804.017   2.537e-17 
   5805.538   1.671e-17 
   5807.061   3.087e-17 
   5808.583   3.052e-17 
   5810.106   1.541e-17 
   5811.629   2.122e-17 
    5813.15   2.306e-17 
   5814.673   2.559e-17 
   5816.195   1.832e-17 
   5817.718   1.993e-17 
   5819.241   2.251e-17 
   5820.763   2.305e-17 
   5822.286   2.035e-17 
   5823.808   2.317e-17 
   5825.331   3.343e-17 
   5826.854   1.877e-17 
   5828.377   1.979e-17 
     5829.9    2.98e-17 
   5831.422   7.166e-18 
   5832.945   2.973e-17 
   5834.467    8.21e-18 
   5835.991    3.05e-17 
   5837.514   3.134e-17 
   5839.036   2.597e-17 
   5840.559   2.145e-17 
   5842.082   3.371e-17 
   5843.605   2.979e-17 
   5845.128   3.624e-17 
   5846.651    1.82e-17 
   5848.174   2.069e-17 
   5849.697   2.492e-17 
    5851.22    1.85e-17 
   5852.744   2.392e-17 
   5854.266   2.197e-17 
    5855.79   2.681e-17 
   5857.312   1.649e-17 
   5858.836    8.92e-18 
   5860.359   2.683e-17 
   5861.882    2.46e-17 
   5863.406   8.994e-18 
   5864.928   1.698e-17 
   5866.452   2.416e-17 
   5867.975   2.536e-17 
   5869.499   1.725e-17 
   5871.022   3.517e-17 
   5872.545   1.593e-17 
   5874.069   1.777e-17 
   5875.592   1.742e-17 
   5877.116   2.263e-17 
    5878.64   2.344e-17 
   5880.163   2.681e-17 
   5881.686   1.068e-17 
   5883.209   1.471e-17 
   5884.733   9.817e-18 
   5886.257   1.972e-17 
    5887.78   2.135e-17 
   5889.304  -5.851e-18 
   5890.828   2.862e-17 
   5892.352   9.596e-18 
   5893.876   1.005e-17 
   5895.399    1.92e-17 
   5896.923   -1.35e-18 
   5898.446   1.907e-17 
    5899.97   2.751e-17 
   5901.495   1.953e-17 
   5903.018   1.295e-17 
   5904.542   2.885e-17 
   5906.065   2.722e-17 
    5907.59   1.586e-17 
   5909.113   1.572e-17 
   5910.638   1.664e-17 
   5912.162   2.957e-17 
   5913.685   2.075e-17 
    5915.21   2.208e-17 
   5916.733   1.941e-17 
   5918.258   2.231e-17 
   5919.782   1.674e-17 
   5921.306   1.231e-17 
    5922.83   2.315e-17 
   5924.354    2.21e-17 
   5925.878   2.433e-17 
   5927.403   2.006e-17 
   5928.927   2.158e-17 
   5930.451   2.402e-17 
   5931.975   2.733e-17 
     5933.5   2.379e-17 
   5935.025   2.902e-17 
   5936.548   2.088e-17 
   5938.073   2.644e-17 
   5939.597   2.903e-17 
   5941.122   1.994e-17 
   5942.646    2.73e-17 
    5944.17   1.362e-17 
   5945.695   1.647e-17 
   5947.219   1.881e-17 
   5948.744   2.177e-17 
   5950.268   6.985e-18 
   5951.793   1.456e-17 
   5953.318   2.648e-17 
   5954.842   2.133e-17 
   5956.367    2.21e-17 
   5957.891   2.338e-17 
   5959.416   2.577e-17 
   5960.941   2.068e-17 
   5962.466   1.408e-17 
   5963.991   2.983e-17 
   5965.515    1.28e-17 
    5967.04    1.43e-17 
   5968.565   2.736e-17 
    5970.09   7.352e-18 
   5971.615   2.579e-17 
   5973.139   1.674e-17 
   5974.664   2.954e-17 
   5976.189   1.834e-17 
   5977.714   1.651e-17 
    5979.24   2.197e-17 
   5980.764   2.575e-17 
   5982.289   2.399e-17 
   5983.814   1.284e-17 
   5985.339   2.137e-17 
   5986.865   1.597e-17 
   5988.389    2.14e-17 
   5989.915   2.088e-17 
   5991.439   1.386e-17 
   5992.965   1.749e-17 
   5994.491    1.75e-17 
   5996.015   2.165e-17 
   5997.541   1.694e-17 
   5999.066   2.693e-17 
   6000.591   2.637e-17 
   6002.117   1.714e-17 
   6003.642    2.26e-17 
   6005.168   2.108e-17 
   6006.692   1.915e-17 
   6008.218   2.662e-17 
   6009.744   2.098e-17 
   6011.269   1.601e-17 
   6012.795   2.639e-17 
    6014.32   2.292e-17 
   6015.846   1.983e-17 
    6017.37   1.432e-17 
   6018.896   2.667e-17 
   6020.422   1.433e-17 
   6021.947   2.643e-17 
   6023.473   2.031e-17 
   6024.998   1.816e-17 
   6026.525   1.578e-17 
   6028.051   1.978e-17 
   6029.576   1.961e-17 
   6031.102   1.975e-17 
   6032.627   1.984e-17 
   6034.153   1.984e-17 
   6035.679   1.225e-17 
   6037.205   2.497e-17 
   6038.731   1.753e-17 
   6040.256   1.456e-17 
   6041.782   1.219e-17 
   6043.309    2.64e-17 
   6044.834   1.381e-17 
   6046.361   1.352e-17 
   6047.886   4.807e-18 
   6049.412    2.22e-17 
   6050.938   2.144e-17 
   6052.464   1.952e-17 
   6053.991   2.097e-17 
   6055.516   2.488e-17 
   6057.043   1.308e-17 
   6058.568   1.391e-17 
   6060.095   6.016e-18 
   6061.621   2.829e-17 
   6063.147   2.132e-17 
   6064.673    2.33e-17 
   6066.199     1.9e-17 
   6067.726   1.125e-17 
   6069.252   1.606e-17 
   6070.778   2.487e-17 
   6072.305   1.731e-17 
   6073.831    2.19e-17 
   6075.357   1.662e-17 
   6076.884   1.826e-17 
    6078.41   1.874e-17 
   6079.937   1.663e-17 
   6081.463    2.67e-17 
    6082.99   1.854e-17 
   6084.516   2.009e-17 
   6086.042    2.19e-17 
   6087.569   1.504e-17 
   6089.095   1.638e-17 
   6090.622   2.213e-17 
   6092.148   1.755e-17 
   6093.675   1.107e-17 
   6095.202    1.97e-17 
   6096.728   2.906e-17 
   6098.256   1.051e-17 
   6099.782   2.696e-17 
   6101.309   1.251e-17 
   6102.836   1.226e-17 
   6104.362   1.403e-17 
   6105.889   9.188e-18 
   6107.416   1.825e-17 
   6108.943   1.551e-17 
   6110.469   2.073e-17 
   6111.996   1.624e-17 
   6113.524   9.719e-18 
    6115.05   1.451e-17 
   6116.577   1.577e-17 
   6118.104   9.874e-18 
   6119.631    1.62e-17 
   6121.159   1.618e-17 
   6122.685   1.402e-17 
   6124.212   1.139e-17 
   6125.739   1.488e-17 
   6127.266   2.173e-17 
   6128.794   1.187e-17 
    6130.32   1.739e-17 
   6131.848   1.425e-17 
   6133.375   2.353e-17 
   6134.902   1.927e-17 
    6136.43   1.201e-17 
   6137.957   1.174e-17 
   6139.484   1.296e-17 
   6141.011   1.658e-17 
   6142.539   1.866e-17 
   6144.065   8.424e-18 
   6145.593   2.397e-17 
   6147.121   1.354e-17 
   6148.648   1.268e-17 
   6150.175   5.221e-18 
   6151.702   1.657e-17 
    6153.23   1.841e-17 
   6154.758   2.123e-17 
   6156.285   2.161e-17 
   6157.813   2.042e-17 
    6159.34    1.49e-17 
   6160.868   1.947e-17 
   6162.396    1.98e-17 
   6163.923   8.287e-18 
   6165.451   1.808e-17 
   6166.978   1.312e-17 
   6168.506   1.262e-17 
   6170.034   1.319e-17 
   6171.561   7.128e-18 
   6173.089   2.263e-17 
   6174.616   2.399e-17 
   6176.145   2.016e-17 
   6177.672   1.765e-17 
     6179.2    1.34e-17 
   6180.728   1.956e-17 
   6182.255   1.542e-17 
   6183.784   1.522e-17 
   6185.311   1.129e-17 
   6186.839   1.251e-17 
   6188.368   1.274e-17 
   6189.895    2.22e-17 
   6191.423   2.071e-17 
   6192.951   2.141e-17 
   6194.479   1.467e-17 
   6196.008   1.172e-17 
   6197.535   1.328e-17 
   6199.064   8.617e-18 
   6200.591   1.306e-17 
    6202.12    1.56e-17 
   6203.647   1.387e-17 
   6205.176   1.042e-17 
   6206.704   1.153e-17 
   6208.232    2.88e-17 
   6209.761   2.217e-17 
   6211.288   1.579e-17 
   6212.817   1.597e-17 
   6214.346    1.59e-17 
   6215.873   1.482e-17 
   6217.402   2.883e-17 
    6218.93   1.019e-17 
   6220.459   2.585e-17 
   6221.987   2.661e-17 
   6223.515   1.595e-17 
   6225.044     2.3e-17 
   6226.572   1.747e-17 
   6228.101   1.235e-17 
    6229.63   2.654e-17 
   6231.158   2.077e-17 
   6232.687   2.103e-17 
   6234.215   1.292e-17 
   6235.744   1.983e-17 
   6237.272    1.49e-17 
   6238.801   1.717e-17 
    6240.33   1.205e-17 
   6241.858   1.184e-17 
   6243.387   1.964e-17 
   6244.915   1.715e-17 
   6246.444   2.518e-17 
   6247.973   1.129e-17 
   6249.501   1.838e-17 
    6251.03   2.222e-17 
   6252.559   3.098e-17 
   6254.088   2.691e-17 
   6255.617   1.484e-17 
   6257.145   1.034e-17 
   6258.675   1.881e-17 
   6260.203   1.626e-17 
   6261.732   1.193e-17 
   6263.261    1.25e-17 
    6264.79    1.49e-17 
   6266.319    1.56e-17 
   6267.848   2.142e-17 
   6269.377   1.046e-17 
   6270.906    1.45e-17 
   6272.435    2.74e-17 
   6273.965   1.608e-17 
   6275.493     1.9e-17 
   6277.023    6.54e-18 
   6278.551   1.736e-17 
   6280.081   2.435e-17 
    6281.61   2.282e-17 
   6283.139   2.298e-17 
   6284.669   2.927e-17 
   6286.197   1.842e-17 
   6287.727   1.173e-17 
   6289.257   2.602e-17 
   6290.785   1.322e-17 
   6292.315   2.201e-17 
   6293.844   2.544e-17 
   6295.374   1.418e-17 
   6296.902   2.293e-17 
   6298.432    1.46e-17 
   6299.962   1.208e-17 
   6301.491   1.287e-17 
   6303.021   1.717e-17 
    6304.55    3.31e-17 
    6306.08   2.607e-17 
   6307.609    1.68e-17 
   6309.138   1.822e-17 
   6310.668   1.649e-17 
   6312.197   1.576e-17 
   6313.727    1.87e-17 
   6315.257    1.88e-17 
   6316.786   1.601e-17 
   6318.316    2.27e-17 
   6319.846   2.447e-17 
   6321.376   1.834e-17 
   6322.905     2.3e-17 
   6324.435   2.232e-17 
   6325.965   2.115e-17 
   6327.494   1.908e-17 
   6329.025   1.041e-17 
   6330.554   2.095e-17 
   6332.084   1.667e-17 
   6333.614   1.344e-17 
   6335.144   2.031e-17 
   6336.674   2.647e-17 
   6338.203   1.421e-17 
   6339.734   1.909e-17 
   6341.264   2.186e-17 
   6342.793   1.915e-17 
   6344.324   1.203e-17 
   6345.853   2.268e-17 
   6347.384   1.881e-17 
   6348.913   2.181e-17 
   6350.443   2.449e-17 
   6351.974    1.61e-17 
   6353.503   2.796e-17 
   6355.034   1.367e-17 
   6356.564   2.432e-17 
   6358.094     2.8e-17 
   6359.625   1.709e-17 
   6361.154   2.767e-17 
   6362.685   2.608e-17 
   6364.215   1.786e-17 
   6365.745   1.529e-17 
   6367.276   2.238e-17 
   6368.806   1.411e-17 
   6370.337   1.641e-17 
   6371.866   2.345e-17 
   6373.397   1.902e-17 
   6374.928   2.235e-17 
   6376.458   2.941e-17 
   6377.988   1.737e-17 
   6379.518   2.204e-17 
   6381.049   2.608e-17 
   6382.579   2.028e-17 
    6384.11   2.078e-17 
   6385.641   2.178e-17 
   6387.171   2.784e-17 
   6388.702   1.919e-17 
   6390.232   2.202e-17 
   6391.763   2.851e-17 
   6393.294   2.252e-17 
   6394.824   2.353e-17 
   6396.355    3.01e-17 
   6397.885   2.091e-17 
   6399.416   2.006e-17 
   6400.947   1.477e-17 
   6402.477   2.534e-17 
   6404.009   2.527e-17 
   6405.539   2.299e-17 
    6407.07    2.08e-17 
     6408.6   2.271e-17 
   6410.131   1.764e-17 
   6411.663   1.597e-17 
   6413.193    2.31e-17 
   6414.724   2.707e-17 
   6416.255   2.716e-17 
   6417.786   1.894e-17 
   6419.317   2.849e-17 
   6420.848   1.601e-17 
   6422.379   1.604e-17 
   6423.909   2.789e-17 
   6425.441   2.297e-17 
   6426.972   2.699e-17 
   6428.503   2.813e-17 
   6430.034   2.249e-17 
   6431.565    2.21e-17 
   6433.096   2.198e-17 
   6434.627   3.136e-17 
   6436.158   1.632e-17 
    6437.69   1.949e-17 
   6439.221   2.729e-17 
   6440.752   2.499e-17 
   6442.283    2.45e-17 
   6443.814    2.03e-17 
   6445.346   2.315e-17 
   6446.877   1.893e-17 
   6448.409    1.97e-17 
   6449.939   2.264e-17 
   6451.471   3.196e-17 
   6453.003   2.792e-17 
   6454.534   2.272e-17 
   6456.065   2.252e-17 
   6457.596   2.354e-17 
   6459.128   2.327e-17 
   6460.659   2.503e-17 
   6462.191   2.683e-17 
   6463.723   2.587e-17 
   6465.254   2.061e-17 
   6466.786    1.22e-17 
   6468.317   2.453e-17 
   6469.848   2.462e-17 
    6471.38   2.092e-17 
   6472.911   2.426e-17 
   6474.444   2.508e-17 
   6475.975   2.679e-17 
   6477.507   1.821e-17 
   6479.039   2.304e-17 
    6480.57   2.271e-17 
   6482.102   1.885e-17 
   6483.633   2.066e-17 
   6485.165   3.173e-17 
   6486.696   2.578e-17 
   6488.229   1.901e-17 
   6489.761   2.327e-17 
   6491.292   2.878e-17 
   6492.824   1.665e-17 
   6494.356   1.968e-17 
   6495.888   1.923e-17 
    6497.42   2.992e-17 
   6498.952   3.442e-17 
   6500.484   2.505e-17 
   6502.015   1.692e-17 
   6503.548    2.36e-17 
    6505.08   2.267e-17 
   6506.611   2.029e-17 
   6508.144   2.102e-17 
   6509.675    1.95e-17 
   6511.208   2.414e-17 
   6512.739   2.439e-17 
   6514.272   1.677e-17 
   6515.804    1.74e-17 
   6517.336   2.307e-17 
   6518.869   1.748e-17 
     6520.4   2.234e-17 
   6521.933   2.327e-17 
   6523.465    2.95e-17 
   6524.997   2.853e-17 
    6526.53   2.118e-17 
   6528.061   2.162e-17 
   6529.594   1.242e-17 
   6531.127   1.455e-17 
   6532.658   3.027e-17 
   6534.191    2.51e-17 
   6535.723   1.665e-17 
   6537.256   2.341e-17 
   6538.788   2.545e-17 
    6540.32   1.492e-17 
   6541.853   2.118e-17 
   6543.385   2.563e-17 
   6544.918   1.988e-17 
    6546.45   1.365e-17 
   6547.983   2.083e-17 
   6549.516   2.601e-17 
   6551.048   2.175e-17 
   6552.581   1.651e-17 
   6554.113   2.067e-17 
   6555.646    2.15e-17 
   6557.179   2.201e-17 
   6558.711   2.061e-17 
   6560.244   1.986e-17 
   6561.776   1.805e-17 
   6563.309   1.974e-17 
   6564.841   1.629e-17 
   6566.374   1.578e-17 
   6567.907   2.361e-17 
    6569.44   2.436e-17 
   6570.973   1.243e-17 
   6572.505   1.795e-17 
   6574.038   2.351e-17 
   6575.571   2.672e-17 
   6577.104   2.528e-17 
   6578.637   1.947e-17 
   6580.169   1.766e-17 
   6581.703   1.726e-17 
   6583.236   2.009e-17 
   6584.768   1.775e-17 
   6586.302   1.628e-17 
   6587.834   2.654e-17 
   6589.367   1.861e-17 
     6590.9   2.897e-17 
   6592.433   2.546e-17 
   6593.967   2.574e-17 
   6595.499   2.548e-17 
   6597.033   3.464e-17 
   6598.565   3.563e-17 
   6600.099   2.439e-17 
   6601.632   2.406e-17 
   6603.165   1.922e-17 
   6604.698   1.825e-17 
   6606.231   2.054e-17 
   6607.765   1.931e-17 
   6609.298   9.273e-18 
   6610.831   2.146e-17 
   6612.364   2.473e-17 
   6613.897   1.722e-17 
   6615.431   2.268e-17 
   6616.964   1.771e-17 
   6618.497   1.741e-17 
   6620.031   2.045e-17 
   6621.564   1.993e-17 
   6623.098   1.582e-17 
    6624.63   1.743e-17 
   6626.164   1.695e-17 
   6627.698   1.534e-17 
   6629.231    1.82e-17 
   6630.765   2.216e-17 
   6632.298   1.958e-17 
   6633.832    2.17e-17 
   6635.366   1.543e-17 
   6636.899   1.974e-17 
   6638.433   1.795e-17 
   6639.965   1.604e-17 
   6641.499   1.576e-17 
   6643.033   1.374e-17 
   6644.567   1.937e-17 
   6646.101   1.836e-17 
   6647.634   1.993e-17 
   6649.168    1.46e-17 
   6650.701   1.959e-17 
   6652.235   1.585e-17 
   6653.769   1.958e-17 
   6655.302   1.821e-17 
   6656.836   1.853e-17 
    6658.37   2.322e-17 
   6659.904   1.711e-17 
   6661.438   7.793e-18 
   6662.971   2.167e-17 
   6664.506   2.475e-17 
   6666.039   2.068e-17 
   6667.573   1.747e-17 
   6669.106    1.86e-17 
   6670.641   1.336e-17 
   6672.175   1.777e-17 
   6673.709   1.423e-17 
   6675.243   1.091e-17 
   6676.776   1.807e-17 
   6678.311   1.974e-17 
   6679.845   1.794e-17 
   6681.379   1.213e-17 
   6682.913   1.496e-17 
   6684.447   1.152e-17 
   6685.981   1.494e-17 
   6687.515   1.448e-17 
   6689.049   2.056e-17 
   6690.584   1.529e-17 
   6692.117   1.201e-17 
   6693.652   1.441e-17 
   6695.185   1.754e-17 
    6696.72   1.323e-17 
   6698.255   1.815e-17 
   6699.788   1.751e-17 
   6701.323   1.471e-17 
   6702.857   1.249e-17 
   6704.391   2.045e-17 
   6705.926   1.611e-17 
    6707.46   1.754e-17 
   6708.995   1.783e-17 
   6710.528   1.931e-17 
   6712.063    1.25e-17 
   6713.597   1.765e-17 
   6715.132   8.909e-18 
   6716.667   1.563e-17 
   6718.201   1.485e-17 
   6719.735   1.245e-17 
   6721.269   1.853e-17 
   6722.804   1.548e-17 
   6724.339   1.673e-17 
   6725.873   1.583e-17 
   6727.408   1.142e-17 
   6728.942   1.821e-17 
   6730.477   2.102e-17 
   6732.012   1.313e-17 
   6733.546   2.049e-17 
   6735.081   7.223e-18 
   6736.615   2.298e-17 
    6738.15   1.369e-17 
   6739.684   1.913e-17 
   6741.219    1.69e-17 
   6742.755   1.091e-17 
   6744.289   1.812e-17 
   6745.824   1.803e-17 
   6747.358   2.292e-17 
   6748.893   1.316e-17 
   6750.428   9.961e-18 
   6751.963   1.781e-17 
   6753.498   1.972e-17 
   6755.032   1.558e-17 
   6756.567   2.027e-17 
   6758.102   1.848e-17 
   6759.637   1.798e-17 
   6761.172   1.988e-17 
   6762.707   1.708e-17 
   6764.242   1.714e-17 
   6765.776   1.422e-17 
   6767.312   2.332e-17 
   6768.847   1.232e-17 
   6770.382   1.955e-17 
   6771.917   1.763e-17 
   6773.452   1.449e-17 
   6774.987   2.261e-17 
   6776.523   1.815e-17 
   6778.057   1.619e-17 
   6779.593   1.537e-17 
   6781.127   1.599e-17 
   6782.663   2.654e-17 
   6784.197   1.735e-17 
   6785.733   1.688e-17 
   6787.269   2.339e-17 
   6788.803   1.074e-17 
   6790.339   9.964e-18 
   6791.873   1.177e-17 
   6793.409   2.091e-17 
   6794.945   2.333e-17 
   6796.479   2.077e-17 
   6798.015   1.933e-17 
    6799.55   2.255e-17 
   6801.086   1.726e-17 
   6802.621   2.464e-17 
   6804.156   1.422e-17 
   6805.692   2.085e-17 
   6807.227    1.44e-17 
   6808.763   1.834e-17 
   6810.298   2.379e-17 
   6811.833   1.522e-17 
   6813.369   1.951e-17 
   6814.904   1.513e-17 
    6816.44   1.961e-17 
   6817.975   1.698e-17 
   6819.511   2.099e-17 
   6821.047   1.851e-17 
   6822.582   1.106e-17 
   6824.118   1.793e-17 
   6825.653   1.854e-17 
   6827.189   1.599e-17 
   6828.724   1.528e-17 
    6830.26   1.784e-17 
   6831.796   1.641e-17 
   6833.331   1.329e-17 
   6834.867   1.733e-17 
   6836.403   1.068e-17 
   6837.939   1.801e-17 
   6839.475   2.297e-17 
    6841.01     2.3e-17 
   6842.546   2.173e-17 
   6844.081   1.981e-17 
   6845.618   1.004e-17 
   6847.154   1.258e-17 
   6848.689    2.11e-17 
   6850.225   2.409e-17 
   6851.761   1.697e-17 
   6853.297   2.154e-17 
   6854.832   1.448e-17 
   6856.369   2.231e-17 
   6857.905   1.744e-17 
    6859.44   2.251e-17 
   6860.977   1.993e-17 
   6862.512   1.961e-19 
   6864.049   2.374e-17 
   6865.585    2.13e-17 
    6867.12   1.091e-17 
   6868.657   1.985e-17 
   6870.192   1.421e-17 
   6871.729    6.63e-18 
   6873.265   1.229e-17 
   6874.801   2.204e-17 
   6876.337    1.87e-17 
   6877.873   1.665e-17 
    6879.41   2.162e-17 
   6880.945   1.572e-17 
   6882.482   9.237e-18 
   6884.018   1.751e-17 
   6885.554   2.659e-17 
   6887.091   1.351e-17 
   6888.626   8.556e-18 
   6890.163   1.552e-17 
     6891.7   1.161e-17 
   6893.235   8.202e-18 
   6894.772   1.236e-17 
   6896.308   1.387e-17 
   6897.845   1.463e-17 
    6899.38   1.861e-17 
   6900.917   1.529e-17 
   6902.454   1.004e-17 
    6903.99   1.656e-17 
   6905.527   1.407e-17 
   6907.062   1.325e-17 
   6908.599   1.765e-17 
   6910.136   1.712e-17 
   6911.672   2.239e-17 
   6913.209   1.749e-17 
   6914.745    2.15e-17 
   6916.282   1.533e-17 
   6917.819   1.005e-17 
   6919.355   9.164e-18 
   6920.892   1.667e-17 
   6922.428   1.478e-17 
   6923.965   1.688e-17 
   6925.501   9.733e-18 
   6927.038   2.064e-17 
   6928.575   1.683e-17 
   6930.111   1.882e-17 
   6931.648   2.062e-17 
   6933.184   1.684e-17 
   6934.721    1.85e-17 
   6936.259   1.862e-17 
   6937.795   1.812e-17 
   6939.332   2.089e-17 
   6940.868   1.572e-17 
   6942.405   9.906e-18 
   6943.941   1.541e-17 
   6945.479   1.221e-17 
   6947.016   1.701e-17 
   6948.552   1.715e-17 
   6950.089   1.509e-17 
   6951.626   1.864e-17 
   6953.163   1.451e-17 
     6954.7   1.086e-17 
   6956.237   1.599e-17 
   6957.774   1.444e-17 
    6959.31   2.408e-17 
   6960.848   1.481e-17 
   6962.385   1.309e-17 
   6963.922   1.783e-17 
   6965.459       2e-17 
   6966.996   1.337e-17 
   6968.533    1.55e-17 
    6970.07   1.863e-17 
   6971.607   1.264e-17 
   6973.145   1.589e-17 
   6974.681   1.392e-17 
   6976.219   7.692e-18 
   6977.755   1.613e-17 
   6979.293   1.629e-17 
    6980.83   2.424e-17 
   6982.367   1.391e-17 
   6983.904   1.993e-17 
   6985.441   1.714e-17 
   6986.979   9.489e-18 
   6988.515   2.106e-17 
   6990.053   2.069e-17 
   6991.591    2.02e-17 
   6993.127    1.36e-17 
   6994.665   1.381e-17 
   6996.202   1.672e-17 
    6997.74   2.679e-17 
   6999.277   1.947e-17 
   7000.814   1.303e-17 
   7002.352   3.501e-17 
   7003.889   1.709e-17 
   7005.427   1.955e-17 
   7006.964   1.218e-17 
   7008.501   1.368e-17 
   7010.039   8.842e-18 
   7011.576    1.43e-17 
   7013.114   1.313e-17 
   7014.651   1.552e-17 
   7016.189   2.124e-17 
   7017.727   1.433e-17 
   7019.264   9.946e-18 
   7020.802   1.597e-17 
   7022.339   2.169e-17 
   7023.877   1.805e-17 
   7025.415   1.748e-17 
   7026.952   1.618e-17 
    7028.49   1.223e-17 
   7030.027   1.453e-17 
   7031.565   2.812e-17 
   7033.102   1.252e-17 
    7034.64   1.552e-17 
   7036.178   1.503e-17 
   7037.715   1.681e-17 
   7039.253    1.32e-17 
    7040.79   1.389e-17 
   7042.329   1.912e-17 
   7043.867   1.729e-17 
   7045.404   1.444e-17 
   7046.942   1.618e-17 
   7048.479   1.822e-17 
   7050.018   1.608e-17 
   7051.555   1.259e-17 
   7053.093    1.91e-17 
   7054.632   1.586e-17 
   7056.169   1.834e-17 
   7057.707   2.253e-17 
   7059.244   2.098e-17 
   7060.783   1.444e-17 
   7062.321   1.637e-17 
   7063.859   2.006e-17 
   7065.397   1.893e-17 
   7066.934   1.819e-17 
   7068.473   1.767e-17 
   7070.011   1.857e-17 
   7071.549   1.746e-17 
   7073.087   2.136e-17 
   7074.625   1.778e-17 
   7076.163   1.673e-17 
   7077.701   1.444e-17 
   7079.239    1.84e-17 
   7080.778   1.273e-17 
   7082.315    1.65e-17 
   7083.854   7.896e-18 
   7085.391   1.223e-17 
    7086.93   1.759e-17 
   7088.468   1.524e-17 
   7090.006   1.054e-17 
   7091.545   1.351e-17 
   7093.082   9.192e-18 
   7094.621   1.032e-17 
   7096.159   1.218e-17 
   7097.697   9.942e-18 
   7099.236   1.332e-17 
   7100.774   1.362e-17 
   7102.312   1.715e-17 
    7103.85   1.479e-17 
   7105.389    1.16e-17 
   7106.928   1.461e-17 
   7108.466   1.712e-17 
   7110.004   1.892e-17 
   7111.542   1.123e-17 
   7113.081   1.393e-17 
    7114.62   1.099e-17 
   7116.158   1.193e-17 
   7117.697   1.389e-17 
   7119.234   1.879e-17 
   7120.773   1.494e-17 
   7122.311    1.12e-17 
    7123.85   1.678e-17 
   7125.389   1.857e-17 
   7126.927   1.032e-17 
   7128.466   1.265e-17 
   7130.004   2.355e-17 
   7131.543   1.171e-17 
   7133.082   1.862e-17 
    7134.62   1.508e-17 
   7136.159   1.265e-17 
   7137.697   1.345e-17 
   7139.236   1.513e-17 
   7140.774    1.33e-17 
   7142.313   1.655e-17 
   7143.852   1.707e-17 
   7145.391   1.758e-17 
    7146.93   2.004e-17 
   7148.468   1.133e-17 
   7150.007   1.492e-17 
   7151.546   1.284e-17 
   7153.084   1.746e-17 
   7154.624   1.605e-17 
   7156.162   7.333e-18 
   7157.701   1.956e-17 
   7159.239   1.516e-17 
   7160.778   1.832e-17 
   7162.318   1.226e-17 
   7163.856   1.346e-17 
   7165.395     1.7e-17 
   7166.934   1.284e-17 
   7168.473   1.637e-17 
   7170.012   1.065e-17 
   7171.551   8.526e-18 
    7173.09   2.098e-17 
   7174.628    1.53e-17 
   7176.168   1.172e-17 
   7177.707   1.311e-17 
   7179.246   1.365e-17 
   7180.785   1.924e-17 
   7182.323    9.93e-18 
   7183.863   1.497e-17 
   7185.401   1.136e-17 
   7186.941   1.316e-17 
    7188.48   1.049e-17 
   7190.019   1.443e-17 
   7191.558   1.475e-17 
   7193.097   1.438e-17 
   7194.636   1.839e-17 
   7196.176   1.249e-17 
   7197.715    1.32e-17 
   7199.254   1.353e-17 
   7200.793   1.863e-17 
   7202.332   1.592e-17 
   7203.871   1.715e-17 
   7205.411   1.328e-17 
    7206.95   1.957e-17 
   7208.489   1.499e-17 
   7210.029   1.615e-17 
   7211.567   1.757e-17 
   7213.107   1.021e-17 
   7214.647   1.531e-17 
   7216.186   8.599e-18 
   7217.725   2.131e-17 
   7219.264   1.473e-17 
   7220.804   1.594e-17 
   7222.343   1.164e-17 
   7223.882   1.192e-17 
   7225.422   1.599e-17 
   7226.961   1.427e-17 
   7228.501   1.895e-17 
    7230.04   1.561e-17 
    7231.58   1.248e-17 
    7233.12   1.271e-17 
   7234.658   1.452e-17 
   7236.198   1.715e-17 
   7237.737   1.391e-17 
   7239.277   8.546e-18 
   7240.816   1.722e-17 
   7242.356   3.655e-18 
   7243.896   4.164e-18 
   7245.435   2.147e-17 
   7246.975   2.762e-17 
   7248.514   1.553e-17 
   7250.054   2.504e-17 
   7251.594   1.586e-17 
   7253.133   1.972e-17 
   7254.673   1.415e-17 
   7256.212    2.41e-17 
   7257.752   1.918e-17 
   7259.292   1.576e-17 
   7260.832   1.876e-17 
   7262.372   1.623e-17 
   7263.911   2.062e-17 
   7265.451   1.157e-17 
    7266.99   1.789e-17 
    7268.53   1.331e-17 
   7270.071   4.213e-18 
    7271.61   2.188e-17 
    7273.15   1.625e-17 
   7274.689   1.339e-17 
   7276.229   3.517e-17 
    7277.77   1.048e-17 
   7279.309    2.08e-17 
   7280.849    1.71e-17 
   7282.389   2.122e-17 
   7283.929   2.586e-17 
   7285.468   2.282e-17 
   7287.009   1.425e-17 
   7288.549   1.267e-17 
   7290.088   1.604e-17 
   7291.629   1.296e-17 
   7293.168   6.065e-18 
   7294.708   1.845e-17 
   7296.249   9.104e-18 
   7297.788   1.124e-17 
   7299.329   1.998e-17 
   7300.868   1.108e-17 
   7302.409   2.269e-17 
   7303.948   1.666e-17 
   7305.489   1.555e-17 
   7307.029   1.228e-17 
   7308.569   1.911e-17 
   7310.109   1.981e-17 
   7311.649   2.719e-17 
   7313.189   1.479e-17 
    7314.73   1.367e-17 
   7316.269   2.612e-17 
    7317.81   2.276e-17 
   7319.349     1.1e-17 
    7320.89   1.936e-17 
    7322.43   1.755e-17 
    7323.97   1.718e-17 
   7325.511   1.435e-17 
   7327.051   1.415e-17 
   7328.591   1.519e-17 
   7330.131   2.027e-17 
   7331.672   1.503e-17 
   7333.212   1.171e-17 
   7334.752   2.007e-17 
   7336.293   1.383e-17 
   7337.833   2.863e-17 
   7339.373   3.377e-17 
   7340.914   1.054e-17 
   7342.454   1.681e-17 
   7343.995   2.513e-17 
   7345.534    1.43e-17 
   7347.075   1.172e-17 
   7348.615   1.394e-17 
   7350.156    1.49e-17 
   7351.697   1.892e-17 
   7353.237   2.353e-17 
   7354.778   1.803e-17 
   7356.317    1.84e-17 
   7357.858   1.557e-17 
   7359.399   1.841e-17 
   7360.939   1.195e-17 
    7362.48   1.595e-17 
    7364.02   1.896e-17 
   7365.561   1.776e-17 
   7367.101   1.661e-17 
   7368.642   5.825e-18 
   7370.183   2.353e-18 
   7371.723   2.425e-17 
   7373.264   1.294e-17 
   7374.804   1.379e-17 
   7376.345   1.748e-17 
   7377.886   1.614e-17 
   7379.426   1.018e-17 
   7380.967   2.087e-17 
   7382.508   1.723e-17 
   7384.049   1.551e-17 
   7385.589   2.221e-17 
    7387.13    2.31e-17 
   7388.671   2.037e-17 
   7390.211   1.134e-17 
   7391.752   1.583e-17 
   7393.293   1.468e-17 
   7394.834   1.885e-17 
   7396.375   1.805e-17 
   7397.915   1.283e-17 
   7399.456   2.631e-17 
   7400.997   1.845e-17 
   7402.538   1.272e-17 
   7404.078   1.744e-17 
   7405.619   1.621e-17 
   7407.161   1.952e-17 
   7408.701   2.064e-17 
   7410.242   1.708e-17 
   7411.783   1.851e-17 
   7413.324   1.294e-17 
   7414.865   2.124e-17 
   7416.406   1.634e-17 
   7417.947     1.7e-17 
   7419.487   2.103e-17 
   7421.029   1.492e-17 
   7422.569   9.646e-18 
   7424.111   1.359e-17 
   7425.652   1.071e-17 
   7427.193   1.641e-17 
   7428.734   1.966e-17 
   7430.274   1.933e-17 
   7431.816    1.36e-17 
   7433.357   1.917e-17 
   7434.898   1.557e-17 
   7436.439   2.894e-17 
    7437.98   1.124e-17 
   7439.522    1.24e-17 
   7441.063   1.878e-17 
   7442.604   1.288e-17 
   7444.145   1.499e-17 
   7445.686   1.281e-17 
   7447.227   1.402e-17 
   7448.768   1.277e-17 
    7450.31   1.617e-17 
   7451.851   1.472e-17 
   7453.392   1.926e-17 
   7454.933   2.088e-17 
   7456.474   2.119e-17 
   7458.016   1.162e-17 
   7459.558    1.53e-17 
   7461.098   1.993e-17 
    7462.64   1.114e-17 
   7464.181     1.3e-17 
   7465.722   1.831e-17 
   7467.263   1.549e-17 
   7468.805   1.756e-17 
   7470.347   1.468e-17 
   7471.887   1.087e-17 
   7473.429   2.769e-17 
    7474.97    1.19e-17 
   7476.512   2.484e-17 
   7478.054   1.731e-17 
   7479.594   2.076e-17 
   7481.136  -1.011e-18 
   7482.677    1.83e-17 
   7484.219   2.844e-17 
    7485.76   9.774e-18 
   7487.302   2.628e-17 
   7488.844   3.079e-17 
   7490.385   2.012e-17 
   7491.927   3.096e-17 
   7493.467   2.866e-17 
   7495.009   2.891e-17 
   7496.551   1.157e-17 
   7498.092   1.478e-17 
   7499.634   1.094e-17 
   7501.175   1.308e-17 
   7502.717    8.16e-18 
   7504.258   2.393e-17 
     7505.8   2.906e-17 
   7507.342   3.044e-17 
   7508.883   7.428e-18 
   7510.425   1.907e-17 
   7511.967   1.845e-17 
   7513.509   1.756e-17 
   7515.051   1.295e-17 
   7516.592   1.336e-17 
   7518.134   2.207e-17 
   7519.675   1.279e-17 
   7521.217   6.029e-18 
   7522.758   1.212e-17 
     7524.3   2.758e-17 
   7525.843   1.138e-17 
   7527.384   1.065e-17 
   7528.926   1.889e-17 
   7530.467   1.801e-17 
   7532.009   1.644e-17 
   7533.552   2.256e-17 
   7535.093   1.205e-17 
   7536.635   1.779e-17 
   7538.176   1.615e-17 
   7539.719   1.889e-17 
    7541.26   1.829e-17 
   7542.802   1.289e-17 
   7544.344   1.736e-17 
   7545.886    1.34e-17 
   7547.428   1.578e-17 
   7548.969   1.013e-17 
   7550.512   1.598e-17 
   7552.054   1.737e-17 
   7553.595     1.8e-17 
   7555.138   1.586e-17 
   7556.679   1.736e-17 
   7558.222   1.369e-17 
   7559.763   1.145e-17 
   7561.305   1.139e-17 
   7562.848   1.652e-17 
   7564.389    8.84e-18 
   7565.932   2.008e-17 
   7567.473   1.813e-17 
   7569.016   1.342e-17 
   7570.558   1.088e-17 
     7572.1   1.889e-17 
   7573.642   1.816e-17 
   7575.184     1.7e-17 
   7576.726   1.577e-17 
   7578.268    1.41e-17 
    7579.81   1.322e-17 
   7581.353     1.1e-17 
   7582.894   1.763e-17 
   7584.437   1.778e-17 
   7585.979   1.493e-17 
   7587.521   9.866e-18 
   7589.064    2.37e-17 
   7590.605   1.801e-17 
   7592.148     1.6e-17 
    7593.69   1.178e-17 
   7595.232   -1.87e-18 
   7596.774  -2.798e-18 
   7598.317    5.49e-18 
   7599.859   1.806e-18 
   7601.401   2.736e-18 
   7602.944   1.037e-17 
   7604.485  -4.407e-18 
   7606.028    8.73e-19 
   7607.571   2.185e-17 
   7609.113   7.429e-18 
   7610.655   7.598e-18 
   7612.197   1.123e-17 
    7613.74   1.142e-17 
   7615.283   1.374e-17 
   7616.824   1.605e-17 
   7618.367   1.012e-17 
   7619.909   2.507e-17 
   7621.452    3.64e-17 
   7622.994   2.876e-17 
   7624.537   2.235e-17 
   7626.079   -1.01e-17 
   7627.621    1.55e-17 
   7629.164   2.447e-17 
   7630.706   9.203e-18 
   7632.249   1.148e-17 
   7633.792   1.596e-17 
   7635.334    1.49e-17 
   7636.877   1.792e-17 
   7638.419   4.567e-18 
   7639.962   2.461e-17 
   7641.503   1.832e-17 
   7643.046   6.976e-18 
   7644.589   1.118e-17 
   7646.131   2.308e-17 
   7647.674   1.417e-17 
   7649.216    2.16e-17 
   7650.759   1.914e-17 
   7652.302   8.227e-18 
   7653.844   1.061e-17 
   7655.388   1.037e-17 
    7656.93   2.197e-17 
   7658.473   1.639e-17 
   7660.015   1.057e-17 
   7661.558   9.357e-18 
   7663.101   1.097e-17 
   7664.643   1.487e-17 
   7666.186   8.838e-18 
   7667.728   1.461e-17 
   7669.271   1.611e-17 
   7670.815   1.013e-17 
   7672.357   1.751e-17 
     7673.9   2.159e-17 
   7675.442     1.6e-17 
   7676.985   8.892e-18 
   7678.527   8.839e-18 
   7680.071   1.625e-17 
   7681.614   1.316e-17 
   7683.156   1.267e-17 
   7684.699    1.59e-17 
   7686.242   1.085e-17 
   7687.785   1.195e-17 
   7689.328   1.613e-17 
    7690.87    1.44e-17 
   7692.414   1.878e-17 
   7693.956   2.337e-17 
   7695.499   1.541e-17 
   7697.042   8.276e-18 
   7698.585    1.68e-17 
   7700.128    1.17e-17 
   7701.671   1.579e-17 
   7703.214   1.457e-17 
   7704.756   1.305e-17 
     7706.3   1.732e-17 
   7707.843    1.13e-17 
   7709.385   8.833e-18 
   7710.929  -4.918e-19 
   7712.471   7.006e-20 
   7714.015   5.416e-18 
   7715.557   1.697e-17 
     7717.1   6.575e-20 
   7718.644   1.273e-17 
   7720.186   1.228e-17 
    7721.73   1.523e-17 
   7723.272    8.92e-18 
   7724.816   1.605e-17 
   7726.359   2.436e-17 
   7727.902    1.04e-17 
   7729.445   1.472e-17 
   7730.988    2.24e-17 
   7732.531   1.081e-17 
   7734.074   1.508e-17 
   7735.617   2.023e-17 
   7737.161   1.205e-17 
   7738.704   5.884e-18 
   7740.247   1.508e-17 
    7741.79   1.897e-17 
   7743.333   1.389e-17 
   7744.877   7.912e-18 
    7746.42   1.858e-17 
   7747.963   1.518e-18 
   7749.506   7.947e-18 
   7751.049   1.328e-17 
   7752.592   1.617e-17 
   7754.136   1.687e-17 
   7755.679   1.054e-17 
   7757.222   1.461e-17 
   7758.766   8.726e-18 
   7760.309   5.801e-18 
   7761.852   5.028e-18 
   7763.396   2.139e-17 
   7764.939   1.086e-17 
   7766.482   1.367e-17 
   7768.025   5.238e-18 
   7769.569   1.336e-17 
   7771.112   4.948e-18 
   7772.655   9.376e-18 
   7774.199   1.619e-17 
   7775.742   2.199e-17 
   7777.286   1.634e-17 
   7778.829   1.227e-17 
   7780.372    1.46e-17 
   7781.916   6.696e-18 
   7783.459   1.314e-17 
   7785.003   1.391e-17 
   7786.546   1.794e-17 
    7788.09   1.665e-17 
   7789.633   1.918e-17 
   7791.176   1.031e-17 
    7792.72   2.611e-17 
   7794.263   1.856e-17 
   7795.807   6.805e-18 
    7797.35   2.149e-17 
   7798.894   8.461e-18 
   7800.438   9.047e-18 
   7801.981   2.254e-18 
   7803.525   1.294e-17 
   7805.068   1.833e-17 
   7806.612   1.627e-17 
   7808.155   2.029e-17 
   7809.699   1.762e-17 
   7811.243   1.361e-17 
   7812.786   9.422e-18 
    7814.33   1.445e-17 
   7815.873   1.476e-17 
   7817.417   3.545e-18 
   7818.961   5.167e-18 
   7820.504   9.454e-18 
   7822.048  -7.521e-18 
   7823.591    1.63e-17 
   7825.135   1.338e-17 
   7826.678   1.847e-17 
   7828.222   1.555e-17 
   7829.766   1.204e-17 
    7831.31   9.933e-18 
   7832.854   1.119e-17 
   7834.397   1.117e-17 
   7835.941    8.04e-18 
   7837.485   2.007e-17 
   7839.028   1.717e-17 
   7840.572   3.566e-18 
   7842.116   1.264e-17 
    7843.66   1.182e-17 
   7845.203    1.19e-17 
   7846.747   7.606e-18 
   7848.291   1.896e-17 
   7849.835   1.445e-17 
   7851.379   2.918e-18 
   7852.922   2.057e-18 
   7854.466   3.254e-18 
    7856.01   1.367e-17 
   7857.554   1.632e-17 
   7859.098   1.454e-18 
   7860.641   1.208e-17 
   7862.186   1.494e-17 
   7863.729   1.249e-17 
   7865.273   1.678e-17 
   7866.817   1.635e-17 
   7868.361    2.26e-19 
   7869.905   1.317e-17 
   7871.448    9.83e-18 
   7872.993   1.672e-17 
   7874.537   1.369e-17 
   7876.081   1.902e-17 
   7877.625   1.703e-17 
   7879.168    7.96e-18 
   7880.713   4.782e-18 
   7882.256    1.88e-17 
     7883.8   1.422e-17 
   7885.345   1.197e-17 
   7886.888  -2.005e-18 
   7888.433   1.333e-17 
   7889.976   1.255e-17 
   7891.521   1.866e-17 
   7893.065   1.107e-17 
   7894.609   1.757e-17 
   7896.153   1.317e-17 
   7897.696   1.299e-17 
   7899.241   6.693e-18 
   7900.784   1.936e-17 
   7902.329   1.528e-17 
   7903.873   1.208e-17 
   7905.417   1.805e-17 
   7906.961   6.188e-18 
   7908.505   1.606e-17 
    7910.05   1.526e-17 
   7911.594  -2.264e-17 
   7913.138   3.252e-18 
   7914.682   1.069e-17 
   7916.226   2.577e-17 
    7917.77   1.203e-17 
   7919.314   1.619e-17 
   7920.859   7.766e-18 
   7922.403   1.328e-17 
   7923.947   6.366e-18 
   7925.491   1.633e-17 
   7927.035   8.523e-18 
    7928.58    3.68e-18 
   7930.124   1.435e-17 
   7931.668   1.315e-17 
   7933.213   7.924e-18 
   7934.756   1.064e-17 
   7936.301   1.629e-17 
   7937.845   1.614e-17 
   7939.389   1.341e-17 
   7940.934   1.615e-17 
   7942.478   1.051e-17 
   7944.023   2.009e-17 
   7945.566   1.166e-17 
   7947.111   2.231e-17 
   7948.655    9.58e-18 
   7950.199   2.611e-17 
   7951.744   1.911e-17 
   7953.288   9.019e-18 
   7954.833   1.379e-17 
   7956.377   1.374e-17 
   7957.921   1.345e-17 
   7959.466    1.45e-17 
    7961.01   1.295e-17 
   7962.555  -2.331e-18 
   7964.099   9.317e-18 
   7965.643   1.556e-17 
   7967.187   1.825e-17 
   7968.732   1.727e-17 
   7970.277   7.106e-18 
   7971.821   2.045e-17 
   7973.366   1.194e-17 
    7974.91   1.183e-17 
   7976.454   6.499e-18 
   7977.999     2.1e-17 
   7979.543   8.311e-18 
   7981.088   8.897e-18 
   7982.632   9.207e-18 
   7984.177     1.6e-17 
   7985.721   1.402e-17 
   7987.266   1.412e-17 
   7988.811   1.321e-17 
   7990.355    2.23e-17 
     7991.9   1.271e-17 
   7993.444   1.054e-17 
   7994.989    1.26e-17 
   7996.534   1.082e-17 
   7998.078   8.953e-18 
   7999.623   9.907e-18 
   8001.167   1.344e-17 
   8002.712    1.21e-17 
   8004.256   1.695e-17 
   8005.801   1.233e-17 
   8007.346    1.13e-17 
    8008.89   1.154e-17 
   8010.435    6.97e-18 
   8011.979   9.998e-18 
   8013.524   9.253e-18 
   8015.069  -2.575e-18 
   8016.613   2.108e-17 
   8018.158   1.606e-17 
   8019.702   2.627e-18 
   8021.247   1.319e-17 
   8022.791   9.402e-18 
   8024.337  -2.811e-18 
   8025.882   1.624e-17 
   8027.426   9.303e-18 
   8028.971    9.98e-18 
   8030.515   1.095e-17 
    8032.06   6.825e-18 
   8033.605   8.073e-18 
    8035.15    1.62e-17 
   8036.695   1.123e-17 
   8038.239   1.063e-17 
   8039.784   1.463e-17 
   8041.328   1.167e-17 
   8042.873   1.119e-17 
   8044.419   1.177e-17 
   8045.963   9.338e-18 
   8047.508   9.928e-18 
   8049.052    7.42e-18 
   8050.598   1.593e-17 
   8052.143   9.607e-18 
   8053.687   1.386e-17 
   8055.232   9.115e-18 
   8056.777   1.268e-17 
   8058.322   1.215e-17 
   8059.866   1.776e-17 
   8061.411   1.196e-17 
   8062.957    1.83e-17 
   8064.501   9.171e-18 
   8066.046   8.399e-18 
   8067.591   1.326e-17 
   8069.136   1.535e-17 
   8070.681   1.165e-17 
   8072.226   9.722e-18 
   8073.771   8.845e-18 
   8075.315   1.165e-17 
   8076.861   6.869e-18 
   8078.405   1.125e-17 
    8079.95   7.961e-18 
   8081.496   1.699e-17 
    8083.04   1.028e-17 
   8084.586   1.496e-17 
    8086.13   1.386e-17 
   8087.675   8.421e-18 
   8089.221   1.061e-17 
   8090.765    6.11e-18 
   8092.311   1.238e-17 
   8093.855   9.275e-18 
     8095.4   1.295e-17 
   8096.945   6.746e-18 
    8098.49    3.58e-18 
   8100.036   9.159e-18 
    8101.58   1.311e-17 
   8103.126   2.055e-17 
    8104.67   6.824e-18 
   8106.216   1.202e-17 
   8107.761   1.454e-17 
   8109.306    7.95e-18 
   8110.851    1.81e-17 
   8112.396   9.725e-18 
   8113.941    1.32e-17 
   8115.486   1.051e-17 
   8117.031   9.585e-18 
   8118.577   1.396e-17 
   8120.121   9.901e-18 
   8121.667   1.093e-17 
   8123.211   7.629e-18 
   8124.757   1.151e-17 
   8126.303   1.672e-17 
   8127.847   1.438e-17 
   8129.393   1.807e-17 
   8130.937   6.085e-18 
   8132.483   8.101e-18 
   8134.028   1.772e-17 
   8135.573   1.639e-17 
   8137.119   1.221e-17 
   8138.663   1.811e-17 
   8140.209   7.462e-18 
   8141.754   1.569e-17 
   8143.299   8.575e-18 
   8144.844   8.901e-18 
    8146.39   8.296e-18 
   8147.935   8.582e-18 
    8149.48   7.042e-18 
   8151.026   6.164e-18 
    8152.57   9.203e-18 
   8154.116   4.572e-18 
   8155.662   7.391e-18 
   8157.206   1.278e-17 
   8158.752   1.055e-17 
   8160.297   7.247e-18 
   8161.843   1.011e-17 
   8163.387   1.143e-17 
   8164.933   1.288e-17 
   8166.479   1.034e-17 
   8168.023   1.093e-17 
   8169.569   1.307e-17 
   8171.114   4.509e-18 
    8172.66   6.803e-18 
   8174.205   1.073e-17 
    8175.75   1.627e-17 
   8177.296   8.378e-18 
   8178.841   9.225e-18 
   8180.387   4.176e-19 
   8181.931   5.596e-18 
   8183.477   6.712e-18 
   8185.023   7.349e-18 
   8186.568   1.108e-17 
   8188.114   1.006e-17 
   8189.659   1.826e-17 
   8191.204   2.167e-18 
    8192.75   2.633e-18 
   8194.295   9.054e-18 
   8195.841   8.471e-18 
   8197.386   6.723e-18 
   8198.932   1.586e-17 
   8200.476   6.726e-18 
   8202.022    1.44e-17 
   8203.568   3.307e-18 
   8205.113   1.244e-17 
   8206.659   7.011e-18 
   8208.204    1.34e-17 
    8209.75   9.491e-18 
   8211.296   1.259e-17 
   8212.841   4.995e-18 
   8214.387   1.688e-17 
   8215.932   8.272e-18 
   8217.477   1.261e-17 
   8219.022    1.19e-17 
   8220.568   8.928e-18 
   8222.114   1.255e-17 
   8223.659   1.179e-17 
   8225.205   7.092e-18 
    8226.75   9.051e-18 
   8228.296   7.733e-18 
   8229.842   7.599e-18 
   8231.387   9.202e-18 
   8232.933   8.383e-18 
   8234.478   9.552e-18 
   8236.024   1.317e-17 
   8237.569   6.323e-18 
   8239.115   6.318e-18 
   8240.661   6.916e-18 
   8242.206   1.327e-17 
   8243.752   1.303e-17 
   8245.297   1.057e-17 
   8246.843   4.235e-18 
   8248.389   1.441e-17 
   8249.935   1.113e-17 
   8251.481   8.244e-18 
   8253.026   1.108e-17 
   8254.572   8.178e-18 
   8256.117   1.345e-17 
   8257.663   7.302e-18 
   8259.209   1.145e-17 
   8260.754   1.282e-17 
     8262.3   1.227e-17 
   8263.845   7.274e-18 
   8265.391   1.485e-17 
   8266.937    1.42e-17 
   8268.483   9.339e-18 
   8270.029   1.457e-17 
   8271.574   1.264e-17 
    8273.12   1.019e-17 
   8274.665   1.787e-17 
   8276.211   1.477e-17 
   8277.758   1.054e-17 
   8279.303   1.126e-17 
   8280.849   1.197e-17 
   8282.394  -8.872e-18 
    8283.94  -2.832e-18 
   8285.485   2.451e-17 
   8287.032  -9.237e-18 
   8288.578   7.139e-18 
   8290.123   1.689e-17 
   8291.669   2.344e-17 
   8293.214   1.369e-17 
   8294.761   9.714e-19 
   8296.307  -4.772e-18 
   8297.852    1.11e-17 
   8299.398   6.227e-18 
   8300.944   3.999e-18 
    8302.49   6.435e-18 
   8304.035   1.181e-17 
   8305.581   1.246e-17 
   8307.128   1.736e-17 
   8308.673   1.059e-17 
   8310.219    7.87e-18 
   8311.764   1.262e-17 
   8313.311   1.371e-17 
   8314.857   1.074e-17 
   8316.402   9.819e-18 
   8317.949   9.588e-18 
   8319.494    8.16e-18 
    8321.04   6.358e-18 
   8322.585   1.057e-17 
   8324.132   6.974e-18 
   8325.678   8.016e-18 
   8327.223   8.503e-18 
    8328.77   8.913e-18 
   8330.315   8.319e-18 
   8331.861   6.554e-18 
   8333.408   1.722e-17 
   8334.953   8.705e-18 
     8336.5   6.137e-18 
   8338.045   8.909e-18 
   8339.591  -1.107e-18 
   8341.137   3.326e-17 
   8342.683   1.244e-17 
   8344.229   8.997e-18 
   8345.775   1.126e-17 
   8347.321   1.665e-17 
   8348.867   1.614e-17 
   8350.413   7.674e-18 
   8351.959     2.2e-17 
   8353.505   2.005e-17 
   8355.051   1.268e-17 
   8356.597   6.204e-18 
   8358.143   1.156e-17 
   8359.688   6.395e-18 
   8361.235   1.085e-17 
   8362.781   8.389e-18 
   8364.327   9.386e-18 
   8365.873   3.413e-18 
   8367.419   1.203e-17 
   8368.965   1.069e-17 
   8370.512   1.107e-17 
   8372.057   1.526e-17 
   8373.604   6.964e-18 
   8375.149   3.328e-18 
   8376.696    1.42e-17 
   8378.241   1.467e-18 
   8379.788   7.383e-18 
   8381.334   4.864e-18 
    8382.88   2.315e-17 
   8384.426   1.509e-17 
   8385.972   8.044e-18 
   8387.518   1.577e-17 
   8389.064   1.163e-17 
    8390.61   1.577e-17 
   8392.157   9.322e-18 
   8393.702   6.254e-18 
   8395.249   5.385e-18 
   8396.794   3.593e-17 
   8398.341  -7.404e-18 
   8399.887    4.18e-18 
   8401.433   1.992e-17 
   8402.979    1.74e-17 
   8404.525   9.654e-18 
   8406.072   8.678e-18 
   8407.617   1.155e-17 
   8409.164   7.544e-18 
    8410.71   2.417e-18 
   8412.256    4.85e-18 
   8413.803   1.456e-17 
   8415.348   8.707e-18 
   8416.895   1.295e-17 
   8418.441   2.161e-17 
   8419.987   1.251e-17 
   8421.534   1.351e-17 
   8423.079   3.382e-18 
   8424.626   1.608e-17 
   8426.171  -1.005e-18 
   8427.718  -2.636e-18 
   8429.265   3.403e-18 
    8430.81   2.012e-17 
   8432.357  -4.799e-18 
   8433.903   1.366e-17 
   8435.449   3.918e-18 
   8436.996   9.058e-18 
   8438.542   9.121e-18 
   8440.088   9.225e-18 
   8441.634   9.336e-18 
   8443.181   6.539e-18 
   8444.726   9.476e-18 
   8446.273   6.897e-18 
    8447.82   8.473e-18 
   8449.365   1.817e-17 
   8450.912   7.287e-18 
   8452.458   4.786e-18 
   8454.005   3.336e-17 
   8455.551   1.503e-17 
   8457.097   6.112e-18 
   8458.644   1.272e-17 
   8460.189   1.119e-17 
   8461.736   4.435e-19 
   8463.282   1.714e-17 
   8464.829   1.842e-18 
   8466.375   9.696e-18 
   8467.921   1.535e-17 
   8469.468   1.141e-17 
   8471.014   1.116e-17 
    8472.56   8.387e-18 
   8474.106   5.619e-18 
   8475.653   1.235e-17 
     8477.2   9.912e-18 
   8478.745   1.171e-17 
   8480.292   9.827e-18 
   8481.838   7.583e-18 
   8483.385   1.387e-17 
   8484.932   1.303e-17 
   8486.477   9.567e-18 
   8488.024   1.223e-17 
    8489.57   1.125e-17 
   8491.117   7.486e-18 
   8492.663   3.052e-18 
   8494.209   4.921e-18 
   8495.756   8.296e-18 
   8497.302   2.738e-18 
   8498.849   1.066e-17 
   8500.395    8.42e-18 
   8501.941    1.41e-17 
   8503.488   8.015e-18 
   8505.034    2.97e-18 
   8506.581   1.487e-17 
   8508.127   1.308e-17 
   8509.674   1.119e-17 
    8511.22   1.659e-17 
   8512.766   7.681e-18 
   8514.313   1.434e-17 
   8515.859   9.824e-18 
   8517.406   9.816e-18 
   8518.952   9.189e-18 
   8520.499   9.542e-18 
   8522.046   1.085e-17 
   8523.591   1.309e-17 
   8525.138   9.043e-18 
   8526.684   1.126e-17 
   8528.231   8.427e-18 
   8529.777   1.085e-17 
   8531.324   9.813e-18 
   8532.871   7.329e-18 
   8534.417   1.361e-17 
   8535.964   1.075e-17 
    8537.51   1.952e-17 
   8539.056   1.447e-17 
   8540.603   7.901e-18 
   8542.149    9.48e-18 
   8543.696    1.09e-17 
   8545.242   7.593e-18 
   8546.789   1.336e-17 
   8548.335    9.63e-18 
   8549.882   9.857e-18 
   8551.429   8.971e-18 
   8552.975   8.946e-18 
   8554.522   1.453e-17 
   8556.068   3.674e-18 
   8557.615   9.752e-18 
   8559.161   1.253e-17 
   8560.708   8.665e-18 
   8562.255   7.541e-18 
   8563.801   9.795e-18 
   8565.348   5.824e-18 
   8566.894   1.087e-17 
   8568.441   1.004e-17 
   8569.988   8.171e-18 
   8571.534   9.403e-18 
   8573.081   1.795e-17 
   8574.627   1.182e-17 
   8576.174   9.024e-18 
    8577.72   1.072e-17 
   8579.267   3.683e-18 
   8580.814   8.176e-18 
    8582.36   8.628e-18 
   8583.907    9.84e-18 
   8585.453   1.181e-17 
     8587.0   1.349e-17 
   8588.547   6.175e-18 
   8590.093   7.924e-18 
    8591.64   1.208e-17 
   8593.186   1.197e-17 
   8594.733   3.969e-18 
   8596.279   1.603e-17 
   8597.826   1.103e-17 
   8599.373   8.718e-18 
   8600.919   1.393e-17 
   8602.466   6.319e-18 
   8604.012   8.996e-18 
   8605.559   3.595e-18 
   8607.106   1.074e-17 
   8608.652   1.438e-17 
   8610.199   7.961e-18 
   8611.745   2.754e-18 
   8613.292   1.539e-17 
   8614.839   4.886e-18 
   8616.386   8.341e-18 
   8617.933   5.383e-18 
   8619.479  -2.034e-18 
   8621.026   5.458e-18 
   8622.572   9.929e-18 
   8624.119   6.349e-19 
   8625.666   2.858e-17 
   8627.212   1.795e-17 
   8628.759   1.688e-17 
   8630.306   1.175e-17 
   8631.853   7.903e-18 
   8633.399  -1.215e-18 
   8634.946  -6.861e-19 
   8636.493   1.699e-18 
   8638.039   5.903e-18 
   8639.586     6.2e-18 
   8641.132  -2.531e-18 
   8642.679   6.126e-18 
   8644.226   6.155e-18 
   8645.773   6.167e-18 
    8647.32   1.438e-17 
   8648.866   5.677e-18 
   8650.413   1.184e-17 
   8651.959   5.604e-18 
   8653.506   5.629e-19 
   8655.054   1.378e-17 
     8656.6   7.559e-18 
   8658.147   1.811e-19 
   8659.693   1.527e-17 
    8661.24   1.725e-18 
   8662.786   2.273e-17 
   8664.334   2.823e-18 
   8665.881  -6.574e-19 
   8667.427   7.489e-19 
   8668.974   6.203e-18 
    8670.52   8.949e-18 
   8672.067   1.308e-17 
   8673.615   6.922e-18 
   8675.161   1.105e-17 
   8676.708   7.622e-18 
   8678.254   5.603e-18 
   8679.801   5.157e-18 
   8681.348   8.099e-18 
   8682.895   1.308e-17 
   8684.442   8.803e-18 
   8685.988   9.482e-18 
   8687.535   7.678e-18 
   8689.082   1.141e-17 
   8690.629   1.637e-17 
   8692.176   9.527e-18 
   8693.722   9.194e-18 
   8695.269   7.051e-18 
   8696.816  -1.881e-18 
   8698.363   6.601e-18 
   8699.909   1.479e-17 
   8701.456   9.212e-18 
   8703.004   1.019e-17 
    8704.55   5.537e-18 
   8706.097   1.072e-17 
   8707.643   9.076e-18 
   8709.191   5.373e-18 
   8710.737   9.984e-18 
   8712.284   1.135e-17 
   8713.831   7.093e-18 
   8715.377    1.23e-17 
   8716.925    5.59e-18 
   8718.471   1.104e-17 
   8720.018   6.222e-18 
   8721.566   1.478e-17 
   8723.112   1.064e-17 
   8724.659   8.137e-18 
   8726.205   5.372e-18 
   8727.753    5.07e-18 
   8729.299   1.043e-17 
   8730.846   1.155e-17 
   8732.393   1.229e-17 
    8733.94   2.311e-18 
   8735.487   8.117e-18 
   8737.033   1.064e-17 
    8738.58   8.722e-18 
   8740.128   2.027e-18 
   8741.674    1.18e-17 
   8743.221   1.202e-17 
   8744.768   1.055e-17 
   8746.315   5.042e-18 
   8747.861   1.191e-17 
   8749.408   1.302e-17 
   8750.956   5.646e-18 
   8752.502   1.016e-17 
   8754.049  -3.281e-19 
   8755.596   4.759e-18 
   8757.143   1.824e-18 
    8758.69   1.661e-17 
   8760.237   1.231e-17 
   8761.784  -4.414e-18 
    8763.33   1.893e-17 
   8764.878   -2.86e-18 
   8766.424   1.123e-17 
   8767.971   1.326e-17 
   8769.519   5.228e-18 
   8771.065   8.473e-18 
   8772.612   -1.08e-17 
   8774.158   1.952e-17 
   8775.706   1.022e-17 
   8777.252   1.474e-17 
   8778.799   1.329e-17 
   8780.347   5.809e-18 
   8781.893   1.941e-17 
    8783.44    1.02e-17 
   8784.987   8.962e-18 
   8786.534   1.583e-17 
   8788.081   1.881e-17 
   8789.628   6.054e-18 
   8791.175   1.538e-17 
   8792.722   9.987e-18 
   8794.269   7.796e-18 
   8795.815   5.314e-18 
   8797.363   7.161e-18 
    8798.91   6.197e-18 
   8800.456   1.229e-17 
   8802.004   7.562e-18 
    8803.55   9.113e-18 
   8805.097   1.189e-17 
   8806.645    9.69e-18 
   8808.191   6.239e-18 
   8809.738   1.035e-17 
   8811.285    5.77e-18 
   8812.832   7.751e-18 
   8814.379   5.279e-18 
   8815.926   1.108e-17 
   8817.473   2.626e-18 
    8819.02   1.096e-17 
   8820.567   8.928e-18 
   8822.113  -3.634e-18 
   8823.661   1.689e-17 
   8825.208   1.713e-17 
   8826.755  -4.164e-18 
   8828.302  -7.139e-18 
   8829.848   4.477e-18 
   8831.396   1.242e-17 
   8832.942   1.604e-17 
   8834.489   4.233e-18 
   8836.037   4.556e-18 
   8837.583   7.915e-18 
   8839.131   9.429e-18 
   8840.677   1.064e-17 
   8842.224   1.432e-17 
   8843.771   1.332e-17 
   8845.318   1.273e-17 
   8846.866   5.489e-18 
   8848.412   7.263e-18 
   8849.959   7.635e-18 
   8851.506   1.509e-17 
   8853.053   9.177e-18 
   8854.601   9.192e-18 
   8856.147   9.183e-18 
   8857.694   1.401e-17 
   8859.241   9.664e-18 
   8860.788   1.748e-17 
   8862.335   5.942e-18 
   8863.882    1.04e-17 
   8865.429   1.444e-17 
   8866.976   2.249e-17 
   8868.523   6.048e-18 
    8870.07   1.526e-18 
   8871.617   5.215e-18 
   8873.165   1.274e-17 
   8874.711   1.066e-17 
   8876.258   1.007e-17 
   8877.805   1.606e-17 
   8879.352   1.067e-17 
   8880.899   9.257e-19 
   8882.446   2.715e-18 
   8883.994   1.449e-17 
    8885.54   1.342e-17 
   8887.087   9.098e-18 
   8888.634   1.666e-17 
   8890.181   1.061e-17 
   8891.729    9.68e-18 
   8893.275   1.395e-17 
   8894.823   6.849e-18 
   8896.369   1.034e-17 
   8897.916   1.824e-17 
   8899.463   1.307e-17 
    8901.01   6.644e-18 
   8902.558   1.274e-19 
   8904.104   1.391e-17 
   8905.652   1.598e-17 
   8907.198   1.045e-17 
   8908.745   1.385e-17 
   8910.292   1.391e-17 
   8911.839   9.586e-18 
   8913.387  -3.554e-18 
   8914.933   2.291e-18 
   8916.481   1.878e-17 
   8918.027   1.359e-17 
   8919.575    6.54e-18 
   8921.122   2.169e-17 
   8922.668   1.385e-17 
   8924.216    1.24e-17 
   8925.762   4.827e-18 
    8927.31   9.886e-18 
   8928.856   1.437e-17 
   8930.404    1.63e-17 
   8931.951   1.205e-17 
   8933.498   1.185e-17 
   8935.045   7.486e-18 
   8936.592   1.387e-17 
   8938.139   1.131e-17 
   8939.686   2.427e-17 
   8941.233   1.791e-17 
    8942.78   1.206e-17 
   8944.327  -9.455e-19 
   8945.874   1.219e-17 
   8947.421    1.37e-17 
   8948.968   1.034e-17 
   8950.516   1.518e-17 
   8952.062   1.578e-18 
    8953.61   9.484e-18 
   8955.156  -1.918e-18 
   8956.703   2.568e-17 
   8958.251  -4.294e-18 
   8959.797   1.223e-17 
   8961.345   1.079e-17 
   8962.891   2.467e-17 
   8964.439   1.257e-17 
   8965.985   1.088e-17 
   8967.533    1.42e-17 
    8969.08   1.269e-17 
   8970.627   1.466e-17 
   8972.174    9.44e-18 
   8973.721   1.486e-17 
   8975.268   8.994e-18 
   8976.814    7.94e-18 
   8978.362   1.098e-17 
   8979.909    1.07e-17 
   8981.456   1.695e-17 
   8983.003   1.662e-17 
    8984.55   2.821e-18 
   8986.097   1.174e-17 
   8987.645   1.489e-17 
   8989.191   1.151e-17 
   8990.739   7.823e-18 
   8992.285    1.15e-17 
   8993.833   1.351e-17 
   8995.379   1.443e-17 
   8996.927   6.081e-18 
   8998.474   1.257e-17 
   9000.021   1.244e-17 
   9001.568   1.812e-17 
   9003.114  -3.386e-18 
   9004.662   1.187e-17 
   9006.209   1.395e-17 
   9007.756   8.325e-18 
   9009.303   1.366e-17 
    9010.85   1.195e-17 
   9012.397   8.484e-18 
   9013.944   1.606e-17 
   9015.491   1.402e-17 
   9017.039   1.084e-17 
   9018.585   9.504e-18 
   9020.133   1.868e-17 
   9021.679   1.385e-17 
   9023.227   8.803e-18 
   9024.774    1.31e-17 
   9026.321   1.342e-17 
   9027.868   1.169e-17 
   9029.414   8.694e-18 
   9030.962   1.077e-17 
   9032.508    1.33e-17 
   9034.056   1.758e-17 
   9035.603   2.543e-17 
    9037.15   7.179e-18 
   9038.697   1.361e-17 
   9040.244   1.073e-17 
   9041.791   1.414e-17 
   9043.338   1.405e-17 
   9044.885   7.491e-18 
   9046.433   7.216e-18 
   9047.979    3.91e-18 
   9049.527   7.601e-18 
   9051.073   1.198e-17 
   9052.621    8.48e-18 
   9054.168   1.219e-17 
   9055.714   1.019e-17 
   9057.262   1.168e-17 
   9058.808   1.038e-17 
   9060.356   1.572e-17 
   9061.902   9.407e-18 
    9063.45   1.092e-17 
   9064.997   1.239e-17 
   9066.544   8.304e-18 
   9068.091   1.081e-17 
   9069.638   1.035e-17 
   9071.185   6.319e-18 
   9072.733   1.496e-17 
   9074.279   8.088e-18 
   9075.827   1.169e-17 
   9077.373   1.218e-17 
    9078.92   1.057e-17 
   9080.467   1.136e-17 
   9082.014   1.295e-17 
   9083.562   6.424e-18 
   9085.108   1.109e-17 
   9086.656   1.089e-17 
   9088.202   9.579e-18 
    9089.75   1.417e-17 
   9091.297   5.048e-19 
   9092.844   1.442e-17 
   9094.391    1.41e-17 
   9095.938   1.166e-17 
   9097.485   7.165e-18 
   9099.031   1.146e-17 
   9100.579   7.075e-18 
   9102.126   7.689e-18 
   9103.673   3.976e-18 
    9105.22   4.778e-18 
   9106.767    7.97e-18 
   9108.314   1.299e-17 
   9109.861   5.798e-18 
   9111.408   5.141e-18 
   9112.956   1.135e-17 
   9114.502   1.433e-17 
   9116.049   6.809e-18 
   9117.596    1.87e-17 
   9119.143   1.199e-17 
   9120.691   1.125e-17 
   9122.237   1.201e-17 
   9123.785   1.005e-17 
   9125.331   1.584e-17 
   9126.879   8.858e-18 
   9128.425   1.343e-17 
   9129.972   1.185e-17 
    9131.52   1.277e-17 
   9133.066   8.181e-18 
   9134.614   8.713e-18 
    9136.16   6.942e-18 
   9137.708   1.094e-17 
   9139.255   1.558e-17 
   9140.802   7.973e-18 
   9142.349    1.49e-17 
   9143.895   1.417e-17 
   9145.443   1.159e-17 
   9146.989   1.168e-17 
   9148.537   5.665e-18 
   9150.084   1.413e-17 
   9151.631   1.971e-17 
   9153.178    1.46e-17 
   9154.724   1.032e-17 
   9156.272   5.992e-18 
   9157.818   1.143e-17 
   9159.366   1.485e-17 
   9160.913   1.471e-17 
    9162.46   8.504e-18 
   9164.007    1.07e-17 
   9165.553    1.39e-17 
   9167.101   5.477e-18 
   9168.648   9.542e-18 
   9170.195   6.044e-18 
   9171.742   1.504e-17 
   9173.289   7.213e-18 
   9174.836   1.428e-17 
   9176.382   1.765e-17 
    9177.93    1.56e-17 
   9179.477   1.509e-17 
   9181.024   7.477e-18 
   9182.571   1.551e-17 
   9184.117  -1.162e-18 
   9185.665   4.346e-18 
   9187.212   7.525e-18 
   9188.759   1.863e-17 
   9190.306   1.419e-17 
   9191.853   1.564e-17 
     9193.4   1.128e-17 
   9194.946   1.766e-17 
   9196.494   7.713e-18 
   9198.041   1.193e-17 
   9199.588   1.862e-17 
   9201.135   1.681e-17 
   9202.681   9.631e-18 
   9204.229   1.025e-17 
   9205.776   1.679e-17 
   9207.322   1.462e-17 
    9208.87   5.032e-18 
   9210.416   1.257e-17 
   9211.964   2.237e-18 
    9213.51   6.372e-18 
   9215.057    1.62e-18 
   9216.605   1.751e-17 
   9218.151   3.371e-18 
   9219.699   8.777e-18 
   9221.245   1.204e-17 
   9222.792   7.604e-18 
   9224.339   1.292e-17 
   9225.886   5.338e-18 
   9227.433   1.433e-17 
    9228.98   1.254e-17 
   9230.527   8.905e-18 
   9232.074   4.437e-18 
   9233.621   1.098e-17 
   9235.168   1.788e-17 
   9236.715   1.098e-17 
   9238.262   8.151e-18 
   9239.808   1.317e-17 
   9241.356   9.361e-18 
   9242.902    7.33e-18 
   9244.449   9.711e-18 
   9245.997   1.127e-17 
   9247.543    9.18e-18 
    9249.09   1.101e-17 
   9250.637   1.382e-17 
   9252.184   1.354e-17 
   9253.732   1.218e-17 
   9255.278   8.665e-18 
   9256.825   1.175e-17 
   9258.372    1.59e-17 
   9259.919   1.151e-17 
   9261.465   1.481e-17 
   9263.013   8.824e-18 
    9264.56   7.977e-18 
   9266.106   6.798e-18 
   9267.654   1.412e-17 
     9269.2   1.442e-17 
   9270.747   1.533e-17 
   9272.294   4.832e-18 
   9273.841   1.684e-17 
   9275.388   8.422e-18 
   9276.935   1.338e-17 
   9278.482   1.244e-17 
   9280.028   1.901e-17 
   9281.575   7.449e-18 
   9283.123   1.114e-17 
   9284.669   5.526e-18 
   9286.216   1.126e-17 
   9287.763   7.749e-18 
    9289.31   1.668e-17 
   9290.856  -3.985e-18 
   9292.404   3.003e-18 
   9293.951   2.044e-17 
   9295.497    5.53e-18 
   9297.044   1.811e-17 
   9298.591   1.825e-17 
   9300.138  -4.353e-18 
   9301.685  -3.319e-18 
   9303.232   2.811e-17 
   9304.779  -1.246e-17 
   9306.325    7.39e-18 
   9307.872   2.619e-17 
   9309.419   1.603e-17 
   9310.966  -1.941e-17 
   9312.513  -2.023e-17 
    9314.06   2.479e-17 
   9315.607  -4.413e-18 
   9317.153  -5.661e-18 
     9318.7   1.024e-17 
   9320.248   2.349e-17 
   9321.794   4.604e-18 
   9323.341  -2.881e-18 
   9324.887   2.169e-17 
   9326.435   1.218e-17 
   9327.981   5.082e-19 
   9329.528   1.093e-17 
   9331.075  -8.551e-19 
   9332.622   2.272e-17 
   9334.169  -4.079e-18 
   9335.715   2.355e-18 
   9337.262   1.144e-17 
   9338.809  -2.096e-18 
   9340.356   1.414e-17 
   9341.903   1.187e-17 
   9343.449   1.057e-17 
   9344.997   8.474e-18 
   9346.543  -2.079e-18 
    9348.09  -2.589e-18 
   9349.637  -3.006e-18 
   9351.183   4.126e-18 
   9352.731   1.954e-17 
   9354.277   1.574e-17 
   9355.824   1.472e-17 
    9357.37  -7.934e-18 
   9358.917   1.179e-17 
   9360.465   9.547e-18 
   9362.011   1.937e-17 
   9363.558   5.603e-18 
   9365.104   1.976e-17 
   9366.651   6.949e-18 
   9368.199   5.102e-18 
   9369.745  -8.604e-18 
   9371.292  -1.072e-17 
   9372.838  -4.815e-17 
   9374.385  -2.209e-17 
   9375.932   -4.55e-17 
   9377.479   3.178e-17 
   9379.026   -3.99e-17 
   9380.572   2.478e-18 
   9382.119   6.255e-18 
   9383.665  -5.975e-19 
   9385.213   4.102e-18 
   9386.759   1.009e-17 
   9388.306    1.34e-17 
   9389.853   1.219e-17 
   9391.399   1.338e-17 
   9392.946   9.341e-18 
   9394.493   7.281e-18 
    9396.04   9.559e-19 
   9397.587   5.723e-18 
   9399.133  -1.222e-17 
    9400.68   1.179e-17 
   9402.226   2.169e-17 
   9403.773   1.989e-17 
   9405.319   6.808e-18 
   9406.867   8.526e-18 
   9408.414   1.525e-17 
    9409.96   1.104e-17 
   9411.507   1.518e-17 
   9413.053   1.812e-17 
     9414.6   4.165e-18 
   9416.147   3.306e-17 
   9417.693  -1.958e-17 
    9419.24   1.555e-17 
   9420.787   5.056e-17 
   9422.334   4.061e-18 
    9423.88   1.111e-17 
   9425.427   6.068e-18 
   9426.974   1.331e-17 
    9428.52   1.245e-17 
   9430.067   4.248e-18 
   9431.613   1.028e-17 
    9433.16   1.046e-17 
   9434.707   2.393e-18 
   9436.253    1.78e-18 
     9437.8  -1.267e-17 
   9439.347   2.181e-17 
   9440.894   5.107e-17 
    9442.44  -1.216e-17 
   9443.987   6.005e-19 
   9445.534   4.113e-18 
    9447.08   1.799e-17 
   9448.627   2.076e-17 
   9450.173   1.251e-17 
    9451.72   2.155e-18 
   9453.266  -8.458e-18 
   9454.813   2.899e-17 
    9456.36  -1.183e-17 
   9457.906  -1.235e-17 
   9459.453   3.591e-17 
   9460.999  -1.754e-17 
   9462.546   1.075e-17 
   9464.093    8.61e-18 
   9465.639   1.049e-17 
   9467.186   1.426e-17 
   9468.732    1.15e-17 
   9470.279  -2.139e-18 
   9471.825  -1.196e-17 
   9473.372   4.169e-17 
   9474.919   1.513e-17 
   9476.465    1.16e-17 
   9478.012   1.228e-17 
   9479.558   2.559e-19 
   9481.105   1.764e-17 
   9482.652   9.032e-18 
   9484.198   1.842e-17 
   9485.745    1.42e-17 
   9487.291   1.614e-17 
   9488.838   1.071e-17 
   9490.384   1.105e-17 
   9491.931   6.283e-18 
   9493.478   2.307e-17 
   9495.024   1.222e-17 
   9496.571   1.444e-18 
   9498.117   1.092e-17 
   9499.663   1.803e-17 
    9501.21  -2.642e-17 
   9502.756   8.045e-18 
   9504.303       5e-18 
   9505.849  -5.282e-19 
   9507.396   8.098e-18 
   9508.942   9.234e-18 
   9510.489   1.139e-17 
   9512.036   1.114e-17 
   9513.582   5.816e-18 
   9515.129   6.357e-18 
   9516.674  -1.124e-17 
   9518.221   4.641e-17 
   9519.767  -8.416e-19 
   9521.314  -1.725e-17 
   9522.861  -2.109e-18 
   9524.407   1.086e-17 
   9525.954   1.095e-17 
     9527.5   1.548e-17 
   9529.047   1.458e-17 
   9530.593   8.533e-18 
   9532.139       4e-18 
   9533.686   9.152e-18 
   9535.232   1.081e-17 
   9536.779    3.22e-18 
   9538.325   3.682e-18 
   9539.871   6.584e-18 
   9541.418   1.274e-17 
   9542.964   1.206e-17 
   9544.511   8.885e-18 
   9546.057   6.627e-18 
   9547.604   6.104e-18 
    9549.15  -3.361e-19 
   9550.696   3.924e-18 
   9552.243   2.979e-17 
   9553.789   4.243e-18 
   9555.336   1.689e-17 
   9556.881   2.048e-17 
   9558.428   1.342e-17 
   9559.975   1.285e-17 
   9561.521  -3.959e-18 
   9563.068   2.245e-17 
   9564.613  -3.473e-17 
    9566.16  -1.941e-17 
   9567.706   7.608e-18 
   9569.253   8.476e-18 
     9570.8   2.276e-18 
   9572.345    4.92e-18 
   9573.892   9.141e-18 
   9575.438   1.214e-17 
   9576.985   1.741e-17 
   9578.531   8.842e-19 
   9580.077   8.309e-18 
   9581.624    5.79e-18 
   9583.169   1.935e-18 
   9584.716   9.011e-18 
   9586.262   1.061e-17 
   9587.809   9.052e-18 
   9589.355   1.193e-17 
   9590.901   1.515e-17 
   9592.448   1.326e-17 
   9593.993   3.459e-18 
    9595.54   9.474e-18 
   9597.087   1.171e-17 
   9598.633   1.583e-18 
   9600.179   7.164e-18 
   9601.725    5.27e-18 
   9603.272   9.963e-18 
   9604.817   9.119e-18 
   9606.364   8.552e-18 
   9607.911   3.296e-18 
   9609.456    1.59e-17 
   9611.003   6.795e-18 
   9612.549   1.279e-17 
   9614.095   8.396e-18 
   9615.642  -1.742e-18 
   9617.187   1.539e-17 
   9618.734   1.846e-17 
    9620.28   1.051e-17 
   9621.826   2.472e-17 
   9623.372   9.592e-18 
   9624.919   3.784e-18 
   9626.465   2.232e-17 
   9628.011   9.668e-18 
   9629.557   1.063e-17 
   9631.103   8.647e-18 
    9632.65   5.682e-18 
   9634.195   1.324e-17 
   9635.742  -3.128e-18 
   9637.288    7.33e-18 
   9638.834   7.971e-18 
   9640.381   6.154e-18 
   9641.926     5.5e-18 
   9643.473   1.019e-17 
   9645.019   1.164e-17 
   9646.565  -3.822e-18 
   9648.111   4.467e-18 
   9649.657   8.138e-18 
   9651.203  -3.585e-18 
   9652.749   1.218e-17 
   9654.295   9.456e-18 
   9655.842    9.35e-18 
   9657.388   1.533e-17 
   9658.934   6.205e-18 
    9660.48   9.269e-18 
   9662.026   7.683e-18 
   9663.573  -6.141e-19 
   9665.118   1.206e-17 
   9666.665   1.292e-17 
    9668.21    3.75e-18 
   9669.757  -1.301e-17 
   9671.302   6.102e-18 
   9672.848   8.193e-18 
   9674.395   2.072e-18 
    9675.94   1.435e-17 
   9677.487    8.95e-18 
   9679.032   2.515e-17 
   9680.579    1.03e-17 
   9682.124  -6.136e-19 
   9683.671   1.072e-17 
   9685.217  -2.206e-18 
   9686.763  -8.904e-19 
   9688.309   1.531e-17 
   9689.854  -3.288e-18 
   9691.401   8.818e-18 
   9692.947  -3.757e-18 
   9694.493  -8.793e-19 
   9696.039   1.975e-18 
   9697.584   2.749e-17 
   9699.131   9.341e-18 
   9700.676  -1.866e-18 
   9702.223   1.242e-17 
   9703.769   1.627e-17 
   9705.314   5.532e-18 
   9706.861   1.143e-17 
   9708.406   7.993e-18 
   9709.952   2.093e-17 
   9711.499  -6.541e-18 
   9713.044   1.526e-17 
    9714.59   -1.28e-17 
   9716.136   3.155e-18 
   9717.682   1.429e-17 
   9719.227   4.482e-19 
   9720.774  -3.252e-18 
    9722.32  -2.961e-18 
   9723.865   8.809e-18 
   9725.412   1.305e-17 
   9726.957   8.234e-18 
   9728.503   3.115e-18 
    9730.05     5.3e-18 
   9731.595   9.958e-18 
   9733.141   1.387e-17 
   9734.686  -1.909e-17 
   9736.233   1.557e-17 
   9737.778   1.882e-17 
   9739.324   4.001e-18 
    9740.87   1.575e-17 
   9742.416   7.592e-19 
   9743.962   8.399e-18 
   9745.507   4.222e-18 
   9747.053   2.049e-17 
   9748.599   2.801e-18 
   9750.145   6.866e-18 
   9751.691   1.073e-17 
   9753.236   1.513e-18 
   9754.783   7.649e-18 
   9756.328    1.91e-17 
   9757.874   4.108e-18 
    9759.42   3.334e-18 
   9760.965   9.324e-18 
   9762.511   6.731e-18 
   9764.057   7.582e-18 
   9765.603    6.89e-18 
   9767.148   5.341e-18 
   9768.694   7.501e-18 
    9770.24   6.016e-18 
   9771.785   1.247e-17 
   9773.332   5.118e-18 
   9774.877   4.324e-18 
   9776.423   2.175e-18 
   9777.969   1.457e-17 
   9779.514   9.809e-18 
    9781.06   1.397e-17 
   9782.605   1.819e-17 
   9784.151   2.094e-18 
   9785.697   1.242e-17 
   9787.243   4.602e-18 
   9788.789   3.677e-17 
   9790.334  -2.109e-17 
    9791.88   2.162e-17 
   9793.425   6.663e-18 
   9794.971   6.762e-18 
   9796.516   2.339e-17 
   9798.062   1.584e-18 
   9799.608  -8.616e-18 
   9801.153   1.014e-18 
   9802.699   1.116e-17 
   9804.244  -9.263e-19 
    9805.79   1.434e-17 
   9807.336   1.681e-17 
   9808.881   6.239e-18 
   9810.427   6.307e-18 
   9811.972   3.063e-17 
   9813.518   9.217e-19 
   9815.063   2.254e-17 
   9816.609   1.405e-17 
   9818.155    8.57e-18 
     9819.7   9.935e-18 
   9821.246   7.777e-18 
   9822.791  -4.295e-18 
   9824.337     1.4e-17 
   9825.883   6.241e-18 
   9827.428   1.798e-17 
   9828.974   2.385e-17 
   9830.519   8.263e-18 
   9832.065   1.937e-17 
    9833.61  -2.876e-18 
   9835.156   1.698e-17 
   9836.702   2.261e-18 
   9838.246   5.383e-18 
   9839.792   7.349e-18 
   9841.337    7.32e-18 
   9842.883   -5.36e-18 
   9844.429   2.976e-18 
   9845.974   1.538e-19 
    9847.52  -3.969e-18 
   9849.065   1.781e-17 
    9850.61   5.803e-18 
   9852.155   6.438e-18 
   9853.701   1.943e-17 
   9855.247   5.639e-19 
   9856.792    5.38e-18 
   9858.338   8.002e-18 
   9859.882    1.34e-17 
   9861.428   3.304e-18 
   9862.973   9.209e-18 
   9864.519   1.201e-17 
   9866.065  -1.054e-18 
   9867.609    4.91e-19 
   9869.155   1.788e-17 
     9870.7   3.459e-17 
   9872.246   2.161e-17 
   9873.791   2.011e-17 
   9875.336   -1.25e-17 
   9876.882   1.245e-17 
   9878.427   1.024e-17 
   9879.972   1.031e-18 
   9881.517  -2.945e-18 
   9883.063   1.203e-17 
   9884.609   8.283e-18 
   9886.153  -4.795e-18 
   9887.699    1.61e-17 
   9889.244   3.186e-18 
   9890.789   3.961e-18 
   9892.335   1.532e-17 
    9893.88  -8.409e-18 
   9895.425   1.397e-17 
    9896.97  -1.443e-17 
   9898.516   1.334e-17 
    9900.06  -5.604e-18 
   9901.606   6.124e-18 
   9903.152   1.995e-17 
   9904.696  -1.492e-18 
   9906.242   1.101e-17 
   9907.787    1.26e-17 
   9909.332   1.298e-17 
   9910.878  -8.269e-18 
   9912.422   5.602e-18 
   9913.968  -2.152e-17 
   9915.513   3.611e-17 
   9917.058   1.169e-17 
   9918.603   2.454e-17 
   9920.148   1.085e-17 
   9921.694  -3.947e-18 
   9923.239  -7.341e-19 
   9924.784   1.552e-17 
   9926.329    6.09e-18 
   9927.874   4.271e-18 
   9929.419   8.475e-18 
   9930.964  -7.121e-19 
    9932.51   5.837e-18 
   9934.054   3.295e-18 
     9935.6  -9.219e-18 
   9937.144    5.44e-18 
    9938.69  -1.492e-18 
   9940.235   4.001e-17 
    9941.78   2.649e-17 
   9943.325  -7.254e-18 
    9944.87   1.234e-17 
   9946.415   3.073e-17 
    9947.96   -2.45e-17 
   9949.505  -1.078e-17 
    9951.05     1.5e-17 
   9952.595  -1.415e-17 
    9954.14  -2.709e-17 
   9955.685   1.074e-17 
    9957.23  -1.642e-17 
   9958.775  -3.138e-17 
    9960.32  -1.979e-17 
   9961.865   1.189e-17 
    9963.41   2.336e-17 
   9964.955   1.355e-17 
   9966.499   3.567e-18 
   9968.045   1.395e-17 
    9969.59   1.811e-17 
   9971.134   1.715e-17 
    9972.68  -3.818e-18 
   9974.224   6.438e-18 
   9975.769   4.244e-18 
   9977.314   1.444e-18 
   9978.859  -3.664e-18 
   9980.404   3.543e-17 
   9981.949    1.75e-17 
   9983.494   4.994e-18 
   9985.038  -8.866e-20 
   9986.584   7.069e-18 
   9988.129  -2.721e-18 
   9989.673   2.277e-17 
   9991.218  -1.619e-18 
   9992.763   2.637e-20 
   9994.308   1.096e-17 
   9995.852   1.167e-17 
   9997.397   2.328e-17 
   9998.942     2.4e-18 
  10000.487   8.498e-18 
  10002.032  -1.123e-17 
  10003.576    2.31e-18 
  10005.121   2.008e-18 
  10006.666   1.918e-17 
  10008.211  -6.494e-18 
  10009.756   -3.55e-18 
    10011.3   8.546e-18 
  10012.845   5.453e-17 
  10014.389   4.601e-17 
  10015.934    2.75e-17 
   10017.48   7.914e-18 
  10019.024   2.527e-17 
  10020.569   7.501e-19 
  10022.113    1.92e-17 
  10023.658  -3.579e-17 
  10025.203  -1.924e-17 
  10026.747  -1.318e-17 
  10028.292  -3.948e-19 
  10029.836   8.017e-18 
  10031.381  -2.412e-18 
  10032.926   4.097e-18 
  10034.471   9.885e-18 
  10036.016   2.118e-17 
   10037.56  -4.421e-19 
  10039.105   3.028e-17 
  10040.649   1.794e-17 
  10042.194   1.389e-17 
  10043.738  -1.545e-17 
  10045.283   1.454e-18 
  10046.828   1.843e-17 
  10048.372   1.289e-17 
  10049.917   3.426e-18 
  10051.461  -1.234e-18 
  10053.006   8.759e-18 
  10054.551   2.397e-18 
  10056.095  -2.814e-18 
  10057.639   3.991e-17 
  10059.183   8.081e-18 
  10060.728   4.384e-18 
  10062.272  -1.368e-17 
  10063.817   1.405e-17 
  10065.362   6.157e-18 
  10066.906  -5.782e-19 
  10068.451   1.039e-17 
  10069.995   6.489e-18 
   10071.54   -4.34e-18 
  10073.084  -1.163e-17 
  10074.628   1.574e-17 
  10076.173   1.541e-17 
  10077.717   2.458e-18 
  10079.262  -1.488e-17 
  10080.806   2.476e-17 
  10082.351  -2.408e-17 
  10083.895   3.499e-17 
  10085.439   2.796e-18 
  10086.984  -1.056e-18 
  10088.528   2.759e-18 
  10090.073   5.253e-18 
  10091.617   2.587e-17 
  10093.161   4.698e-18 
  10094.706  -3.676e-18 
   10096.25   6.625e-18 
  10097.794  -1.349e-17 
  10099.338  -3.481e-18 
  10100.883   2.638e-17 
  10102.427    6.24e-18 
  10103.971   5.088e-18 
  10105.516   -2.68e-17 
   10107.06   1.312e-17 
  10108.604    9.17e-18 
  10110.148   1.974e-18 
  10111.693   3.802e-18 
  10113.237  -4.097e-18 
  10114.781  -6.318e-18 
  10116.326   9.875e-18 
  10117.869   1.234e-17 
  10119.414  -9.259e-18 
  10120.958   2.697e-17 
  10122.502   1.005e-17 
  10124.047  -3.004e-17 
   10125.59   4.481e-17 
  10127.135    2.27e-18 
  10128.678  -9.304e-18 
  10130.223  -8.365e-18 
  10131.768   1.418e-17 
  10133.311  -2.149e-17 
  10134.856   1.118e-17 
  10136.399   1.852e-17 
  10137.944   5.702e-18 
  10139.488   2.772e-18 
  10141.032   2.079e-18 
  10142.576   1.925e-17 
   10144.12   1.506e-17 
  10145.664   5.808e-18 
  10147.208   -2.46e-17 
  10148.752  -2.537e-17 
  10150.297  -1.602e-17 
   10151.84   2.031e-17 
  10153.385   -6.98e-18 
  10154.928   1.175e-17 
  10156.473   2.743e-17 
  10158.017  -1.515e-17 
   10159.56    1.12e-17 
  10161.105   4.361e-17 
  10162.648   7.751e-18 
  10164.193   1.152e-17 
  10165.736  -1.044e-17 
   10167.28  -1.313e-17 
  10168.825   9.298e-18 
  10170.368   5.114e-17 
  10171.912  -1.789e-17 
  10173.456   9.487e-18 
    10175.0   4.384e-17 
  10176.543   2.719e-17 
  10178.088   1.748e-17 
  10179.632  -4.502e-18 
  10181.175   8.357e-18 
   10182.72   1.194e-17 
  10184.263   5.981e-18 
  10185.807  -1.047e-17 
  10187.351  -2.551e-17 
  10188.895  -1.223e-17 
  10190.439    2.28e-17 
  10191.982   -3.46e-17 
  10193.526   3.509e-18 
   10195.07   3.619e-17 
  10196.614   2.476e-17 
  10198.158   3.139e-18 
  10199.701   1.446e-17 
  10201.245  -1.772e-17 
  10202.789   2.542e-17 
  10204.333   4.066e-17 
  10205.877   2.612e-17 
   10207.42    3.18e-17 
  10208.964   2.705e-17 
  10210.507   2.187e-17 
  10212.052  -8.363e-18 
  10213.595    2.89e-17 
  10215.139    8.76e-18 
  10216.683   1.348e-17 
  10218.226   2.275e-17 
   10219.77   3.954e-17 
  10221.313   3.159e-20 
  10222.857    3.69e-17 
  10224.401   1.141e-17 
  10225.944  -2.715e-17 
  10227.488   1.306e-17 
  10229.031   3.634e-17 
  10230.575   2.288e-17 
  10232.118   1.349e-17 
  10233.662  -2.748e-17 
  10235.206   1.315e-17 
  10236.749  -2.119e-17 
