# STATUS =
# OBJECT = 2019hge
# TELESCOPE = Keck1
# INSTRUMENT = LRIS
# DATE-OBS = 2019-07-02 00:00:00.000
# MJD = 58666.0
# EXPTIME =
# AIRMASS =
# SLIT =
# DISPERSER =
# SOURCE = DOI 10.3847/1538-4357/aca161
# FILTER =
# RESOLUTION =
# FLUX_STANDARD =
# EXTINCTION_CORRECTED =
# PHOTOMETRY_CALIBRATED =
# TELLURIC_CORRECTED =
# FLUX_UNITS =
# WAVE_UNITS =
# QUALITY =
# MIN_WAVE = 3087.1243
# MAX_WAVE = 10307.2
# COMMENT =
 Wavelength          Flux 
  3089.0732   3.20153e-16 
  3091.0232   2.98675e-16 
  3092.9734   3.25096e-16 
  3094.9246   3.05731e-16 
  3096.8762   2.61307e-16 
  3098.8284   1.49496e-16 
  3100.7812   2.67549e-16 
  3102.7349   2.29759e-16 
   3104.689   1.36691e-16 
  3106.6438   2.54667e-16 
  3108.5991   2.76828e-16 
  3110.5552   2.52914e-16 
  3112.5117   1.21337e-16 
   3114.469   2.70135e-16 
  3116.4268   2.71548e-16 
  3118.3853   3.15634e-16 
  3120.3445   2.16641e-16 
  3122.3042   2.16127e-16 
  3124.2644   1.58279e-16 
  3126.2253    2.8037e-16 
  3128.1868    2.1569e-16 
  3130.1489   2.23678e-16 
  3132.1118    2.1642e-16 
   3134.075   2.33879e-16 
  3136.0391   1.78505e-16 
  3138.0037   2.09112e-16 
  3139.9688    2.3337e-16 
  3141.9346   1.67533e-16 
  3143.9009    1.8904e-16 
  3145.8679   1.81833e-16 
  3147.8354   2.43585e-16 
  3149.8037   2.04934e-16 
  3151.7725   1.99848e-16 
  3153.7417   2.07398e-16 
  3155.7119   1.80358e-16 
  3157.6824   1.69109e-16 
  3159.6536   2.38483e-16 
  3161.6252   2.46346e-16 
  3163.5977   1.57951e-16 
  3165.5706   1.96677e-16 
  3167.5442   2.15828e-16 
  3169.5183   2.06569e-16 
  3171.4929   1.90745e-16 
  3173.4683   2.27255e-16 
  3175.4441   1.94561e-16 
  3177.4204   2.48909e-16 
  3179.3977   2.51841e-16 
  3181.3752   2.22634e-16 
  3183.3535   2.69787e-16 
  3185.3323   2.80346e-16 
  3187.3118   2.34017e-16 
  3189.2915   2.65315e-16 
  3191.2722    2.2059e-16 
  3193.2534   2.29718e-16 
  3195.2351    2.2994e-16 
  3197.2173   2.18051e-16 
  3199.2002   2.33485e-16 
  3201.1836    2.2675e-16 
  3203.1675   2.47937e-16 
  3205.1521   2.06094e-16 
  3207.1372   2.81871e-16 
   3209.123   2.83328e-16 
  3211.1094   2.72699e-16 
  3213.0962   2.61002e-16 
  3215.0835   2.65103e-16 
  3217.0715   2.30988e-16 
  3219.0601   2.25332e-16 
  3221.0493   2.10588e-16 
  3223.0391   2.42021e-16 
  3225.0293   2.61986e-16 
    3227.02   2.36584e-16 
  3229.0115   2.32888e-16 
  3231.0034   2.53758e-16 
  3232.9958   2.64977e-16 
   3234.989   2.75808e-16 
  3236.9824   2.57359e-16 
  3238.9768   2.32089e-16 
  3240.9714   2.43256e-16 
  3242.9668   2.56546e-16 
  3244.9624   2.37181e-16 
   3246.959   2.62111e-16 
  3248.9558   2.84855e-16 
  3250.9534   2.56643e-16 
  3252.9514   2.29563e-16 
    3254.95   2.35299e-16 
  3256.9492   2.76051e-16 
  3258.9487    2.3593e-16 
   3260.949   2.87786e-16 
  3262.9497   2.76737e-16 
  3264.9512   2.49578e-16 
  3266.9529   2.57351e-16 
  3268.9553   2.55858e-16 
  3270.9583   2.48913e-16 
  3272.9619    2.2625e-16 
  3274.9658   2.47877e-16 
  3276.9705    2.3171e-16 
  3278.9756   2.11017e-16 
  3280.9812   2.25887e-16 
  3282.9873   2.16055e-16 
  3284.9941   2.62865e-16 
  3287.0012    2.2991e-16 
   3289.009   2.24174e-16 
  3291.0173   2.05905e-16 
  3293.0264   2.29801e-16 
  3295.0356    2.1051e-16 
  3297.0454   2.14209e-16 
  3299.0559   2.02293e-16 
  3301.0669    1.8609e-16 
  3303.0784   2.13815e-16 
  3305.0906   2.05729e-16 
   3307.103   2.07373e-16 
  3309.1162    2.2464e-16 
  3311.1296   2.28405e-16 
  3313.1438   2.05452e-16 
  3315.1584   2.11922e-16 
  3317.1736    2.0846e-16 
  3319.1892   2.29539e-16 
  3321.2053   2.26177e-16 
  3323.2222   2.48306e-16 
  3325.2395   2.39209e-16 
  3327.2571   2.18963e-16 
  3329.2754   2.38793e-16 
  3331.2942   2.16084e-16 
  3333.3135    2.3607e-16 
  3335.3333    2.2162e-16 
  3337.3535   2.39268e-16 
  3339.3745   2.22241e-16 
  3341.3958   2.03234e-16 
  3343.4175   2.08489e-16 
  3345.4399   2.16659e-16 
  3347.4629   2.19306e-16 
  3349.4861   2.25565e-16 
    3351.51   2.36476e-16 
  3353.5344   2.26573e-16 
  3355.5593   2.00231e-16 
  3357.5847    2.1765e-16 
  3359.6106   2.19726e-16 
   3361.637    2.0154e-16 
  3363.6638   2.09973e-16 
  3365.6912   2.04664e-16 
   3367.719   1.95021e-16 
  3369.7476   2.03885e-16 
  3371.7764   1.93806e-16 
  3373.8057   2.05927e-16 
  3375.8357   1.86876e-16 
   3377.866   2.08679e-16 
  3379.8967   2.00409e-16 
   3381.928   2.17419e-16 
    3383.96   2.13394e-16 
  3385.9922   2.00187e-16 
  3388.0251   2.07806e-16 
  3390.0583   2.27711e-16 
  3392.0923   2.05181e-16 
  3394.1265   2.02796e-16 
  3396.1611   2.14708e-16 
  3398.1965   2.13601e-16 
  3400.2322   2.22679e-16 
  3402.2683   2.20761e-16 
  3404.3052   1.91804e-16 
  3406.3423   1.99271e-16 
  3408.3799   2.17182e-16 
  3410.4182   2.15669e-16 
  3412.4568   1.90127e-16 
  3414.4958   1.97631e-16 
  3416.5354   1.94571e-16 
  3418.5754   2.10733e-16 
   3420.616   2.08446e-16 
   3422.657   1.88959e-16 
  3424.6985   2.12574e-16 
  3426.7405    2.2543e-16 
  3428.7827   1.86866e-16 
  3430.8257   2.06072e-16 
  3432.8691   2.02307e-16 
  3434.9128   2.03718e-16 
  3436.9573   1.99666e-16 
   3439.002   2.21289e-16 
  3441.0471   2.11392e-16 
   3443.093   2.14883e-16 
  3445.1392   1.93524e-16 
  3447.1858   2.00272e-16 
  3449.2329   2.06408e-16 
  3451.2803   2.22762e-16 
  3453.3284   2.13472e-16 
  3455.3767   2.04018e-16 
  3457.4258   2.14727e-16 
  3459.4751   2.13713e-16 
  3461.5249   2.03751e-16 
  3463.5752    2.1452e-16 
  3465.6262   1.99766e-16 
  3467.6772   2.13317e-16 
   3469.729   2.13261e-16 
   3471.781   2.17416e-16 
  3473.8337   2.20238e-16 
  3475.8867   2.12472e-16 
  3477.9402   2.07446e-16 
  3479.9941   2.23298e-16 
  3482.0486   2.11232e-16 
  3484.1035   2.14332e-16 
  3486.1587   2.23015e-16 
  3488.2144   2.19322e-16 
  3490.2705   2.14961e-16 
  3492.3271   2.21025e-16 
  3494.3843   2.06005e-16 
  3496.4419   2.25793e-16 
  3498.4998   2.24532e-16 
  3500.5581   2.22401e-16 
  3502.6169   2.17775e-16 
  3504.6763   2.17685e-16 
  3506.7361   2.18995e-16 
  3508.7961   2.01225e-16 
  3510.8567   2.09814e-16 
  3512.9177   2.03913e-16 
  3514.9792   1.93054e-16 
   3517.041   2.09484e-16 
  3519.1035   2.07873e-16 
  3521.1663   2.08943e-16 
  3523.2295    1.9824e-16 
   3525.293   2.14626e-16 
  3527.3572   2.09396e-16 
  3529.4216   2.07555e-16 
  3531.4866   2.08818e-16 
   3533.552   2.05264e-16 
  3535.6177   2.07144e-16 
  3537.6838    1.9233e-16 
  3539.7505   2.02107e-16 
  3541.8176   1.96197e-16 
   3543.885   1.89609e-16 
  3545.9529    1.9771e-16 
  3548.0212    1.9845e-16 
  3550.0901   1.89413e-16 
  3552.1592   1.99278e-16 
  3554.2288   1.88611e-16 
  3556.2988   1.99901e-16 
  3558.3694   1.96108e-16 
  3560.4402   1.92762e-16 
  3562.5115   1.92734e-16 
   3564.583   1.94743e-16 
  3566.6553   1.89582e-16 
  3568.7278   1.90722e-16 
  3570.8005   1.90713e-16 
  3572.8738   1.94616e-16 
  3574.9478   1.93063e-16 
   3577.022    1.9853e-16 
  3579.0964    1.9433e-16 
  3581.1714    1.9143e-16 
  3583.2468    1.9185e-16 
  3585.3225   1.97596e-16 
  3587.3987   1.84323e-16 
  3589.4753   1.93585e-16 
  3591.5525   1.83744e-16 
  3593.6299   1.89868e-16 
  3595.7078   1.88807e-16 
  3597.7859   1.92522e-16 
  3599.8645   1.91853e-16 
  3601.9436   1.91865e-16 
  3604.0232   1.86686e-16 
  3606.1028   1.81876e-16 
  3608.1831     1.858e-16 
  3610.2639   1.86995e-16 
  3612.3447   1.83249e-16 
  3614.4263   1.81583e-16 
  3616.5081   1.87891e-16 
  3618.5903   1.89589e-16 
  3620.6729   1.89493e-16 
  3622.7559   1.94816e-16 
  3624.8394   2.00311e-16 
  3626.9231   2.03797e-16 
  3629.0073   1.92885e-16 
  3631.0918   1.83691e-16 
   3633.177   2.01294e-16 
  3635.2622   1.96168e-16 
  3637.3479   1.99216e-16 
  3639.4341   2.00637e-16 
  3641.5205   1.95421e-16 
  3643.6074   2.06417e-16 
  3645.6948   1.92762e-16 
  3647.7825   2.02036e-16 
  3649.8706   2.02878e-16 
   3651.959   1.98552e-16 
  3654.0479   2.00898e-16 
   3656.137   2.09018e-16 
  3658.2266   2.09822e-16 
  3660.3164   2.04668e-16 
   3662.407   2.05183e-16 
  3664.4976   2.08116e-16 
  3666.5886   2.03988e-16 
  3668.6802   2.07071e-16 
   3670.772   2.10551e-16 
  3672.8643   1.91071e-16 
  3674.9568   1.98616e-16 
  3677.0498   2.14257e-16 
  3679.1431   2.08587e-16 
  3681.2368   1.96284e-16 
  3683.3308   2.03389e-16 
  3685.4253   2.15427e-16 
  3687.5203   2.10903e-16 
  3689.6155   1.96886e-16 
  3691.7109   1.99756e-16 
  3693.8069   1.92843e-16 
  3695.9033   1.97853e-16 
  3697.9998   1.93987e-16 
  3700.0969   1.96419e-16 
  3702.1941   1.89911e-16 
   3704.292   1.92879e-16 
  3706.3901   1.89166e-16 
  3708.4885   1.81102e-16 
  3710.5874   1.81064e-16 
  3712.6865   1.89631e-16 
  3714.7861   1.84626e-16 
   3716.886   1.90096e-16 
  3718.9863   1.86511e-16 
  3721.0869    1.7615e-16 
   3723.188   1.78032e-16 
  3725.2893   1.81478e-16 
  3727.3911   1.94335e-16 
  3729.4929   1.92947e-16 
  3731.5955   1.90866e-16 
  3733.6982    1.9153e-16 
  3735.8013   1.92426e-16 
  3737.9048   1.96401e-16 
  3740.0085   1.98937e-16 
  3742.1128   1.96082e-16 
  3744.2173   1.94571e-16 
   3746.322   1.94874e-16 
  3748.4272    2.0792e-16 
  3750.5327   2.01329e-16 
  3752.6387    2.0288e-16 
  3754.7449   1.97287e-16 
  3756.8516   2.00765e-16 
  3758.9585   2.08439e-16 
  3761.0657    2.1559e-16 
  3763.1733   1.91703e-16 
  3765.2812   2.04879e-16 
  3767.3894   2.05105e-16 
   3769.498   2.13073e-16 
  3771.6072   1.99256e-16 
  3773.7163   1.92129e-16 
  3775.8262   1.97183e-16 
   3777.936    2.0786e-16 
  3780.0464   1.92652e-16 
   3782.157    1.9987e-16 
  3784.2681   2.02558e-16 
  3786.3794   2.02431e-16 
   3788.491   1.92417e-16 
  3790.6028   1.98257e-16 
  3792.7151   2.13519e-16 
  3794.8279   2.09433e-16 
  3796.9409   2.04394e-16 
  3799.0542   1.99762e-16 
  3801.1677   2.04002e-16 
  3803.2817   2.07302e-16 
   3805.396   2.09773e-16 
  3807.5105   2.12612e-16 
  3809.6255    2.0665e-16 
  3811.7407   2.03779e-16 
  3813.8564    1.9889e-16 
  3815.9724   1.98213e-16 
  3818.0886   1.94627e-16 
  3820.2051   2.01914e-16 
   3822.322   1.95832e-16 
  3824.4392    1.9622e-16 
  3826.5566   1.86372e-16 
  3828.6746    1.9343e-16 
  3830.7927   1.95838e-16 
  3832.9111   2.02956e-16 
    3835.03   1.97401e-16 
  3837.1492   2.03144e-16 
  3839.2686   1.96082e-16 
  3841.3882   1.92941e-16 
  3843.5083   1.90505e-16 
  3845.6287   1.93938e-16 
  3847.7493   2.05954e-16 
  3849.8704   2.02668e-16 
  3851.9917   1.97057e-16 
  3854.1133   1.90088e-16 
  3856.2351   1.92848e-16 
  3858.3574    2.0914e-16 
  3860.4797   2.11715e-16 
  3862.6028   1.98619e-16 
  3864.7258   2.04577e-16 
  3866.8494   2.09732e-16 
  3868.9729   1.97772e-16 
  3871.0972   2.08925e-16 
  3873.2214   2.10293e-16 
  3875.3462   2.10835e-16 
  3877.4712   2.17951e-16 
  3879.5964   2.07381e-16 
  3881.7219   2.08839e-16 
  3883.8479   2.06207e-16 
  3885.9741   1.96136e-16 
  3888.1003    2.0596e-16 
  3890.2273   2.10446e-16 
  3892.3542   1.94196e-16 
  3894.4817   2.13082e-16 
  3896.6094   1.91203e-16 
  3898.7373   2.04968e-16 
  3900.8655   1.98171e-16 
  3902.9941   1.98385e-16 
  3905.1228   1.92916e-16 
   3907.252   1.90507e-16 
  3909.3813   2.04808e-16 
  3911.5112   1.91785e-16 
  3913.6411   2.03546e-16 
  3915.7715   1.90068e-16 
  3917.9021   2.03407e-16 
   3920.033   2.04955e-16 
  3922.1641   1.98588e-16 
  3924.2954   1.96518e-16 
  3926.4272    2.0242e-16 
  3928.5591    2.0337e-16 
  3930.6914   1.85992e-16 
  3932.8242   1.95665e-16 
   3934.957   1.92407e-16 
  3937.0901    1.9609e-16 
  3939.2236    2.0227e-16 
  3941.3574   1.96201e-16 
  3943.4912   2.00478e-16 
  3945.6255    1.9661e-16 
    3947.76    2.0563e-16 
   3949.895   1.99978e-16 
    3952.03   1.94032e-16 
  3954.1655   2.00126e-16 
   3956.301    1.9226e-16 
   3958.437   2.01828e-16 
  3960.5732   1.89179e-16 
  3962.7097   1.83356e-16 
  3964.8464   1.83188e-16 
  3966.9836   1.82333e-16 
  3969.1208   1.85125e-16 
  3971.2585   1.84164e-16 
  3973.3962   1.87992e-16 
  3975.5344   1.86048e-16 
  3977.6729   1.84901e-16 
  3979.8115   1.89728e-16 
  3981.9504   1.83328e-16 
  3984.0896   1.83718e-16 
   3986.229   1.82955e-16 
  3988.3689   1.75717e-16 
  3990.5088   1.82216e-16 
  3992.6492   1.79581e-16 
  3994.7896    1.7789e-16 
  3996.9304   1.80736e-16 
  3999.0713   1.82264e-16 
  4001.2129    1.9127e-16 
  4003.3542   1.80337e-16 
  4005.4961   1.88055e-16 
  4007.6382   1.85609e-16 
  4009.7805   1.90574e-16 
  4011.9231   1.95867e-16 
  4014.0662   1.95684e-16 
  4016.2092   1.90131e-16 
  4018.3525   1.88879e-16 
  4020.4963   1.89059e-16 
  4022.6401   2.06935e-16 
  4024.7842   1.88738e-16 
  4026.9287   1.90995e-16 
  4029.0735   1.87782e-16 
  4031.2183   1.93695e-16 
  4033.3635   1.89285e-16 
  4035.5088   1.93709e-16 
  4037.6545   1.83481e-16 
  4039.8005   1.86431e-16 
  4041.9468   1.83665e-16 
   4044.093   1.76726e-16 
  4046.2397    1.8555e-16 
  4048.3867   1.83061e-16 
  4050.5339   1.80242e-16 
  4052.6814   1.87551e-16 
  4054.8291   1.82866e-16 
  4056.9768   1.79472e-16 
   4059.125   1.76337e-16 
  4061.2734   1.73714e-16 
  4063.4221    1.7391e-16 
  4065.5708   1.78153e-16 
    4067.72   1.76035e-16 
  4069.8694   1.72116e-16 
   4072.019   1.75298e-16 
  4074.1687   1.72662e-16 
  4076.3188   1.74498e-16 
  4078.4692   1.63272e-16 
  4080.6199    1.6248e-16 
  4082.7705   1.63188e-16 
  4084.9216   1.57391e-16 
   4087.073   1.56134e-16 
  4089.2244   1.57312e-16 
  4091.3762   1.60396e-16 
  4093.5281   1.62594e-16 
  4095.6804   1.55694e-16 
  4097.8325   1.57852e-16 
  4099.9854   1.65071e-16 
  4102.1382   1.68371e-16 
  4104.2915   1.58914e-16 
  4106.4448   1.67858e-16 
  4108.5986   1.65095e-16 
  4110.7524   1.66475e-16 
  4112.9062   1.69299e-16 
  4115.0605   1.69687e-16 
  4117.2148   1.64233e-16 
  4119.3696   1.74014e-16 
  4121.5249   1.77566e-16 
  4123.6797   1.74662e-16 
  4125.8354   1.73666e-16 
  4127.9907   1.72077e-16 
   4130.147   1.73407e-16 
  4132.3027   1.72872e-16 
   4134.459   1.69141e-16 
  4136.6157   1.66463e-16 
  4138.7725   1.74549e-16 
  4140.9292   1.71496e-16 
  4143.0864   1.71115e-16 
  4145.2441   1.69956e-16 
  4147.4014   1.69538e-16 
  4149.5596   1.63305e-16 
  4151.7173   1.66538e-16 
   4153.876   1.56819e-16 
  4156.0342   1.59372e-16 
  4158.1929   1.55843e-16 
  4160.3521   1.55512e-16 
  4162.5112   1.53907e-16 
  4164.6704   1.51731e-16 
  4166.8301    1.5212e-16 
  4168.9897   1.52476e-16 
  4171.1494    1.5188e-16 
  4173.3096   1.52705e-16 
  4175.4702    1.5037e-16 
  4177.6309     1.471e-16 
  4179.7915   1.53402e-16 
  4181.9526   1.51497e-16 
  4184.1138   1.52012e-16 
  4186.2754   1.52217e-16 
   4188.437   1.52543e-16 
  4190.5991   1.52847e-16 
  4192.7607   1.47961e-16 
  4194.9233    1.5831e-16 
  4197.0859   1.59637e-16 
  4199.2485    1.6067e-16 
  4201.4111    1.5309e-16 
  4203.5742   1.56711e-16 
  4205.7378   1.52672e-16 
  4207.9009   1.60743e-16 
  4210.0649   1.63596e-16 
  4212.2285   1.56146e-16 
  4214.3926    1.5932e-16 
  4216.5571   1.57289e-16 
  4218.7217   1.63562e-16 
  4220.8862   1.70427e-16 
  4223.0508    1.5835e-16 
  4225.2163   1.66362e-16 
  4227.3813   1.67355e-16 
  4229.5469   1.77405e-16 
  4231.7124   1.73308e-16 
  4233.8784   1.70708e-16 
  4236.0444   1.72271e-16 
  4238.2104   1.69498e-16 
   4240.377   1.75655e-16 
  4242.5435   1.75818e-16 
  4244.7104   1.76705e-16 
  4246.8774   1.81319e-16 
  4249.0449   1.73017e-16 
  4251.2119   1.72073e-16 
  4253.3794   1.80853e-16 
  4255.5474    1.7991e-16 
  4257.7153   1.79076e-16 
  4259.8833   1.77013e-16 
  4262.0518   1.74204e-16 
  4264.2202   1.78556e-16 
  4266.3892   1.78952e-16 
  4268.5581   1.74337e-16 
  4270.7271   1.73072e-16 
   4272.896   1.70924e-16 
  4275.0654   1.68417e-16 
  4277.2354   1.72823e-16 
  4279.4048   1.74454e-16 
  4281.5752    1.7248e-16 
  4283.7451   1.73147e-16 
  4285.9155   1.75655e-16 
  4288.0859   1.73248e-16 
  4290.2568   1.71192e-16 
  4292.4277   1.72321e-16 
  4294.5986   1.69539e-16 
    4296.77   1.80176e-16 
  4298.9414   1.68792e-16 
  4301.1128   1.72761e-16 
  4303.2847   1.75888e-16 
  4305.4565   1.67408e-16 
  4307.6284   1.71424e-16 
  4309.8008   1.70228e-16 
  4311.9731   1.72644e-16 
   4314.146   1.69609e-16 
  4316.3184   1.74828e-16 
  4318.4917   1.68102e-16 
  4320.6646     1.734e-16 
  4322.8379   1.70162e-16 
  4325.0117   1.73933e-16 
  4327.1851   1.69496e-16 
  4329.3589   1.73054e-16 
  4331.5327   1.76434e-16 
   4333.707    1.6633e-16 
  4335.8813   1.72829e-16 
  4338.0557   1.74141e-16 
  4340.2305   1.71545e-16 
  4342.4053   1.73148e-16 
  4344.5801   1.74206e-16 
  4346.7554   1.71518e-16 
  4348.9307   1.62055e-16 
   4351.106   1.69627e-16 
  4353.2817   1.66623e-16 
  4355.4575   1.63457e-16 
  4357.6333   1.63628e-16 
  4359.8096   1.64517e-16 
  4361.9858   1.64844e-16 
  4364.1621   1.62714e-16 
  4366.3389   1.63023e-16 
  4368.5156   1.54329e-16 
  4370.6924   1.54384e-16 
  4372.8696   1.54284e-16 
  4375.0469    1.5084e-16 
  4377.2241   1.61009e-16 
  4379.4019   1.57461e-16 
  4381.5796   1.49728e-16 
  4383.7573   1.55468e-16 
  4385.9351    1.5677e-16 
  4388.1133   1.57299e-16 
  4390.2915   1.55451e-16 
  4392.4702   1.48011e-16 
  4394.6489   1.53408e-16 
  4396.8276   1.53598e-16 
  4399.0063   1.48103e-16 
  4401.1855   1.59552e-16 
  4403.3647   1.51969e-16 
  4405.5439   1.57542e-16 
  4407.7236    1.5166e-16 
  4409.9033   1.55958e-16 
   4412.083   1.61089e-16 
  4414.2627   1.53581e-16 
  4416.4429   1.55032e-16 
  4418.6235   1.61789e-16 
  4420.8037   1.53419e-16 
  4422.9844   1.64337e-16 
   4425.165       1.6e-16 
  4427.3457    1.6047e-16 
  4429.5264   1.63338e-16 
  4431.7075   1.53729e-16 
  4433.8892   1.59311e-16 
  4436.0703   1.61205e-16 
   4438.252   1.64663e-16 
  4440.4336   1.66348e-16 
  4442.6152   1.66885e-16 
  4444.7974   1.64537e-16 
  4446.9795     1.594e-16 
  4449.1616   1.67758e-16 
  4451.3442   1.62382e-16 
  4453.5264   1.69932e-16 
   4455.709   1.69874e-16 
  4457.8921   1.65854e-16 
  4460.0747   1.57335e-16 
  4462.2578   1.58419e-16 
  4464.4409   1.65928e-16 
  4466.6245   1.62158e-16 
  4468.8076   1.66396e-16 
  4470.9912   1.68737e-16 
  4473.1753   1.62951e-16 
  4475.3589   1.53408e-16 
   4477.543   1.67107e-16 
  4479.7271   1.66751e-16 
  4481.9111   1.65115e-16 
  4484.0957    1.6598e-16 
  4486.2803   1.65638e-16 
  4488.4648   1.60069e-16 
  4490.6494   1.60393e-16 
  4492.8345   1.60018e-16 
  4495.0195   1.59156e-16 
  4497.2046   1.60634e-16 
  4499.3896   1.57274e-16 
  4501.5752   1.58593e-16 
  4503.7607    1.5293e-16 
  4505.9463   1.62058e-16 
  4508.1323   1.49377e-16 
  4510.3179   1.59368e-16 
  4512.5039   1.55116e-16 
  4514.6899   1.51857e-16 
  4516.8765   1.54554e-16 
   4519.063   1.55731e-16 
  4521.2495   1.48249e-16 
   4523.436   1.52773e-16 
  4525.6226   1.52257e-16 
  4527.8096    1.5372e-16 
  4529.9966   1.45222e-16 
  4532.1836   1.43566e-16 
  4534.3706   1.43545e-16 
  4536.5581   1.41627e-16 
  4538.7456   1.46895e-16 
  4540.9331   1.42431e-16 
  4543.1206   1.44409e-16 
  4545.3086   1.46376e-16 
  4547.4966   1.42191e-16 
  4549.6846   1.40619e-16 
  4551.8726   1.43168e-16 
   4554.061   1.42882e-16 
  4556.2495   1.41587e-16 
   4558.438   1.46859e-16 
  4560.6265   1.43235e-16 
  4562.8154   1.41817e-16 
  4565.0039   1.38531e-16 
  4567.1929   1.40526e-16 
  4569.3818    1.3783e-16 
  4571.5713   1.43602e-16 
  4573.7603   1.44708e-16 
  4575.9497   1.40551e-16 
  4578.1392   1.50599e-16 
  4580.3286   1.47129e-16 
  4582.5186   1.48014e-16 
  4584.7085   1.43962e-16 
  4586.8984   1.45464e-16 
  4589.0884   1.48412e-16 
  4591.2783   1.45177e-16 
  4593.4688   1.44121e-16 
  4595.6587   1.45479e-16 
  4597.8491   1.40242e-16 
    4600.04    1.4157e-16 
  4602.2305   1.41719e-16 
  4604.4214   1.40379e-16 
  4606.6123   1.42048e-16 
  4608.8032   1.38317e-16 
  4610.9941   1.39403e-16 
  4613.1851   1.42693e-16 
  4615.3765   1.35354e-16 
  4617.5679   1.34186e-16 
  4619.7593   1.40308e-16 
  4621.9507   1.42638e-16 
  4624.1426   1.36971e-16 
   4626.334    1.3703e-16 
  4628.5259    1.3911e-16 
  4630.7178   1.30942e-16 
  4632.9102   1.35394e-16 
  4635.1021   1.29917e-16 
  4637.2944   1.30398e-16 
  4639.4868   1.34766e-16 
  4641.6792   1.32921e-16 
  4643.8716   1.33519e-16 
  4646.0645   1.31722e-16 
  4648.2568   1.33627e-16 
  4650.4497   1.28129e-16 
  4652.6426   1.32007e-16 
  4654.8354   1.25875e-16 
  4657.0288   1.27431e-16 
  4659.2217   1.27336e-16 
   4661.415   1.29028e-16 
  4663.6084   1.29154e-16 
  4665.8018   1.32929e-16 
  4667.9951   1.31708e-16 
   4670.189   1.30254e-16 
  4672.3828   1.27479e-16 
  4674.5762   1.32273e-16 
  4676.7705   1.27897e-16 
  4678.9644   1.28692e-16 
  4681.1582   1.31283e-16 
  4683.3525    1.3347e-16 
  4685.5464   1.33476e-16 
  4687.7407     1.318e-16 
  4689.9351   1.29412e-16 
  4692.1299    1.3078e-16 
  4694.3242   1.25672e-16 
   4696.519   1.31627e-16 
  4698.7134   1.24429e-16 
  4700.9082   1.27313e-16 
  4703.1035   1.28654e-16 
  4705.2983   1.30854e-16 
  4707.4932   1.27698e-16 
  4709.6885   1.22752e-16 
  4711.8838   1.21653e-16 
  4714.0791   1.24798e-16 
  4716.2744   1.30028e-16 
  4718.4697   1.27739e-16 
   4720.665   1.23195e-16 
  4722.8608   1.24755e-16 
  4725.0566    1.2714e-16 
  4727.2524   1.22454e-16 
  4729.4482   1.27889e-16 
   4731.644   1.22605e-16 
  4733.8398   1.27011e-16 
  4736.0361   1.26402e-16 
  4738.2319   1.29959e-16 
  4740.4282   1.30445e-16 
  4742.6245   1.25481e-16 
  4744.8208   1.25688e-16 
  4747.0171   1.23155e-16 
  4749.2139   1.26061e-16 
  4751.4102   1.23515e-16 
  4753.6069   1.24333e-16 
  4755.8037   1.25384e-16 
  4758.0005   1.25694e-16 
  4760.1973   1.22891e-16 
   4762.394   1.30728e-16 
  4764.5913   1.32448e-16 
  4766.7881   1.23134e-16 
  4768.9854   1.30769e-16 
  4771.1826   1.27768e-16 
  4773.3799   1.26167e-16 
  4775.5771   1.29634e-16 
  4777.7744   1.29899e-16 
  4779.9717   1.29122e-16 
  4782.1694   1.23879e-16 
  4784.3672   1.34092e-16 
  4786.5649    1.3011e-16 
  4788.7622   1.25994e-16 
    4790.96   1.30625e-16 
  4793.1582   1.32331e-16 
   4795.356   1.30063e-16 
  4797.5537   1.30465e-16 
   4799.752   1.27996e-16 
  4801.9502   1.29485e-16 
  4804.1479   1.29609e-16 
  4806.3462   1.28455e-16 
  4808.5444   1.35203e-16 
  4810.7432   1.30219e-16 
  4812.9414   1.31896e-16 
  4815.1396   1.28616e-16 
  4817.3384   1.27824e-16 
  4819.5371   1.21374e-16 
  4821.7358   1.24385e-16 
  4823.9341   1.26623e-16 
  4826.1328   1.31451e-16 
   4828.332   1.31101e-16 
  4830.5308    1.2622e-16 
  4832.7295   1.29603e-16 
  4834.9287    1.2672e-16 
  4837.1274    1.2011e-16 
  4839.3267   1.22435e-16 
  4841.5259   1.25282e-16 
  4843.7251   1.27063e-16 
  4845.9243   1.21412e-16 
  4848.1235   1.25586e-16 
  4850.3228   1.21609e-16 
  4852.5225   1.28891e-16 
  4854.7217   1.28013e-16 
  4856.9214   1.21668e-16 
  4859.1206   1.21278e-16 
  4861.3203   1.20396e-16 
    4863.52   1.24818e-16 
  4865.7197   1.26167e-16 
  4867.9194   1.22644e-16 
  4870.1196     1.276e-16 
  4872.3193   1.23143e-16 
   4874.519   1.26482e-16 
  4876.7192   1.22565e-16 
  4878.9189   1.23144e-16 
  4881.1191   1.27847e-16 
  4883.3193   1.26884e-16 
  4885.5195   1.25102e-16 
  4887.7197    1.2122e-16 
  4889.9199   1.27666e-16 
  4892.1201   1.24822e-16 
  4894.3203   1.29694e-16 
   4896.521   1.32152e-16 
  4898.7212    1.2969e-16 
  4900.9219   1.28691e-16 
  4903.1221   1.34889e-16 
  4905.3228   1.28411e-16 
  4907.5234   1.25396e-16 
  4909.7241   1.37023e-16 
  4911.9248   1.29497e-16 
  4914.1255    1.2912e-16 
  4916.3262   1.28609e-16 
  4918.5269   1.24225e-16 
  4920.7275   1.23443e-16 
  4922.9287   1.27264e-16 
  4925.1294   1.30563e-16 
  4927.3306    1.2916e-16 
  4929.5312   1.25474e-16 
  4931.7324   1.24878e-16 
  4933.9336   1.21465e-16 
  4936.1348   1.30055e-16 
  4938.3359   1.29567e-16 
  4940.5371   1.24578e-16 
  4942.7383   1.22461e-16 
  4944.9395   1.25732e-16 
  4947.1406    1.2709e-16 
  4949.3418   1.20911e-16 
  4951.5435   1.24098e-16 
  4953.7446   1.25484e-16 
  4955.9463   1.23816e-16 
  4958.1475   1.21634e-16 
  4960.3491   1.22249e-16 
  4962.5508   1.17637e-16 
  4964.7524   1.25905e-16 
  4966.9536   1.21806e-16 
  4969.1553   1.21885e-16 
  4971.3569   1.18627e-16 
  4973.5586   1.26132e-16 
  4975.7607    1.2415e-16 
  4977.9624   1.18247e-16 
  4980.1641   1.26722e-16 
  4982.3657   1.18191e-16 
  4984.5679   1.23658e-16 
  4986.7695   1.21285e-16 
  4988.9712    1.1583e-16 
  4991.1733   1.15756e-16 
  4993.3755   1.19055e-16 
  4995.5771   1.18528e-16 
  4997.7793   1.20026e-16 
  4999.9814   1.23068e-16 
  5002.1836   1.22923e-16 
  5004.3853   1.25941e-16 
  5006.5874   1.20282e-16 
  5008.7896    1.1982e-16 
  5010.9917   1.21147e-16 
  5013.1938   1.24339e-16 
   5015.396   1.16008e-16 
  5017.5986   1.17463e-16 
  5019.8008   1.18208e-16 
  5022.0029   1.18194e-16 
  5024.2051   1.18536e-16 
  5026.4077   1.17228e-16 
  5028.6099   1.17979e-16 
  5030.8125   1.18188e-16 
  5033.0146   1.11772e-16 
  5035.2173   1.22472e-16 
  5037.4194   1.15854e-16 
  5039.6221   1.15616e-16 
  5041.8242   1.15763e-16 
  5044.0269   1.16932e-16 
  5046.2295   1.16189e-16 
  5048.4321   1.15309e-16 
  5050.6343    1.1562e-16 
  5052.8369   1.20566e-16 
  5055.0396   1.17425e-16 
  5057.2422    1.1906e-16 
  5059.4448   1.12711e-16 
  5061.6475   1.19352e-16 
  5063.8501   1.18365e-16 
  5066.0527    1.1381e-16 
  5068.2554     1.144e-16 
   5070.458   1.18511e-16 
  5072.6611   1.14336e-16 
  5074.8638    1.1631e-16 
  5077.0664   1.19834e-16 
   5079.269   1.12996e-16 
  5081.4717   1.15346e-16 
  5083.6748   1.10607e-16 
  5085.8774   1.15437e-16 
  5088.0801   1.10791e-16 
  5090.2832    1.1388e-16 
  5092.4858   1.12695e-16 
  5094.6885   1.13183e-16 
  5096.8916   1.15208e-16 
  5099.0947   1.12708e-16 
  5101.2974   1.08254e-16 
     5103.5   1.11222e-16 
  5105.7031   1.04241e-16 
  5107.9058    1.0576e-16 
  5110.1089    1.0878e-16 
   5112.312   1.02349e-16 
  5114.5146   1.05259e-16 
  5116.7178   1.04452e-16 
  5118.9209   9.97504e-17 
  5121.1235   1.05129e-16 
  5123.3267   1.01329e-16 
  5125.5298   1.00719e-16 
  5127.7324   1.01825e-16 
  5129.9355    1.0062e-16 
  5132.1387   1.02421e-16 
  5134.3413   1.01496e-16 
  5136.5444   1.04584e-16 
  5138.7476   1.04802e-16 
  5140.9507    1.0738e-16 
  5143.1533   1.07711e-16 
  5145.3564   1.05577e-16 
  5147.5596   1.08998e-16 
  5149.7627   1.04289e-16 
  5151.9658   1.01459e-16 
  5154.1685   1.07009e-16 
  5156.3716   1.02135e-16 
  5158.5747   1.06062e-16 
  5160.7778   1.05057e-16 
   5162.981   1.08048e-16 
  5165.1836   1.01944e-16 
  5167.3867   1.05397e-16 
  5169.5898   1.09153e-16 
   5171.793   1.03418e-16 
  5173.9961   1.06068e-16 
  5176.1992   1.04423e-16 
  5178.4023   1.03898e-16 
   5180.605   1.09832e-16 
  5182.8081   1.06373e-16 
  5185.0112   1.13372e-16 
  5187.2144   1.07087e-16 
  5189.4175   1.05704e-16 
  5191.6201   1.06665e-16 
  5193.8232   1.03523e-16 
  5196.0264    1.0149e-16 
  5198.2295    1.0567e-16 
  5200.4326   1.02639e-16 
  5202.6353   9.99298e-17 
  5204.8384   1.02931e-16 
  5207.0415   1.01151e-16 
  5209.2446   1.00095e-16 
  5211.4473   1.00292e-16 
  5213.6504   9.82764e-17 
  5215.8535    1.0119e-16 
  5218.0562    1.0237e-16 
  5220.2593   9.85756e-17 
  5222.4624   1.00142e-16 
   5224.665   9.54149e-17 
  5226.8682   1.04265e-16 
  5229.0713    9.9452e-17 
  5231.2739   9.81768e-17 
  5233.4771   1.01973e-16 
  5235.6797     9.836e-17 
  5237.8828   1.02614e-16 
  5240.0859   1.03346e-16 
  5242.2886   1.01337e-16 
  5244.4912   9.86214e-17 
  5246.6943   9.75543e-17 
   5248.897   9.97107e-17 
  5251.1001   1.01239e-16 
  5253.3027   1.05237e-16 
  5255.5054    1.0246e-16 
  5257.7085   1.08709e-16 
  5259.9111   1.07121e-16 
  5262.1138    1.0181e-16 
  5264.3169   1.01408e-16 
  5266.5195   1.04604e-16 
  5268.7222   1.05775e-16 
  5270.9253    1.0991e-16 
  5273.1279    1.0856e-16 
  5275.3306   1.03035e-16 
  5277.5332   1.02241e-16 
  5279.7358   1.10092e-16 
  5281.9385   1.04766e-16 
  5284.1411   1.04883e-16 
  5286.3438   1.01587e-16 
  5288.5464   1.07452e-16 
   5290.749   1.01834e-16 
  5292.9517   9.89267e-17 
  5295.1543   9.87034e-17 
  5297.3569   9.90325e-17 
  5299.5591   9.90236e-17 
  5301.7617   9.27481e-17 
  5303.9644   9.62128e-17 
   5306.167   1.00137e-16 
  5308.3691   9.71583e-17 
  5310.5718   8.93717e-17 
  5312.7744   9.66999e-17 
  5314.9766   9.19662e-17 
  5317.1792   9.01407e-17 
  5319.3813   9.30094e-17 
  5321.5835   9.28368e-17 
  5323.7861   9.00944e-17 
  5325.9883   9.07141e-17 
  5328.1904   8.70916e-17 
  5330.3931   9.15476e-17 
  5332.5952   8.65999e-17 
  5334.7974   8.95416e-17 
  5336.9995   9.21276e-17 
  5339.2017   8.95802e-17 
  5341.4038   8.80452e-17 
   5343.606   9.02386e-17 
  5345.8081   9.21397e-17 
  5348.0103   9.38007e-17 
  5350.2124   9.35743e-17 
  5352.4146   8.98926e-17 
  5354.6162   8.77076e-17 
  5356.8184   9.26011e-17 
  5359.0205   9.39287e-17 
  5361.2222   9.21523e-17 
  5363.4243   9.43514e-17 
   5365.626    9.6518e-17 
  5367.8281   9.36742e-17 
  5370.0298   9.92927e-17 
  5372.2319   9.98938e-17 
  5374.4336   1.00231e-16 
  5376.6353   9.85751e-17 
  5378.8369    1.0391e-16 
  5381.0386   1.06804e-16 
  5383.2407   9.84929e-17 
  5385.4419   1.03114e-16 
   5387.644   1.00138e-16 
  5389.8452   9.84531e-17 
  5392.0469   9.68755e-17 
  5394.2485   1.00673e-16 
  5396.4502   1.03546e-16 
  5398.6514   1.00726e-16 
   5400.853    9.8885e-17 
  5403.0542   9.86562e-17 
  5405.2559   1.02759e-16 
   5407.457   1.00015e-16 
  5409.6587   9.97408e-17 
  5411.8599   1.00111e-16 
   5414.061   9.84627e-17 
  5416.2622   1.02116e-16 
  5418.4634   1.04563e-16 
   5420.665    9.9028e-17 
  5422.8662   9.94305e-17 
  5425.0669   9.90369e-17 
  5427.2681   9.88638e-17 
  5429.4692    1.0159e-16 
  5431.6704   1.02612e-16 
  5433.8711   9.77056e-17 
  5436.0723   1.00044e-16 
  5438.2734   1.01439e-16 
  5440.4741   1.06381e-16 
  5442.6748   1.03518e-16 
   5444.876   9.74893e-17 
  5447.0767   9.12729e-17 
  5449.2773   9.95217e-17 
   5451.478   1.02589e-16 
  5453.6787   9.58456e-17 
  5455.8794   9.61425e-17 
  5458.0801   9.73556e-17 
  5460.2808   1.00302e-16 
   5462.481   9.22732e-17 
  5464.6816      9.62e-17 
  5466.8823   9.49515e-17 
  5469.0825   9.38434e-17 
  5471.2832   9.07647e-17 
  5473.4834   9.91555e-17 
  5475.6836   9.60313e-17 
  5477.8838   9.40194e-17 
  5480.0845   9.35387e-17 
  5482.2847   9.54788e-17 
  5484.4849    1.0294e-16 
  5486.6846   9.21926e-17 
  5488.8848   9.62422e-17 
   5491.085    1.0146e-16 
  5493.2852   1.01647e-16 
  5495.4849   9.58391e-17 
  5497.6851   1.00671e-16 
  5499.8848   9.14153e-17 
  5502.0845   1.00578e-16 
  5504.2847   9.65089e-17 
  5506.4844   9.85417e-17 
  5508.6841   1.00933e-16 
  5510.8838   9.82634e-17 
  5513.0835   9.73285e-17 
  5515.2832   9.89181e-17 
  5517.4824   9.82689e-17 
  5519.6821   9.70093e-17 
  5521.8818   9.88638e-17 
  5524.0811   9.39366e-17 
  5526.2803   1.03719e-16 
    5528.48   9.01783e-17 
  5530.6792   9.80299e-17 
  5532.8784   9.62754e-17 
  5535.0776   9.79198e-17 
  5537.2769   9.25378e-17 
  5539.4761   9.94097e-17 
  5541.6753   9.21984e-17 
  5543.8745    9.8278e-17 
  5546.0732   9.75309e-17 
  5548.2725    9.5735e-17 
  5550.4712   9.14407e-17 
  5552.6699   9.50294e-17 
  5554.8691   1.00171e-16 
  5557.0679   9.59107e-17 
  5559.2666   9.85865e-17 
  5561.4653   9.63253e-17 
  5563.6636   9.53015e-17 
  5565.8623   9.71495e-17 
   5568.061   9.52453e-17 
  5570.2593   1.02348e-16 
   5572.458   9.69754e-17 
  5574.6562   9.24217e-17 
   5576.855   8.72427e-17 
  5579.0532   9.82282e-17 
  5581.2515   1.02744e-16 
  5583.4497   9.21905e-17 
  5585.6479   9.00379e-17 
  5587.8462   9.40583e-17 
  5590.0439   9.67962e-17 
  5592.2422   9.37111e-17 
  5594.4399   9.62588e-17 
  5596.6382   9.73822e-17 
  5598.8359   1.01905e-16 
  5601.0337   9.44784e-17 
  5603.2314   9.48761e-17 
  5605.4292   9.77871e-17 
   5607.627   8.65921e-17 
  5609.8247   9.00563e-17 
   5612.022   8.92372e-17 
  5614.2197   9.85556e-17 
  5616.4175   9.11948e-17 
  5618.6147   9.66427e-17 
   5620.812   9.64898e-17 
  5623.0093   9.63687e-17 
  5625.2065   9.58453e-17 
  5627.4038   9.73064e-17 
  5629.6011   9.24726e-17 
  5631.7983    8.8781e-17 
  5633.9956   8.45327e-17 
  5636.1924   9.78009e-17 
  5638.3892   8.78894e-17 
  5640.5864   8.63834e-17 
  5642.7832   8.94675e-17 
    5644.98   9.17369e-17 
  5647.1768   7.94989e-17 
  5649.3735   9.34616e-17 
  5651.5703   9.31965e-17 
  5653.7666   8.87871e-17 
  5655.9634   8.96788e-17 
  5658.1597   8.71584e-17 
   5660.356   8.57998e-17 
  5662.5527   8.01229e-17 
   5664.749   7.94281e-17 
  5665.3716    9.3514e-17 
    5666.52   8.75521e-17 
   5667.668   8.14502e-17 
  5668.8159   8.76752e-17 
  5669.9639   8.21548e-17 
  5671.1123   8.15232e-17 
  5672.2603    8.3182e-17 
  5673.4087   9.11464e-17 
  5674.5566   9.41234e-17 
  5675.7051   7.94373e-17 
   5676.853   9.03107e-17 
  5678.0015   8.76729e-17 
  5679.1499   8.70727e-17 
  5680.2983   8.63788e-17 
  5681.4463   9.11119e-17 
  5682.5947   8.20105e-17 
  5683.7432   8.09979e-17 
  5684.8916   8.22397e-17 
    5686.04   9.21959e-17 
  5687.1885   8.63263e-17 
  5688.3374   8.11693e-17 
  5689.4858   8.11746e-17 
  5690.6343   7.98018e-17 
  5691.7832   8.77881e-17 
  5692.9316   8.66982e-17 
  5694.0801   8.09817e-17 
   5695.229    8.3985e-17 
  5696.3779   8.93748e-17 
  5697.5264   9.25101e-17 
  5698.6753   8.51385e-17 
  5699.8242   8.73844e-17 
  5700.9727   8.10732e-17 
  5702.1216   8.36222e-17 
  5703.2705   8.84325e-17 
  5704.4194     8.742e-17 
  5705.5684   9.00162e-17 
  5706.7173   8.18082e-17 
  5707.8662   7.95409e-17 
  5709.0156   8.38546e-17 
  5710.1646   8.08954e-17 
  5711.3135   9.38462e-17 
  5712.4629   9.62834e-17 
  5713.6118   8.40713e-17 
  5714.7607   9.33561e-17 
  5715.9102   8.80911e-17 
  5717.0591   7.90427e-17 
  5718.2085   8.67292e-17 
  5719.3579   7.94743e-17 
  5720.5073   8.36373e-17 
  5721.6567   8.55721e-17 
  5722.8057   8.70299e-17 
  5723.9551   8.30177e-17 
  5725.1045    7.5735e-17 
  5726.2539   7.96508e-17 
  5727.4033   8.77368e-17 
  5728.5532   8.28678e-17 
  5729.7026   8.61118e-17 
  5730.8521   8.71142e-17 
  5732.0015   8.47009e-17 
  5733.1514   8.13299e-17 
  5734.3008   7.90802e-17 
  5735.4507   8.84428e-17 
  5736.6001   8.15226e-17 
    5737.75   7.71602e-17 
  5738.8999   8.55775e-17 
  5740.0498   8.28855e-17 
  5741.1992   8.04287e-17 
  5742.3491   8.01404e-17 
   5743.499    7.3335e-17 
  5744.6489   8.72136e-17 
  5745.7988   8.46601e-17 
  5746.9487    7.5743e-17 
  5748.0986   7.86929e-17 
   5749.249   8.37611e-17 
  5750.3989   8.04136e-17 
  5751.5488   8.04881e-17 
  5752.6992   7.81671e-17 
  5753.8491   7.69398e-17 
  5754.9995   7.43292e-17 
  5756.1494   7.42613e-17 
  5757.2998   7.41924e-17 
  5758.4502   8.12918e-17 
  5759.6001   7.76199e-17 
  5760.7505   7.56718e-17 
  5761.9009   6.79404e-17 
  5763.0513   7.72477e-17 
  5764.2017   7.40948e-17 
  5765.3521   7.48312e-17 
  5766.5024   7.83568e-17 
  5767.6528   7.37727e-17 
  5768.8037   7.66756e-17 
  5769.9541    7.1211e-17 
  5771.1045   7.19607e-17 
  5772.2554   7.71118e-17 
  5773.4058   7.74325e-17 
  5774.5566   6.70578e-17 
   5775.707   7.43585e-17 
  5776.8579   6.67692e-17 
  5778.0088    6.9374e-17 
  5779.1592   7.13491e-17 
  5780.3101   6.48066e-17 
  5781.4609   6.64783e-17 
  5782.6118   7.25904e-17 
  5783.7627    6.5909e-17 
  5784.9136    7.2765e-17 
  5786.0645   7.48412e-17 
  5787.2158   7.00937e-17 
  5788.3667   7.04055e-17 
  5789.5176    7.0162e-17 
  5790.6689   6.75504e-17 
  5791.8198   7.32502e-17 
  5792.9712   6.82883e-17 
  5794.1221   7.35388e-17 
  5795.2734   6.60851e-17 
  5796.4248   7.26442e-17 
  5797.5757   7.16047e-17 
  5798.7271   7.16177e-17 
  5799.8784   7.24374e-17 
  5801.0298   6.81736e-17 
  5802.1812   6.18115e-17 
  5803.3325   7.17413e-17 
  5804.4839   6.65807e-17 
  5805.6357   7.46242e-17 
  5806.7871   7.00627e-17 
  5807.9385   7.40592e-17 
  5809.0898   7.05999e-17 
  5810.2417   7.01133e-17 
  5811.3931   7.29111e-17 
  5812.5449   7.54111e-17 
  5813.6968   8.09046e-17 
  5814.8481   7.52879e-17 
     5816.0   7.14408e-17 
  5817.1519   7.49464e-17 
  5818.3037   6.83997e-17 
  5819.4556   7.39761e-17 
  5820.6074    7.2152e-17 
  5821.7593   7.43419e-17 
  5822.9111   6.98532e-17 
   5824.063     7.039e-17 
  5825.2153   7.02027e-17 
  5826.3672   6.77202e-17 
   5827.519   6.94472e-17 
  5828.6714   7.60531e-17 
  5829.8232   7.55679e-17 
  5830.9756   6.61832e-17 
  5832.1279   7.07755e-17 
  5833.2798   7.62167e-17 
  5834.4321   7.64669e-17 
  5835.5845    7.3858e-17 
  5836.7368   7.78963e-17 
  5837.8892    7.9902e-17 
  5839.0415   7.59799e-17 
  5840.1938   7.34412e-17 
  5841.3462   7.30945e-17 
  5842.4985   7.35764e-17 
  5843.6509   7.87743e-17 
  5844.8037   8.07916e-17 
  5845.9561   7.52161e-17 
  5847.1089   7.35065e-17 
  5848.2612   7.29229e-17 
  5849.4141   7.22926e-17 
  5850.5669   7.47977e-17 
  5851.7192   7.68362e-17 
  5852.8721   7.23302e-17 
  5854.0249   7.16111e-17 
  5855.1777   7.69826e-17 
  5856.3306   6.69368e-17 
  5857.4834   7.52605e-17 
  5858.6362   6.61582e-17 
  5859.7891   7.40601e-17 
  5860.9424   7.49201e-17 
  5862.0952   7.64789e-17 
   5863.248   7.15357e-17 
  5864.4014   7.68009e-17 
  5865.5542    6.7461e-17 
  5866.7075   7.18596e-17 
  5867.8608   7.07019e-17 
  5869.0137   7.39159e-17 
   5870.167   7.68297e-17 
  5871.3203   7.93548e-17 
  5872.4736   7.97465e-17 
   5873.627   7.58674e-17 
  5874.7803   7.10697e-17 
  5875.9336   7.72562e-17 
  5877.0869   7.08804e-17 
  5878.2402   7.16552e-17 
   5879.394   7.48473e-17 
  5880.5474   7.15305e-17 
  5881.7007   7.11606e-17 
  5882.8545   7.34727e-17 
  5884.0083   6.82505e-17 
  5885.1616   7.24702e-17 
  5886.3154    7.0959e-17 
  5887.4692   7.80344e-17 
  5888.6226    7.2347e-17 
  5889.7764   6.50973e-17 
  5890.9302   6.85622e-17 
   5892.084   7.20776e-17 
  5893.2378   7.07821e-17 
  5894.3921   7.15002e-17 
  5895.5459   6.93157e-17 
  5896.6997    7.4238e-17 
   5897.854   7.60047e-17 
  5899.0078   7.16779e-17 
  5900.1621    7.4289e-17 
  5901.3159   6.90686e-17 
  5902.4702   6.90272e-17 
   5903.624   7.39866e-17 
  5904.7783    6.9313e-17 
  5905.9326   7.28674e-17 
  5907.0869   6.91441e-17 
  5908.2412   7.02204e-17 
  5909.3955   6.98766e-17 
  5910.5498   6.91702e-17 
  5911.7041   7.28243e-17 
  5912.8584   6.68038e-17 
  5914.0132   6.91206e-17 
  5915.1675   7.07886e-17 
  5916.3218   7.52052e-17 
  5917.4766   6.71282e-17 
  5918.6309   8.20956e-17 
  5919.7856   6.99883e-17 
  5920.9404    6.7873e-17 
  5922.0952   7.14402e-17 
  5923.2495   6.60843e-17 
  5924.4043   7.44931e-17 
  5925.5591   7.15777e-17 
  5926.7139   7.49586e-17 
  5927.8687   6.53316e-17 
  5929.0239   6.75233e-17 
  5930.1787   6.87845e-17 
  5931.3335   7.27822e-17 
  5932.4883   6.94547e-17 
  5933.6436   6.93845e-17 
  5934.7983    6.7358e-17 
  5935.9536    6.4372e-17 
  5937.1089   6.86834e-17 
  5938.2637   6.69761e-17 
  5939.4189    7.1221e-17 
  5940.5742   6.48761e-17 
  5941.7295   6.78223e-17 
  5942.8848    6.5253e-17 
    5944.04   7.23964e-17 
  5945.1953   7.16371e-17 
  5946.3506   6.24429e-17 
  5947.5059   7.26565e-17 
  5948.6616   7.38815e-17 
  5949.8169    6.8904e-17 
  5950.9727   6.38536e-17 
  5952.1279   7.13907e-17 
  5953.2837   7.65636e-17 
   5954.439    7.0324e-17 
  5955.5947   6.79163e-17 
  5956.7505   6.58089e-17 
  5957.9062   6.92864e-17 
   5959.062   6.82657e-17 
  5960.2178   6.43289e-17 
  5961.3735   6.74298e-17 
  5962.5293   7.01343e-17 
  5963.6851   6.28126e-17 
  5964.8408   6.61599e-17 
  5965.9971   6.38151e-17 
  5967.1528   6.21577e-17 
  5968.3091   7.02984e-17 
  5969.4648   6.80883e-17 
  5970.6211   6.93174e-17 
  5971.7773   6.26188e-17 
  5972.9331   6.01533e-17 
  5974.0894   6.74939e-17 
  5975.2456    6.5031e-17 
  5976.4019   6.42582e-17 
  5977.5581   6.39301e-17 
  5978.7144    6.4902e-17 
  5979.8706   7.11367e-17 
  5981.0273   6.53754e-17 
  5982.1836   6.01657e-17 
  5983.3398   5.84425e-17 
  5984.4966   7.13034e-17 
  5985.6528   6.78123e-17 
  5986.8096   6.05268e-17 
  5987.9658   6.59562e-17 
  5989.1226   6.32528e-17 
  5990.2793   5.88875e-17 
   5991.436   6.17729e-17 
  5992.5928   6.29017e-17 
  5993.7495   6.77531e-17 
  5994.9062   6.59991e-17 
   5996.063   6.74808e-17 
  5997.2197   6.24385e-17 
  5998.3765   5.90247e-17 
  5999.5337   6.29963e-17 
  6000.6904   6.14694e-17 
  6001.8472   6.11871e-17 
  6003.0044   6.89691e-17 
  6004.1616   5.88234e-17 
  6005.3184   6.28234e-17 
  6006.4756   6.43956e-17 
  6007.6328   6.14003e-17 
    6008.79   6.26148e-17 
  6009.9473   6.54391e-17 
  6011.1045   5.75311e-17 
  6012.2617   6.12887e-17 
  6013.4189   5.92933e-17 
  6014.5762   6.02217e-17 
  6015.7339   6.37153e-17 
  6016.8911   6.34685e-17 
  6018.0488   6.72797e-17 
  6019.2061   6.72593e-17 
  6020.3638   6.83111e-17 
   6021.521   6.32247e-17 
  6022.6787   5.95841e-17 
  6023.8364   6.05135e-17 
  6024.9941   5.95215e-17 
  6026.1514   7.26281e-17 
  6027.3096   6.54042e-17 
  6028.4673   6.32848e-17 
   6029.625   6.53871e-17 
  6030.7827   6.87915e-17 
  6031.9404   6.85147e-17 
  6033.0986   6.06956e-17 
  6034.2563   6.72683e-17 
  6035.4146   6.84289e-17 
  6036.5723   6.28446e-17 
  6037.7305   6.92791e-17 
  6038.8882   6.70419e-17 
  6040.0464   6.77413e-17 
  6041.2046    6.6982e-17 
  6042.3628   7.19472e-17 
   6043.521   7.39506e-17 
  6044.6792   7.09615e-17 
  6045.8374   6.74998e-17 
  6046.9956   6.87144e-17 
  6048.1543   6.37018e-17 
  6049.3125   6.98148e-17 
  6050.4707   7.16699e-17 
  6051.6294   7.31634e-17 
  6052.7881   6.59328e-17 
  6053.9463    7.8533e-17 
   6055.105   6.89275e-17 
  6056.2637   6.77594e-17 
  6057.4219   7.17638e-17 
  6058.5806   6.59537e-17 
  6059.7393   7.14761e-17 
  6060.8979   7.23485e-17 
  6062.0571   7.22826e-17 
  6063.2158   6.43439e-17 
  6064.3745   6.67824e-17 
  6065.5332   6.57388e-17 
  6066.6924   7.41377e-17 
  6067.8511   7.15135e-17 
  6069.0103   6.97301e-17 
  6070.1689   7.25067e-17 
  6071.3281   7.07008e-17 
  6072.4873   6.44659e-17 
  6073.6465   7.26474e-17 
  6074.8052   7.00356e-17 
  6075.9644   6.87965e-17 
  6077.1235   7.30097e-17 
  6078.2832   6.70969e-17 
  6079.4424   6.59415e-17 
  6080.6016   7.22366e-17 
  6081.7607   7.67381e-17 
  6082.9204   7.00939e-17 
  6084.0796   7.40024e-17 
  6085.2393    7.3028e-17 
  6086.3984   7.80814e-17 
  6087.5581    7.1847e-17 
  6088.7178   6.96847e-17 
  6089.8774   7.22008e-17 
  6091.0366   6.91125e-17 
  6092.1963   7.57554e-17 
   6093.356   7.41094e-17 
  6094.5156   7.78735e-17 
  6095.6758   6.96461e-17 
  6096.8354   6.68113e-17 
  6097.9951   7.64292e-17 
  6099.1548   7.55579e-17 
  6100.3149   6.62133e-17 
  6101.4746   6.67977e-17 
  6102.6348   7.37655e-17 
  6103.7949   7.03079e-17 
  6104.9546   6.70302e-17 
  6106.1147   6.90893e-17 
  6107.2749   7.17327e-17 
  6108.4351   7.04453e-17 
  6109.5952    7.0828e-17 
  6110.7554   7.05105e-17 
  6111.9155   6.88306e-17 
  6113.0762    6.9502e-17 
  6114.2363   6.74699e-17 
  6115.3965   6.12051e-17 
  6116.5571   6.18084e-17 
  6117.7173   6.61586e-17 
  6118.8779    6.2599e-17 
  6120.0381   5.98941e-17 
  6121.1987   6.84631e-17 
  6122.3594   7.32493e-17 
    6123.52    6.7319e-17 
  6124.6807   6.48628e-17 
  6125.8413   6.12067e-17 
   6127.002   6.57948e-17 
  6128.1626   6.67725e-17 
  6129.3232   6.65455e-17 
  6130.4844   5.82437e-17 
   6131.645    6.7716e-17 
  6132.8057   6.23218e-17 
  6133.9668   6.82771e-17 
  6135.1279    6.2798e-17 
  6136.2886     7.088e-17 
  6137.4497   6.37804e-17 
  6138.6108    6.9676e-17 
  6139.7715   6.57525e-17 
  6140.9331   7.12667e-17 
  6142.0942   6.78392e-17 
  6143.2554   6.38527e-17 
  6144.4165   6.66128e-17 
  6145.5776   6.34603e-17 
  6146.7388   7.18604e-17 
  6147.9004   6.52159e-17 
  6149.0615   6.65627e-17 
  6150.2227   6.04071e-17 
  6151.3843   6.49163e-17 
  6152.5459   6.68179e-17 
  6153.7075   6.51837e-17 
  6154.8687   6.79223e-17 
  6156.0303   6.04081e-17 
  6157.1919   6.84239e-17 
  6158.3535   6.77609e-17 
  6159.5151   6.03302e-17 
  6160.6768   6.74346e-17 
  6161.8389   6.84912e-17 
  6163.0005   7.35445e-17 
  6164.1621   7.20859e-17 
  6165.3242   6.53123e-17 
  6166.4858   6.80121e-17 
  6167.6479   6.04536e-17 
  6168.8096   6.07349e-17 
  6169.9717   6.14441e-17 
  6171.1338   6.66697e-17 
  6172.2959   6.80443e-17 
   6173.458   6.12336e-17 
  6174.6201   6.26567e-17 
  6175.7822   6.25229e-17 
  6176.9443   6.47073e-17 
  6178.1064   6.12136e-17 
   6179.269   6.45511e-17 
  6180.4312   6.19125e-17 
  6181.5933   6.51687e-17 
  6182.7559   5.91086e-17 
   6183.918    5.9204e-17 
  6185.0806   6.83812e-17 
  6186.2432   6.20222e-17 
  6187.4058   6.04959e-17 
  6188.5679   5.97818e-17 
  6189.7305     5.942e-17 
  6190.8931   6.10221e-17 
  6192.0557   6.36532e-17 
  6193.2188   6.02995e-17 
  6194.3813   6.53708e-17 
  6195.5439   5.93136e-17 
   6196.707   5.88502e-17 
  6197.8696   6.05739e-17 
  6199.0327    6.0377e-17 
  6200.1953   5.69402e-17 
  6201.3584   5.98078e-17 
  6202.5215   5.51186e-17 
  6203.6841   6.42192e-17 
  6204.8472    5.2863e-17 
  6206.0103   5.74074e-17 
  6207.1733   5.54679e-17 
  6208.3364   6.37291e-17 
  6209.4995   5.67096e-17 
  6210.6631   6.00809e-17 
  6211.8262   5.98408e-17 
  6212.9893   5.86889e-17 
  6214.1528   5.73233e-17 
  6215.3159   6.07892e-17 
  6216.4795   6.09222e-17 
  6217.6426   5.95892e-17 
  6218.8062   6.09378e-17 
  6219.9697   5.60694e-17 
  6221.1333   6.07626e-17 
  6222.2969   5.69064e-17 
  6223.4604   6.16348e-17 
   6224.624   5.37389e-17 
  6225.7876   6.12584e-17 
  6226.9512   5.69662e-17 
  6228.1152   6.20988e-17 
  6229.2788   5.71462e-17 
  6230.4424   6.22177e-17 
  6231.6064   6.26845e-17 
  6232.7705   5.64237e-17 
  6233.9341   5.63327e-17 
  6235.0981   5.82843e-17 
  6236.2622   5.67854e-17 
  6237.4263   6.56698e-17 
  6238.5903   6.30488e-17 
  6239.7544   5.86792e-17 
  6240.9185   6.35075e-17 
  6242.0825   5.80862e-17 
  6243.2466   6.27354e-17 
  6244.4106   6.38129e-17 
  6245.5752   6.05225e-17 
  6246.7393   6.23312e-17 
  6247.9038   6.37493e-17 
  6249.0679   6.27807e-17 
  6250.2324   6.73251e-17 
   6251.397   6.36839e-17 
  6252.5615   6.59126e-17 
  6253.7256   6.33867e-17 
  6254.8901    6.3541e-17 
  6256.0547   6.68777e-17 
  6257.2197   6.32318e-17 
  6258.3843   6.98658e-17 
  6259.5488   6.88561e-17 
  6260.7134   6.48701e-17 
  6261.8784   7.01241e-17 
   6263.043   6.81256e-17 
   6264.208   6.92652e-17 
  6265.3726   6.61482e-17 
  6266.5376   6.57709e-17 
  6267.7026   6.74148e-17 
  6268.8672   6.88503e-17 
  6270.0322   6.84419e-17 
  6271.1973   6.45255e-17 
  6272.3623   6.88756e-17 
  6273.5273   5.89552e-17 
  6274.6924   6.59786e-17 
  6275.8579   6.09519e-17 
  6277.0229   6.33387e-17 
   6278.188   7.02953e-17 
  6279.3535   6.30066e-17 
  6280.5186   6.97077e-17 
  6281.6841   6.45355e-17 
  6282.8496   6.82888e-17 
  6284.0146   7.06963e-17 
  6285.1802   6.92449e-17 
  6286.3457   7.16295e-17 
  6287.5112   6.76213e-17 
  6288.6768   6.90548e-17 
  6289.8423   6.79377e-17 
  6291.0078   6.92825e-17 
  6292.1738   6.88652e-17 
  6293.3394   6.75942e-17 
  6294.5049   7.01604e-17 
  6295.6709   6.65671e-17 
  6296.8364   7.19992e-17 
  6298.0024   6.42235e-17 
   6299.168   6.73844e-17 
   6300.334   7.29545e-17 
     6301.5   6.66385e-17 
   6302.666   6.27539e-17 
   6303.832   6.82065e-17 
   6304.998   7.25927e-17 
  6306.1641   6.72197e-17 
  6307.3301   7.01336e-17 
  6308.4961   7.63939e-17 
  6309.6626   7.32557e-17 
  6310.8286   7.35641e-17 
  6311.9946   7.09356e-17 
  6313.1611   7.35689e-17 
  6314.3276    6.9378e-17 
  6315.4937   6.72468e-17 
  6316.6602   6.80793e-17 
  6317.8267   7.33634e-17 
  6318.9927   7.08098e-17 
  6320.1592   6.56254e-17 
  6321.3257   6.44628e-17 
  6322.4927   6.22177e-17 
  6323.6592   6.71652e-17 
  6324.8257   7.25086e-17 
  6325.9922   7.12944e-17 
  6327.1592   7.19389e-17 
  6328.3257    6.8274e-17 
  6329.4927   7.05295e-17 
  6330.6592   7.42992e-17 
  6331.8262   6.52728e-17 
  6332.9932   6.64194e-17 
  6334.1597   7.21613e-17 
  6335.3267   7.35591e-17 
  6336.4937   7.63744e-17 
  6337.6606   6.58297e-17 
  6338.8276   7.18021e-17 
  6339.9946   6.96007e-17 
  6341.1621   7.31245e-17 
  6342.3291    6.6424e-17 
  6343.4961   6.66674e-17 
  6344.6636   6.79201e-17 
  6345.8306   7.07535e-17 
   6346.998   6.91909e-17 
  6348.1655   7.24732e-17 
  6349.3325    6.3539e-17 
     6350.5   7.01957e-17 
  6351.6675   7.18554e-17 
   6352.835   6.76905e-17 
  6354.0024   6.80919e-17 
  6355.1699   6.99628e-17 
  6356.3374   6.75916e-17 
  6357.5049   6.98072e-17 
  6358.6724    6.6227e-17 
  6359.8403   7.38573e-17 
  6361.0078   6.42442e-17 
  6362.1758   6.72766e-17 
  6363.3433   6.36321e-17 
  6364.5112   6.82114e-17 
  6365.6792    7.1378e-17 
  6366.8467   7.15314e-17 
  6368.0146   6.90236e-17 
  6369.1826   7.01376e-17 
  6370.3506   6.68974e-17 
  6371.5186   6.86861e-17 
   6372.687   6.61212e-17 
   6373.855   6.70442e-17 
  6375.0229   7.37612e-17 
  6376.1909   6.69833e-17 
  6377.3594   6.44548e-17 
  6378.5273   7.24357e-17 
  6379.6958   6.51146e-17 
  6380.8638   6.70762e-17 
  6382.0322   6.43867e-17 
  6383.2007   6.57821e-17 
  6384.3691   7.22964e-17 
  6385.5376   6.79114e-17 
  6386.7061   6.87626e-17 
  6387.8745   6.82165e-17 
   6389.043   6.95236e-17 
  6390.2114   6.87416e-17 
  6391.3799   6.64301e-17 
  6392.5488   6.96472e-17 
  6393.7173   6.89212e-17 
  6394.8862   7.00658e-17 
  6396.0547   6.81379e-17 
  6397.2236   6.58835e-17 
  6398.3921   6.70407e-17 
   6399.561    6.6106e-17 
    6400.73   6.46713e-17 
  6401.8989   6.47689e-17 
  6403.0679   6.97734e-17 
  6404.2368   6.63504e-17 
  6405.4058   6.83689e-17 
  6406.5747   6.41824e-17 
  6407.7441   6.75409e-17 
  6408.9131   6.77142e-17 
   6410.082   6.85783e-17 
  6411.2515   6.61117e-17 
  6412.4204   6.75987e-17 
  6413.5898   6.94441e-17 
  6414.7588   7.29366e-17 
  6415.9282   6.90747e-17 
  6417.0977   6.53938e-17 
  6418.2671   7.01805e-17 
  6419.4365    6.8985e-17 
   6420.606   6.87517e-17 
  6421.7754   6.66109e-17 
  6422.9448   6.98098e-17 
  6424.1143   6.87833e-17 
  6425.2842   6.88698e-17 
  6426.4536   6.74293e-17 
  6427.6235   6.76588e-17 
   6428.793   6.37135e-17 
  6429.9629   6.94852e-17 
  6431.1323   6.42425e-17 
  6432.3022    6.7775e-17 
  6433.4722   6.55172e-17 
  6434.6421   6.81513e-17 
   6435.812    6.4087e-17 
  6436.9819   6.99318e-17 
  6438.1514   6.86788e-17 
  6439.3218   7.03271e-17 
  6440.4917   6.57258e-17 
  6441.6616   6.80296e-17 
   6442.832   6.50496e-17 
   6444.002   7.05279e-17 
  6445.1719   6.61422e-17 
  6446.3423   6.68527e-17 
  6447.5127   6.18224e-17 
  6448.6826   7.41854e-17 
   6449.853   6.42819e-17 
  6451.0234   5.96073e-17 
  6452.1938   6.60032e-17 
  6453.3643     6.069e-17 
  6454.5347   6.61809e-17 
  6455.7051    5.8912e-17 
  6456.8755   6.35911e-17 
  6458.0459   6.21756e-17 
  6459.2168   6.44044e-17 
  6460.3872   5.89144e-17 
  6461.5581   6.15142e-17 
  6462.7285   6.72886e-17 
  6463.8994   6.05883e-17 
  6465.0698   5.92229e-17 
  6466.2407   6.77523e-17 
  6467.4116   6.55871e-17 
  6468.5825   6.61756e-17 
  6469.7534   5.86464e-17 
  6470.9243   6.40182e-17 
  6472.0952   6.44841e-17 
  6473.2661   6.25331e-17 
   6474.437   6.27878e-17 
  6475.6084   6.30345e-17 
  6476.7793    6.1923e-17 
  6477.9502    6.0668e-17 
  6479.1216   6.74632e-17 
  6480.2925   6.41557e-17 
  6481.4639   6.48935e-17 
  6482.6353   5.91526e-17 
  6483.8066   5.61861e-17 
  6484.9775   6.24932e-17 
  6486.1489    6.2633e-17 
  6487.3203   5.73821e-17 
  6488.4917   6.35535e-17 
  6489.6631   6.04234e-17 
   6490.835   6.49153e-17 
  6492.0063   6.43274e-17 
  6493.1777   6.20771e-17 
  6494.3496   6.49651e-17 
   6495.521   6.41618e-17 
  6496.6929   5.61255e-17 
  6497.8643   6.11966e-17 
  6499.0361   5.52495e-17 
   6500.208    6.1949e-17 
  6501.3799   6.53774e-17 
  6502.5513    5.9138e-17 
  6503.7231   6.11888e-17 
   6504.895   6.45653e-17 
  6506.0669   5.98336e-17 
  6507.2393   6.13459e-17 
  6508.4111    6.5701e-17 
   6509.583   5.95311e-17 
  6510.7549   5.83834e-17 
  6511.9272   6.31407e-17 
  6513.0991   6.13468e-17 
  6514.2715   5.58958e-17 
  6515.4438   5.80315e-17 
  6516.6157   5.87887e-17 
  6517.7881   5.91891e-17 
  6518.9604   5.79078e-17 
  6520.1328   5.85594e-17 
  6521.3052   6.33059e-17 
  6522.4775   5.53828e-17 
  6523.6499   6.19363e-17 
  6524.8223   6.21351e-17 
  6525.9946   5.81533e-17 
  6527.1675   5.74232e-17 
  6528.3398   6.21989e-17 
  6529.5127   6.01941e-17 
  6530.6851   6.00455e-17 
  6531.8579   5.65164e-17 
  6533.0303   6.46672e-17 
  6534.2031    5.5801e-17 
   6535.376   5.97663e-17 
  6536.5488   5.96476e-17 
  6537.7217   6.30339e-17 
  6538.8945   6.09567e-17 
  6540.0674   5.68755e-17 
  6541.2402   5.37972e-17 
  6542.4131   5.94949e-17 
  6543.5859   5.86916e-17 
  6544.7593    6.0505e-17 
  6545.9321   6.08137e-17 
  6547.1055   5.58384e-17 
  6548.2783   5.88422e-17 
  6549.4517   5.56705e-17 
  6550.6245   6.04202e-17 
  6551.7979   6.00167e-17 
  6552.9712    6.3107e-17 
  6554.1445   5.85234e-17 
  6555.3179   5.54699e-17 
  6556.4912    5.8273e-17 
  6557.6646   5.59977e-17 
  6558.8379   5.47239e-17 
  6560.0112   5.42905e-17 
  6561.1851   6.24931e-17 
  6562.3584   6.17097e-17 
  6563.5317     6.358e-17 
  6564.7056   5.70479e-17 
  6565.8789   5.53046e-17 
  6567.0527   6.01588e-17 
  6568.2266    5.5876e-17 
  6569.4004   5.63219e-17 
  6570.5737   5.99761e-17 
  6571.7476   5.69661e-17 
  6572.9214    6.6795e-17 
  6574.0952   5.64197e-17 
   6575.269   5.31187e-17 
  6576.4429   5.93251e-17 
  6577.6172   5.47445e-17 
   6578.791    5.8144e-17 
  6579.9653   6.40213e-17 
  6581.1392   5.64245e-17 
   6582.313   5.69213e-17 
  6583.4873   5.88542e-17 
  6584.6616    6.4478e-17 
  6585.8354   5.62693e-17 
  6587.0098   5.88222e-17 
  6588.1841   5.57098e-17 
  6589.3584   5.83162e-17 
  6590.5327   5.43586e-17 
   6591.707   5.60386e-17 
  6592.8813   5.91357e-17 
  6594.0557   5.82151e-17 
    6595.23   6.10376e-17 
  6596.4048   5.78808e-17 
  6597.5791   5.46672e-17 
  6598.7534   5.90411e-17 
  6599.9282   5.73097e-17 
   6601.103   5.87699e-17 
  6602.2773   5.51459e-17 
  6603.4521   6.12742e-17 
   6604.627    6.0801e-17 
  6605.8013   5.90134e-17 
  6606.9761   6.01346e-17 
  6608.1509   5.61302e-17 
  6609.3257   5.89408e-17 
  6610.5005   5.99598e-17 
  6611.6758   5.68242e-17 
  6612.8506   5.75738e-17 
  6614.0254   5.74163e-17 
  6615.2007   5.46579e-17 
  6616.3755   6.07881e-17 
  6617.5508   5.88514e-17 
  6618.7256   5.71398e-17 
  6619.9009   5.58137e-17 
  6621.0757   5.72586e-17 
   6622.251    5.5023e-17 
  6623.4263   5.77306e-17 
  6624.6016   5.82037e-17 
  6625.7769   5.46775e-17 
  6626.9521   5.34346e-17 
  6628.1274   5.47839e-17 
  6629.3027   5.92016e-17 
   6630.478   5.97105e-17 
  6631.6538   5.57871e-17 
  6632.8291   5.78529e-17 
  6634.0049   5.47616e-17 
  6635.1802   5.53119e-17 
   6636.356   5.28899e-17 
  6637.5312   5.69306e-17 
   6638.707   5.33963e-17 
  6639.8828   5.89391e-17 
  6641.0581   5.43253e-17 
  6642.2339   5.81672e-17 
  6643.4097   5.98399e-17 
  6644.5854   5.42285e-17 
  6645.7617   5.86844e-17 
  6646.9375   5.48682e-17 
  6648.1133   5.57744e-17 
  6649.2891   5.68753e-17 
  6650.4653    5.7527e-17 
  6651.6411   5.33075e-17 
  6652.8169    6.0879e-17 
  6653.9932   5.59569e-17 
  6655.1694   5.59555e-17 
  6656.3452   5.78862e-17 
  6657.5215   5.33611e-17 
  6658.6978   5.84655e-17 
   6659.874    5.8077e-17 
  6661.0503   5.02908e-17 
  6662.2266   5.27925e-17 
  6663.4028   5.37546e-17 
  6664.5791   5.82323e-17 
  6665.7554   5.28157e-17 
  6666.9316   5.58298e-17 
  6668.1084   5.46669e-17 
  6669.2847   5.53026e-17 
  6670.4609   5.39548e-17 
  6671.6377   5.24305e-17 
   6672.814   5.50026e-17 
  6673.9907   5.50819e-17 
  6675.1675    4.9679e-17 
  6676.3442   5.16881e-17 
   6677.521   4.99292e-17 
  6678.6973   5.65318e-17 
   6679.874   5.04578e-17 
  6681.0508   4.97121e-17 
   6682.228   5.00696e-17 
  6683.4048   5.44383e-17 
  6684.5815   5.16999e-17 
  6685.7583   4.86316e-17 
  6686.9355   5.14571e-17 
  6688.1123   5.62899e-17 
  6689.2896   5.06681e-17 
  6690.4663    5.0825e-17 
  6691.6436   5.26648e-17 
  6692.8208   5.27657e-17 
  6693.9976   5.37293e-17 
  6695.1748   5.10746e-17 
  6696.3521   4.86134e-17 
  6697.5293   5.01622e-17 
  6698.7065   4.98033e-17 
  6699.8838     4.708e-17 
   6701.061   5.30766e-17 
  6702.2383   4.79008e-17 
   6703.416   4.78571e-17 
  6704.5933   5.07223e-17 
  6705.7705   4.91628e-17 
  6706.9482   5.22372e-17 
  6708.1255   4.84572e-17 
  6709.3032   4.91089e-17 
   6710.481   5.27725e-17 
  6711.6582   4.61002e-17 
  6712.8359   4.95487e-17 
  6714.0137   5.20944e-17 
  6715.1914   4.72539e-17 
  6716.3691   4.71722e-17 
  6717.5469    5.1497e-17 
  6718.7246   5.02576e-17 
  6719.9023   4.79225e-17 
  6721.0801   4.80723e-17 
  6722.2583   4.45964e-17 
   6723.436   4.65085e-17 
  6724.6138   4.81256e-17 
   6725.792   4.58886e-17 
  6726.9702   4.60369e-17 
  6728.1479   4.72119e-17 
  6729.3262   4.72088e-17 
  6730.5044   4.45154e-17 
  6731.6821   4.95764e-17 
  6732.8604   4.68867e-17 
  6734.0386   4.36646e-17 
  6735.2168   4.80658e-17 
   6736.395   4.51316e-17 
  6737.5732   4.83668e-17 
  6738.7515   4.42156e-17 
  6739.9302   4.89186e-17 
  6741.1084   4.76398e-17 
  6742.2866   4.50689e-17 
  6743.4653   4.72894e-17 
  6744.6436   4.50849e-17 
  6745.8223   4.72782e-17 
   6747.001   4.53116e-17 
  6748.1792   4.62766e-17 
  6749.3579   4.63289e-17 
  6750.5366    4.6406e-17 
  6751.7153   4.18208e-17 
   6752.894   4.75849e-17 
  6754.0728   4.72635e-17 
  6755.2515    5.0112e-17 
  6756.4302   4.87553e-17 
  6757.6089   5.00473e-17 
  6758.7876   4.81233e-17 
  6759.9668   5.01163e-17 
  6761.1455   5.05099e-17 
  6762.3242   5.00757e-17 
  6763.5034    4.7272e-17 
  6764.6826   4.63997e-17 
  6765.8613   4.64885e-17 
  6767.0405   4.86482e-17 
  6768.2197   4.86257e-17 
  6769.3984   4.97744e-17 
  6770.5776   4.67548e-17 
  6771.7568   5.24104e-17 
   6772.936   5.08626e-17 
  6774.1152   4.95835e-17 
  6775.2949   4.89058e-17 
  6776.4741   4.68282e-17 
  6777.6533   5.11298e-17 
  6778.8325   4.73297e-17 
  6780.0122   4.89486e-17 
  6781.1914   5.34555e-17 
  6782.3711   4.66658e-17 
  6783.5503   5.14896e-17 
    6784.73   4.82061e-17 
  6785.9092   5.04973e-17 
  6787.0889   5.07169e-17 
  6788.2686   4.94264e-17 
  6789.4482   4.75523e-17 
  6790.6279   5.12298e-17 
  6791.8076   5.07625e-17 
  6792.9873   5.09692e-17 
   6794.167   5.04665e-17 
  6795.3467   5.28093e-17 
  6796.5264   5.03025e-17 
  6797.7065   5.17484e-17 
  6798.8862   5.24241e-17 
  6800.0664   5.09354e-17 
  6801.2461    5.3913e-17 
  6802.4263   5.21307e-17 
   6803.606   5.13739e-17 
  6804.7861   5.60274e-17 
  6805.9663   4.87589e-17 
   6807.146   5.64576e-17 
  6808.3262    5.5378e-17 
  6809.5063   5.01455e-17 
  6810.6865   4.96297e-17 
  6811.8667   5.51281e-17 
  6813.0469   5.36569e-17 
  6814.2275   5.29317e-17 
  6815.4077   5.38868e-17 
  6816.5879   5.38341e-17 
  6817.7681   5.54624e-17 
  6818.9487   5.76194e-17 
  6820.1289   5.58781e-17 
  6821.3096   5.59175e-17 
  6822.4902    4.8952e-17 
  6823.6704   5.58163e-17 
  6824.8511   5.24898e-17 
  6826.0317   5.50488e-17 
  6827.2119   5.59052e-17 
  6828.3926   5.21991e-17 
  6829.5732   5.52796e-17 
  6830.7539   5.62746e-17 
  6831.9346   5.64495e-17 
  6833.1157   5.36088e-17 
  6834.2964   5.16609e-17 
  6835.4771   4.81511e-17 
  6836.6577   5.41298e-17 
  6837.8389   5.33231e-17 
  6839.0195   5.38806e-17 
  6840.2007   5.32394e-17 
  6841.3813   5.78136e-17 
  6842.5625   5.60313e-17 
  6843.7432   5.02724e-17 
  6844.9243   5.06032e-17 
  6846.1055   5.52338e-17 
  6847.2866   5.52608e-17 
  6848.4678    5.3478e-17 
  6849.6489   5.41263e-17 
  6850.8301   5.74829e-17 
  6852.0112   5.40365e-17 
  6853.1924    5.1593e-17 
   6854.374   4.92613e-17 
  6855.5552   5.37727e-17 
  6856.7363   5.06672e-17 
  6857.9175   5.74236e-17 
  6859.0991    5.0676e-17 
  6860.2803    5.5133e-17 
  6861.4619   4.87724e-17 
  6862.6436   5.42948e-17 
  6863.8247   4.66832e-17 
  6865.0063   5.25557e-17 
   6866.188   4.58636e-17 
  6867.3696   4.88041e-17 
  6868.5513   5.18475e-17 
  6869.7329   5.27208e-17 
  6870.9146   4.81978e-17 
  6872.0962   5.50163e-17 
  6873.2778   5.01203e-17 
  6874.4595   4.99878e-17 
  6875.6416   5.13066e-17 
  6876.8232   5.06602e-17 
  6878.0054    5.1688e-17 
   6879.187   5.24134e-17 
  6880.3691   5.08589e-17 
  6881.5508   4.38605e-17 
  6882.7329   5.46552e-17 
   6883.915   5.33874e-17 
  6885.0967   4.85111e-17 
  6886.2788   4.83094e-17 
  6887.4609    5.2168e-17 
  6888.6431     5.337e-17 
  6889.8252   4.50333e-17 
  6891.0073   5.19078e-17 
  6892.1895   5.12472e-17 
  6893.3721   4.80557e-17 
  6894.5542   4.64694e-17 
  6895.7363   5.23268e-17 
  6896.9185   5.14445e-17 
  6898.1011   4.51274e-17 
  6899.2832   4.60389e-17 
  6900.4658   4.67914e-17 
  6901.6484   5.40673e-17 
  6902.8306   4.41823e-17 
  6904.0132   4.96554e-17 
  6905.1958   4.60044e-17 
  6906.3784   4.77135e-17 
   6907.561   5.08111e-17 
  6908.7432   4.94859e-17 
  6909.9258   4.76583e-17 
  6911.1084   4.84482e-17 
  6912.2915   4.72046e-17 
  6913.4741   4.58558e-17 
  6914.6567   4.95268e-17 
  6915.8394   5.01406e-17 
  6917.0225   5.07743e-17 
  6918.2051   4.64802e-17 
  6919.3882    4.2772e-17 
  6920.5708   4.44592e-17 
  6921.7539   4.61523e-17 
  6922.9365   4.87649e-17 
  6924.1196   5.15909e-17 
  6925.3027   4.65764e-17 
  6926.4858   5.15767e-17 
  6927.6689   4.75821e-17 
  6928.8516   4.75661e-17 
  6930.0352   4.59565e-17 
  6931.2183   4.98503e-17 
  6932.4014   5.13113e-17 
  6933.5845   4.72013e-17 
  6934.7676    4.8947e-17 
  6935.9507   4.71512e-17 
  6937.1343   4.49947e-17 
  6938.3174   4.52853e-17 
   6939.501   4.28158e-17 
  6940.6841   5.01427e-17 
  6941.8677   4.62579e-17 
  6943.0508   4.57594e-17 
  6944.2344   4.76473e-17 
   6945.418     4.407e-17 
  6946.6016   4.53094e-17 
  6947.7847   4.85376e-17 
  6948.9683   4.65724e-17 
  6950.1523   4.77284e-17 
  6951.3359   4.39554e-17 
  6952.5195   4.71751e-17 
  6953.7031   4.46852e-17 
  6954.8867   4.50493e-17 
  6956.0703   4.63147e-17 
  6957.2539   4.13335e-17 
   6958.438   4.86175e-17 
  6959.6216    4.6084e-17 
  6960.8057   4.70469e-17 
  6961.9893   4.38499e-17 
  6963.1733    4.7997e-17 
  6964.3574   4.62773e-17 
   6965.541   4.30028e-17 
  6966.7251   4.54923e-17 
  6967.9092   4.55899e-17 
  6969.0933   4.38341e-17 
  6970.2773   4.74163e-17 
  6971.4614   4.88729e-17 
  6972.6455   4.75695e-17 
  6973.8296   4.98858e-17 
  6975.0137   4.67347e-17 
  6976.1978   4.30468e-17 
  6977.3823   4.70089e-17 
  6978.5664   4.16953e-17 
  6979.7505   5.00729e-17 
  6980.9351   4.94234e-17 
  6982.1191   4.52601e-17 
  6983.3037   4.95076e-17 
  6984.4878   5.07326e-17 
  6985.6724   4.88155e-17 
  6986.8569   4.72549e-17 
  6988.0415   4.86437e-17 
  6989.2256   5.21996e-17 
  6990.4102   5.10339e-17 
  6991.5947   4.69271e-17 
  6992.7793   4.78197e-17 
  6993.9639   4.91859e-17 
  6995.1489   5.15394e-17 
  6996.3335   4.77858e-17 
  6997.5181    5.1813e-17 
  6998.7026   5.37335e-17 
  6999.8877   5.45161e-17 
  7001.0723    4.9689e-17 
  7002.2573   5.25049e-17 
  7003.4419   4.93584e-17 
  7004.6265   4.91684e-17 
  7005.8115   5.32328e-17 
  7006.9966   4.86705e-17 
  7008.1816    5.1268e-17 
  7009.3662   4.63376e-17 
  7010.5513    5.3499e-17 
  7011.7363   5.29906e-17 
  7012.9214    5.2161e-17 
  7014.1064   5.28675e-17 
  7015.2915   5.06638e-17 
  7016.4766    5.3234e-17 
  7017.6616   4.95429e-17 
  7018.8472   5.28188e-17 
  7020.0322    5.3344e-17 
  7021.2173   5.33374e-17 
  7022.4028   4.89411e-17 
  7023.5879   5.34424e-17 
  7024.7734   5.12531e-17 
  7025.9585    5.3175e-17 
   7027.144   5.15124e-17 
  7028.3291    5.1324e-17 
  7029.5146   5.35348e-17 
  7030.7002   5.38144e-17 
  7031.8857   5.54968e-17 
  7033.0713   5.16445e-17 
  7034.2568   5.66002e-17 
  7035.4424   5.07667e-17 
  7036.6279   5.29811e-17 
  7037.8135   5.42867e-17 
   7038.999   5.34458e-17 
  7040.1846   5.45139e-17 
  7041.3701   5.29121e-17 
  7042.5562   5.48129e-17 
  7043.7417   5.09166e-17 
  7044.9277   5.53552e-17 
  7046.1133   5.14902e-17 
  7047.2993   5.01777e-17 
  7048.4849   5.49596e-17 
  7049.6709   5.16354e-17 
  7050.8569   5.16702e-17 
  7052.0425   5.71973e-17 
  7053.2285    5.4632e-17 
  7054.4146    5.3015e-17 
  7055.6006   5.58059e-17 
  7056.7866   5.34134e-17 
  7057.9727   5.02507e-17 
  7059.1587    5.2255e-17 
  7060.3447   5.25685e-17 
  7061.5308   5.25122e-17 
  7062.7168   5.23704e-17 
  7063.9033   5.50086e-17 
  7065.0894   5.20218e-17 
  7066.2754   5.22512e-17 
  7067.4619   5.55162e-17 
  7068.6484   5.25073e-17 
  7069.8345   5.69773e-17 
   7071.021   5.62965e-17 
   7072.207   5.54921e-17 
  7073.3936   5.16461e-17 
  7074.5801   5.48261e-17 
  7075.7666   5.46248e-17 
  7076.9531   5.30045e-17 
  7078.1392    5.5583e-17 
  7079.3257   5.47835e-17 
  7080.5122   5.83159e-17 
  7081.6992   5.44041e-17 
  7082.8857   5.29915e-17 
  7084.0723   5.53746e-17 
  7085.2588   5.38491e-17 
  7086.4453    4.8566e-17 
  7087.6323   5.02591e-17 
  7088.8188   5.23182e-17 
  7090.0059   5.15894e-17 
  7091.1924   5.15113e-17 
  7092.3794   5.53631e-17 
  7093.5659   5.42996e-17 
  7094.7529   5.46253e-17 
  7095.9399   4.97803e-17 
  7097.1265   5.54905e-17 
  7098.3135   5.49228e-17 
  7099.5005   5.60289e-17 
  7100.6875   5.43001e-17 
  7101.8745   5.89232e-17 
  7103.0615   5.41814e-17 
  7104.2485   5.29729e-17 
  7105.4355   5.55605e-17 
  7106.6226   5.47049e-17 
  7107.8101   5.45987e-17 
  7108.9971   5.36334e-17 
  7110.1841   5.20227e-17 
  7111.3716   5.63354e-17 
  7112.5586   5.07602e-17 
  7113.7461   5.97081e-17 
  7114.9331   5.49434e-17 
  7116.1206   5.68022e-17 
  7117.3081   5.42532e-17 
  7118.4951   5.49324e-17 
  7119.6826   5.40896e-17 
  7120.8701   5.69727e-17 
  7122.0576    5.5372e-17 
  7123.2451   5.10496e-17 
  7124.4326   5.70487e-17 
  7125.6201   5.40688e-17 
  7126.8076   5.80239e-17 
  7127.9951   5.82109e-17 
  7129.1826   5.84928e-17 
  7130.3701   6.00293e-17 
  7131.5581   6.08499e-17 
  7132.7456   5.80679e-17 
  7133.9331   5.86825e-17 
  7135.1211    5.7672e-17 
  7136.3086   5.17351e-17 
  7137.4966   5.37745e-17 
  7138.6841   5.62677e-17 
  7139.8721   5.54249e-17 
  7141.0601   5.66113e-17 
  7142.2476   5.69524e-17 
  7143.4355   5.80769e-17 
  7144.6235   5.78924e-17 
  7145.8115   5.43598e-17 
  7146.9995     5.526e-17 
  7148.1875   5.72323e-17 
  7149.3755   5.59825e-17 
  7150.5635   5.89364e-17 
  7151.7515   6.05836e-17 
  7152.9395   5.58635e-17 
  7154.1279   5.68853e-17 
  7155.3159   5.45037e-17 
  7156.5039   5.59502e-17 
  7157.6924   5.29095e-17 
  7158.8804    5.4729e-17 
  7160.0688   5.43275e-17 
  7161.2568   5.43944e-17 
  7162.4453   5.47094e-17 
  7163.6333    5.5427e-17 
  7164.8218   5.99506e-17 
  7166.0103   5.42555e-17 
  7167.1987   5.48616e-17 
  7168.3872   5.81135e-17 
  7169.5752   5.74669e-17 
  7170.7637    5.2179e-17 
  7171.9521    5.5235e-17 
  7173.1406   5.87071e-17 
  7174.3296   5.79206e-17 
  7175.5181    5.4826e-17 
  7176.7065   5.90538e-17 
   7177.895   5.25392e-17 
  7179.0835   5.48294e-17 
  7180.2725   5.38037e-17 
  7181.4609   5.63674e-17 
  7182.6499   5.18474e-17 
  7183.8384   5.32848e-17 
  7185.0273   5.51763e-17 
  7186.2158   5.83055e-17 
  7187.4048   5.48622e-17 
  7188.5938   5.39677e-17 
  7189.7822   5.67238e-17 
  7190.9712   5.60501e-17 
  7192.1602   5.44414e-17 
  7193.3491   5.24405e-17 
  7194.5381   5.33479e-17 
  7195.7271   5.24588e-17 
   7196.916   5.56841e-17 
   7198.105   5.29119e-17 
  7199.2939   5.62518e-17 
  7200.4829   5.48633e-17 
  7201.6719   5.41449e-17 
  7202.8613   5.85699e-17 
  7204.0503   5.56887e-17 
  7205.2393   5.48577e-17 
  7206.4287   5.40781e-17 
  7207.6177   5.72634e-17 
  7208.8071   5.03223e-17 
  7209.9966   5.43987e-17 
  7211.1855   5.63609e-17 
   7212.375   5.56002e-17 
   7213.564   5.51476e-17 
  7214.7534   5.06016e-17 
  7215.9429   5.29885e-17 
  7217.1323   4.75157e-17 
  7218.3218   5.28012e-17 
  7219.5112   5.24045e-17 
  7220.7007   5.13809e-17 
  7221.8901   5.16367e-17 
  7223.0796   5.48455e-17 
   7224.269   5.34068e-17 
  7225.4585   5.32975e-17 
  7226.6484   5.12704e-17 
  7227.8379   5.29954e-17 
  7229.0273   5.16924e-17 
  7230.2173   5.25816e-17 
  7231.4067    5.0968e-17 
  7232.5967   5.45641e-17 
  7233.7861   4.98464e-17 
  7234.9761   4.69939e-17 
   7236.166    5.3993e-17 
  7237.3555    5.5421e-17 
  7238.5454   4.88194e-17 
  7239.7354   4.72725e-17 
  7240.9253   5.28786e-17 
  7242.1152   5.25323e-17 
  7243.3047   5.22592e-17 
  7244.4946   5.20439e-17 
  7245.6846   5.22634e-17 
  7246.8745   4.71209e-17 
  7248.0649    5.0226e-17 
  7249.2549   4.92525e-17 
  7250.4448   5.56285e-17 
  7251.6348   5.15636e-17 
  7252.8247   5.39277e-17 
  7254.0151   4.83786e-17 
  7255.2051    5.1828e-17 
  7256.3955   5.09722e-17 
  7257.5854   4.99049e-17 
  7258.7759   4.87354e-17 
  7259.9658   5.46274e-17 
  7261.1562   5.37861e-17 
  7262.3467   4.80741e-17 
  7263.5366    5.4015e-17 
  7264.7271   5.29171e-17 
  7265.9175   5.38968e-17 
  7267.1079   5.40658e-17 
  7268.2983   4.97709e-17 
  7269.4888   5.18853e-17 
  7270.6792   4.72658e-17 
  7271.8696   5.08382e-17 
  7273.0601   5.40065e-17 
  7274.2505   4.67282e-17 
  7275.4409   4.44527e-17 
  7276.6318   4.84808e-17 
  7277.8223   5.40579e-17 
  7279.0127   4.96865e-17 
  7280.2036   4.77747e-17 
   7281.394    4.8548e-17 
  7282.5845   4.87162e-17 
  7283.7754   5.17623e-17 
  7284.9658   5.14727e-17 
  7286.1567   4.79587e-17 
  7287.3477   4.97137e-17 
  7288.5381   5.09754e-17 
   7289.729   5.06446e-17 
  7290.9199   4.97291e-17 
  7292.1108   5.06289e-17 
  7293.3018   4.81571e-17 
  7294.4927   5.30321e-17 
  7295.6836   5.07516e-17 
  7296.8745    5.0646e-17 
  7298.0654   5.09073e-17 
  7299.2563   5.17067e-17 
  7300.4473   5.02893e-17 
  7301.6382   5.00979e-17 
  7302.8291   4.58592e-17 
  7304.0205   4.60012e-17 
  7305.2114   5.60687e-17 
  7306.4028    4.7611e-17 
  7307.5938   5.00807e-17 
  7308.7847   4.81525e-17 
  7309.9761   5.07122e-17 
  7311.1675   5.37243e-17 
  7312.3584   4.90093e-17 
  7313.5498   5.30758e-17 
  7314.7412   4.55627e-17 
  7315.9321   5.01977e-17 
  7317.1235   4.66398e-17 
  7318.3149    4.5805e-17 
  7319.5063   4.60095e-17 
  7320.6978   4.90081e-17 
  7321.8892   4.83215e-17 
  7323.0806    4.4929e-17 
   7324.272    4.7803e-17 
  7325.4634   5.18535e-17 
  7326.6548   4.72406e-17 
  7327.8462   5.03656e-17 
  7329.0381   4.66452e-17 
  7330.2295   4.94095e-17 
  7331.4209   4.93768e-17 
  7332.6128   5.31009e-17 
  7333.8042   4.79878e-17 
  7334.9956   4.56153e-17 
  7336.1875    5.0908e-17 
  7337.3789   4.07597e-17 
  7338.5708   4.82204e-17 
  7339.7627   4.54753e-17 
  7340.9541   5.13067e-17 
   7342.146   4.73013e-17 
  7343.3379   4.69268e-17 
  7344.5298   4.25005e-17 
  7345.7217   4.47846e-17 
  7346.9136   4.57547e-17 
   7348.105    4.6851e-17 
  7349.2969   4.53888e-17 
  7350.4888   4.80775e-17 
  7351.6812   4.75102e-17 
   7352.873   4.90153e-17 
  7354.0649   4.85209e-17 
  7355.2568   4.42327e-17 
  7356.4487   4.73665e-17 
  7357.6411   4.60363e-17 
   7358.833     4.535e-17 
  7360.0249   4.85133e-17 
  7361.2173   4.98815e-17 
  7362.4092   4.57848e-17 
  7363.6016   4.69182e-17 
  7364.7935   4.50032e-17 
  7365.9858   4.46432e-17 
  7367.1782   4.62655e-17 
  7368.3701   5.22303e-17 
  7369.5625   4.39065e-17 
  7370.7549   4.51902e-17 
  7371.9473   4.78938e-17 
  7373.1396   4.79402e-17 
   7374.332   4.86677e-17 
  7375.5244   4.65766e-17 
  7376.7168   4.23701e-17 
  7377.9092   4.70239e-17 
  7379.1016   4.44766e-17 
  7380.2939   4.94144e-17 
  7381.4863    4.5564e-17 
  7382.6787   4.63018e-17 
  7383.8711   4.46608e-17 
   7385.064   4.47329e-17 
  7386.2563   4.83701e-17 
  7387.4492   4.61373e-17 
  7388.6416   4.47099e-17 
   7389.834   4.33882e-17 
  7391.0269   4.34433e-17 
  7392.2192   5.06191e-17 
  7393.4121   4.65586e-17 
   7394.605   4.78331e-17 
  7395.7974   4.69262e-17 
  7396.9902   4.41832e-17 
  7398.1831   4.94241e-17 
   7399.376   4.39414e-17 
  7400.5684   4.26943e-17 
  7401.7612   4.45303e-17 
  7402.9541   4.76556e-17 
   7404.147   4.43102e-17 
  7405.3398   4.14817e-17 
  7406.5327   4.75964e-17 
  7407.7256   4.42014e-17 
  7408.9189   4.32583e-17 
  7410.1118   4.10248e-17 
  7411.3047   4.46296e-17 
  7412.4976   4.61119e-17 
  7413.6909   4.29232e-17 
  7414.8838   4.74243e-17 
  7416.0767   4.52305e-17 
    7417.27   4.33016e-17 
  7418.4629   4.56318e-17 
  7419.6562    4.3452e-17 
  7420.8491   4.31475e-17 
  7422.0425   4.52019e-17 
  7423.2358   4.34368e-17 
  7424.4287     4.279e-17 
  7425.6221   4.64778e-17 
  7426.8154    4.4583e-17 
  7428.0088   4.74833e-17 
  7429.2017   3.96328e-17 
   7430.395   4.16538e-17 
  7431.5884   4.61176e-17 
  7432.7817    4.3821e-17 
  7433.9751   4.20409e-17 
  7435.1685   4.48537e-17 
  7436.3618   4.49768e-17 
  7437.5557   4.19801e-17 
   7438.749   4.12183e-17 
  7439.9424   4.26475e-17 
  7441.1357   4.12904e-17 
  7442.3296   4.34396e-17 
  7443.5229   4.22892e-17 
  7444.7163   4.34377e-17 
  7445.9102    4.4006e-17 
  7447.1035   4.47843e-17 
  7448.2974   4.07981e-17 
  7449.4907   4.50238e-17 
  7450.6846   4.13773e-17 
  7451.8784   4.67194e-17 
  7453.0718   4.09446e-17 
  7454.2656   4.03184e-17 
  7455.4595   4.02263e-17 
  7456.6528   4.13267e-17 
  7457.8467   4.30287e-17 
  7459.0405   4.26349e-17 
  7460.2344   4.13411e-17 
  7461.4282   4.26833e-17 
  7462.6221   4.21191e-17 
  7463.8159   4.00427e-17 
  7465.0098   4.05993e-17 
  7466.2036   4.09284e-17 
  7467.3975   3.81151e-17 
  7468.5913   4.03072e-17 
  7469.7856   4.36262e-17 
  7470.9795   3.93872e-17 
  7472.1733   4.39545e-17 
  7473.3677   4.32129e-17 
  7474.5615   4.22445e-17 
  7475.7554   4.36284e-17 
  7476.9497    3.8557e-17 
   7478.144   4.26389e-17 
  7479.3379   4.01131e-17 
  7480.5322   4.09296e-17 
  7481.7261   4.16967e-17 
  7482.9204   4.25431e-17 
  7484.1143    4.2172e-17 
  7485.3086    4.1601e-17 
  7486.5029   4.05457e-17 
  7487.6973   3.85931e-17 
  7488.8916   4.10889e-17 
  7490.0859   3.84339e-17 
  7491.2803     4.078e-17 
  7492.4746   4.16756e-17 
  7493.6685   3.92592e-17 
  7494.8633   4.49121e-17 
  7496.0576   4.26652e-17 
   7497.252    3.7865e-17 
  7498.4463   4.25615e-17 
  7499.6406    4.1886e-17 
   7500.835   4.41917e-17 
  7502.0298   4.64294e-17 
  7503.2241   4.33404e-17 
  7504.4185    4.2109e-17 
  7505.6133   3.93476e-17 
  7506.8076   4.09995e-17 
  7508.0024   4.39011e-17 
  7509.1968   4.56854e-17 
  7510.3916   4.55082e-17 
  7511.5864   4.19693e-17 
  7512.7808    4.1131e-17 
  7513.9756    4.5808e-17 
  7515.1704   4.29831e-17 
  7516.3647   4.21422e-17 
  7517.5596   4.36371e-17 
  7518.7544   4.28603e-17 
  7519.9492   4.69034e-17 
   7521.144   4.45681e-17 
  7522.3389   4.55223e-17 
  7523.5337   4.30943e-17 
  7524.7285   4.08163e-17 
  7525.9233   3.82582e-17 
  7527.1182   4.15434e-17 
   7528.313   4.41672e-17 
  7529.5078   4.20584e-17 
  7530.7026   4.28342e-17 
  7531.8975   4.74832e-17 
  7533.0928   4.09338e-17 
  7534.2876   4.13575e-17 
  7535.4824   3.96922e-17 
  7536.6777   4.25352e-17 
  7537.8726   4.19268e-17 
  7539.0679   4.26693e-17 
  7540.2627   4.11716e-17 
   7541.458    4.0168e-17 
  7542.6528   4.13934e-17 
  7543.8481   4.20078e-17 
   7545.043   3.98352e-17 
  7546.2383   4.52065e-17 
  7547.4336   4.35747e-17 
  7548.6289   4.23976e-17 
  7549.8242   4.19521e-17 
   7551.019   4.25671e-17 
  7552.2144   4.07632e-17 
  7553.4097    3.9841e-17 
   7554.605   4.19927e-17 
  7555.8003   3.95264e-17 
  7556.9956   4.32238e-17 
  7558.1909   4.27631e-17 
  7559.3862    4.2218e-17 
   7560.582   4.13093e-17 
  7561.7773   4.10309e-17 
  7562.9727   4.36418e-17 
   7564.168   4.33875e-17 
  7565.3633   4.32365e-17 
  7566.5591   3.98181e-17 
  7567.7544   3.97369e-17 
  7568.9497   4.38664e-17 
  7570.1455   4.26445e-17 
  7571.3408   3.70826e-17 
  7572.5366   4.17105e-17 
  7573.7319   4.06489e-17 
  7574.9277   4.07849e-17 
  7576.1235    4.0488e-17 
  7577.3188   4.10527e-17 
  7578.5146   4.02911e-17 
    7579.71   3.98393e-17 
  7580.9058   4.28967e-17 
  7582.1016   4.11964e-17 
  7583.2974   4.26318e-17 
  7584.4932   4.11794e-17 
   7585.689   4.07943e-17 
  7586.8848   4.29833e-17 
  7588.0801   4.49233e-17 
  7589.2759   4.04402e-17 
  7590.4722    4.2967e-17 
   7591.668   3.65543e-17 
  7592.8638   3.74679e-17 
  7594.0596   3.66971e-17 
  7595.2554   3.79477e-17 
  7596.4512   3.83531e-17 
   7597.647   3.97665e-17 
  7598.8433   4.08099e-17 
  7600.0391   4.04853e-17 
  7601.2349   3.23011e-17 
  7602.4312   4.35358e-17 
   7603.627   4.04108e-17 
  7604.8232   4.26404e-17 
   7606.019   4.29718e-17 
  7607.2153    4.2675e-17 
  7608.4111   4.57334e-17 
  7609.6074   4.42687e-17 
  7610.8037   4.65984e-17 
  7611.9995   3.91509e-17 
  7613.1958   4.81896e-17 
  7614.3921   4.69625e-17 
  7615.5879   4.52332e-17 
  7616.7842   4.09808e-17 
  7617.9805    3.6845e-17 
  7619.1768   3.94528e-17 
   7620.373   4.19165e-17 
  7621.5693   4.16669e-17 
  7622.7656   3.75918e-17 
  7623.9619   4.10292e-17 
  7625.1582   4.01852e-17 
  7626.3545   4.08639e-17 
  7627.5508   4.48632e-17 
  7628.7471   3.61282e-17 
  7629.9434    4.5564e-17 
  7631.1401   4.01423e-17 
  7632.3364   4.06099e-17 
  7633.5327   4.43358e-17 
  7634.7295   4.18424e-17 
  7635.9258   4.24885e-17 
  7637.1221   3.84435e-17 
  7638.3188   4.58723e-17 
  7639.5151   4.21498e-17 
  7640.7119   3.89014e-17 
  7641.9082   4.16283e-17 
   7643.105   4.43932e-17 
  7644.3013   3.90983e-17 
   7645.498    3.6136e-17 
  7646.6948   3.57998e-17 
  7647.8911   4.23048e-17 
  7649.0879   4.34958e-17 
  7650.2847   3.62652e-17 
  7651.4814   3.66062e-17 
  7652.6782   4.23757e-17 
  7653.8745   4.07578e-17 
  7655.0713   4.44729e-17 
  7656.2681   4.14514e-17 
  7657.4648   3.86459e-17 
  7658.6616   4.35961e-17 
  7659.8584   4.26031e-17 
  7661.0552   3.71101e-17 
   7662.252   4.04337e-17 
  7663.4492   4.09749e-17 
   7664.646   4.31615e-17 
  7665.8428   3.99345e-17 
  7667.0396   4.20256e-17 
  7668.2363    4.1472e-17 
  7669.4336   4.03306e-17 
  7670.6304   4.30442e-17 
  7671.8271   4.01902e-17 
  7673.0244   4.08184e-17 
  7674.2212    3.9905e-17 
  7675.4185   4.19062e-17 
  7676.6152   4.09813e-17 
  7677.8125     3.765e-17 
  7679.0093   3.79618e-17 
  7680.2065   4.23515e-17 
  7681.4033   3.97135e-17 
  7682.6006   3.89232e-17 
  7683.7979   3.97888e-17 
  7684.9946   4.30207e-17 
  7686.1919   3.97151e-17 
  7687.3892   4.22871e-17 
  7688.5864   4.13815e-17 
  7689.7837   3.57817e-17 
  7690.9805   4.05818e-17 
  7692.1777   3.89343e-17 
   7693.375   3.97937e-17 
  7694.5723   3.98099e-17 
  7695.7695   3.98008e-17 
  7696.9668   3.96153e-17 
  7698.1641   3.80765e-17 
  7699.3618   3.85614e-17 
  7700.5591    4.0773e-17 
  7701.7563   4.20542e-17 
  7702.9536   3.82638e-17 
  7704.1509   3.87168e-17 
  7705.3486   4.26604e-17 
  7706.5459   3.74434e-17 
  7707.7432   3.99477e-17 
  7708.9409   4.18602e-17 
  7710.1382      4.04e-17 
  7711.3354   4.15958e-17 
  7712.5332   4.55616e-17 
  7713.7305   3.67895e-17 
  7714.9282   4.49366e-17 
  7716.1255   3.65319e-17 
  7717.3232   3.65572e-17 
  7718.5205   4.37936e-17 
  7719.7183   4.03015e-17 
   7720.916   4.01629e-17 
  7722.1133   4.01941e-17 
   7723.311   4.05765e-17 
  7724.5088   3.60119e-17 
  7725.7065   3.78673e-17 
  7726.9043   4.20638e-17 
  7728.1016   4.06143e-17 
  7729.2993   3.88719e-17 
  7730.4971   3.90095e-17 
  7731.6948   4.33403e-17 
  7732.8926   3.67456e-17 
  7734.0903   3.98016e-17 
  7735.2881    3.9246e-17 
  7736.4858   3.77718e-17 
  7737.6836   4.11618e-17 
  7738.8818   3.95194e-17 
  7740.0796   3.54821e-17 
  7741.2773   4.04067e-17 
  7742.4751    4.1449e-17 
  7743.6729   3.94264e-17 
  7744.8711   4.28161e-17 
  7746.0688   4.17471e-17 
  7747.2666    3.9764e-17 
  7748.4648   3.86774e-17 
  7749.6626   3.71573e-17 
  7750.8604   4.29674e-17 
  7752.0586    4.6457e-17 
  7753.2563   4.48534e-17 
  7754.4546   3.78811e-17 
  7755.6523   4.32896e-17 
  7756.8506   3.91481e-17 
  7758.0488   3.72842e-17 
  7759.2466    3.7947e-17 
  7760.4448    4.2319e-17 
  7761.6431   4.49929e-17 
  7762.8408    4.0595e-17 
  7764.0391   3.57073e-17 
  7765.2373   4.26183e-17 
  7766.4355   3.96924e-17 
  7767.6338     3.932e-17 
  7768.8315   3.79982e-17 
  7770.0298   4.28444e-17 
   7771.228   4.41066e-17 
  7772.4263   3.85365e-17 
  7773.6245   4.12399e-17 
  7774.8228    3.9207e-17 
   7776.021   3.78365e-17 
  7777.2192   4.20585e-17 
  7778.4175   3.60781e-17 
  7779.6162   4.39708e-17 
  7780.8145   3.84594e-17 
  7782.0127   4.27096e-17 
  7783.2109    3.9416e-17 
  7784.4092   4.10024e-17 
  7785.6079   4.06392e-17 
  7786.8062   3.91549e-17 
  7788.0044   4.07863e-17 
  7789.2031   4.14243e-17 
  7790.4014   3.93679e-17 
  7791.6001   4.04835e-17 
  7792.7983   3.81795e-17 
  7793.9966   4.08063e-17 
  7795.1953   4.37187e-17 
   7796.394   3.91321e-17 
  7797.5923   4.48848e-17 
   7798.791   4.26206e-17 
  7799.9893   3.81106e-17 
   7801.188   3.83592e-17 
  7802.3867   4.27501e-17 
   7803.585   3.95176e-17 
  7804.7837   4.05526e-17 
  7805.9824   4.35309e-17 
  7807.1812   4.17893e-17 
  7808.3794   3.82115e-17 
  7809.5781   4.02759e-17 
  7810.7769   4.10585e-17 
  7811.9756   3.90427e-17 
  7813.1743   4.09587e-17 
   7814.373   3.80576e-17 
  7815.5718   3.98665e-17 
  7816.7705   4.15153e-17 
  7817.9692   4.00272e-17 
   7819.168   4.23954e-17 
  7820.3667    4.0363e-17 
  7821.5654   4.00498e-17 
  7822.7642   3.83686e-17 
  7823.9634    3.8057e-17 
  7825.1621   4.00645e-17 
  7826.3608   3.99521e-17 
  7827.5596   3.89147e-17 
  7828.7588   4.15707e-17 
  7829.9575   4.15764e-17 
  7831.1562   4.02519e-17 
  7832.3555   4.13531e-17 
  7833.5542   3.73192e-17 
  7834.7529   4.14036e-17 
  7835.9521   4.24852e-17 
  7837.1509   4.10449e-17 
  7838.3501   3.93466e-17 
  7839.5488   4.26206e-17 
   7840.748   3.98076e-17 
  7841.9468   3.90526e-17 
   7843.146   3.85132e-17 
  7844.3452   3.96352e-17 
  7845.5444   4.20507e-17 
  7846.7432   4.58525e-17 
  7847.9424   4.14939e-17 
  7849.1416    3.7972e-17 
  7850.3403   4.17833e-17 
  7851.5396   3.83357e-17 
  7852.7388   3.99078e-17 
   7853.938   4.25765e-17 
  7855.1372    4.8891e-17 
  7856.3364    3.6026e-17 
  7857.5352   3.90321e-17 
  7858.7344   3.97795e-17 
  7859.9336   3.90542e-17 
  7861.1328    4.1723e-17 
  7862.3325   3.61766e-17 
  7863.5317   3.67455e-17 
   7864.731   3.45705e-17 
  7865.9302   4.08638e-17 
  7867.1294   4.26758e-17 
  7868.3286   3.95656e-17 
  7869.5278   4.27615e-17 
  7870.7275   4.41102e-17 
  7871.9268   3.98996e-17 
   7873.126    3.9939e-17 
  7874.3252   3.77931e-17 
  7875.5249   3.91426e-17 
  7876.7241   3.65185e-17 
  7877.9233   3.76826e-17 
   7879.123   4.41776e-17 
  7880.3223   4.06642e-17 
  7881.5215   4.06576e-17 
  7882.7212   4.29423e-17 
  7883.9204   3.77428e-17 
  7885.1201   3.60622e-17 
  7886.3198   4.06077e-17 
   7887.519    4.2243e-17 
  7888.7188   3.56562e-17 
   7889.918   4.01938e-17 
  7891.1177   3.66421e-17 
  7892.3174   3.79864e-17 
  7893.5166    3.6742e-17 
  7894.7163   4.00171e-17 
   7895.916   4.09728e-17 
  7897.1157   3.97179e-17 
  7898.3149   3.86618e-17 
  7899.5146   4.10478e-17 
  7900.7144   3.47188e-17 
  7901.9141    4.0101e-17 
  7903.1138   4.09434e-17 
  7904.3135   3.72818e-17 
  7905.5132   3.76995e-17 
  7906.7129   3.86922e-17 
  7907.9126   3.77061e-17 
  7909.1123   3.91005e-17 
   7910.312   3.82074e-17 
  7911.5117   4.60941e-17 
  7912.7114   3.81303e-17 
  7913.9111   4.28622e-17 
  7915.1108   3.75106e-17 
  7916.3105   3.55313e-17 
  7917.5103    4.0762e-17 
  7918.7104   3.54227e-17 
  7919.9102   4.30705e-17 
  7921.1099   4.32138e-17 
  7922.3096   4.09435e-17 
  7923.5098   4.03745e-17 
  7924.7095   3.65001e-17 
  7925.9092   3.72013e-17 
  7927.1094   3.78132e-17 
  7928.3091   4.13744e-17 
  7929.5093   3.99445e-17 
   7930.709   4.13634e-17 
  7931.9087   4.26253e-17 
  7933.1089   3.62542e-17 
  7934.3086   3.98386e-17 
  7935.5088   3.27356e-17 
   7936.709    3.7019e-17 
  7937.9087   3.65468e-17 
  7939.1089   3.84265e-17 
  7940.3086    3.5809e-17 
  7941.5088   3.88273e-17 
   7942.709   4.19499e-17 
  7943.9087   3.85536e-17 
  7945.1089   3.90389e-17 
  7946.3091    3.4649e-17 
  7947.5093   3.83851e-17 
   7948.709   3.61019e-17 
  7949.9092   3.71445e-17 
  7951.1094   3.65293e-17 
  7952.3096   3.86061e-17 
  7953.5098   3.55899e-17 
    7954.71   3.66891e-17 
  7955.9102   3.85172e-17 
  7957.1104   3.71295e-17 
  7958.3105   3.40206e-17 
  7959.5107   3.84092e-17 
  7960.7109   3.71956e-17 
  7961.9111   3.32952e-17 
  7963.1113   3.75608e-17 
  7964.3115   3.46817e-17 
  7965.5117   3.67171e-17 
  7966.7119   3.77652e-17 
  7967.9121   3.81687e-17 
  7969.1123   3.37685e-17 
   7970.313   3.78219e-17 
  7971.5132    3.6017e-17 
  7972.7134   3.55882e-17 
  7973.9136   3.45588e-17 
  7975.1143   3.63198e-17 
  7976.3145   3.65469e-17 
  7977.5146    3.6148e-17 
  7978.7153   3.51569e-17 
  7979.9155   3.64131e-17 
  7981.1162    3.8531e-17 
  7982.3164   3.61976e-17 
  7983.5166   3.71229e-17 
  7984.7173   3.54023e-17 
  7985.9175   3.91154e-17 
  7987.1182   3.61171e-17 
  7988.3184    3.5001e-17 
   7989.519   3.91266e-17 
  7990.7197   3.99885e-17 
  7991.9199   3.46715e-17 
  7993.1206   3.90631e-17 
  7994.3208   3.45846e-17 
  7995.5215   3.84169e-17 
  7996.7222   3.72737e-17 
  7997.9224   3.62333e-17 
   7999.123   3.88962e-17 
  8000.3237    3.3329e-17 
  8001.5244   3.58865e-17 
  8002.7246   3.73962e-17 
  8003.9253   3.41235e-17 
   8005.126   3.73481e-17 
  8006.3267   3.63312e-17 
  8007.5273   3.47244e-17 
   8008.728   3.39191e-17 
  8009.9287   3.50343e-17 
  8011.1289   3.57126e-17 
  8012.3296   3.68088e-17 
  8013.5303   3.42022e-17 
   8014.731   3.40721e-17 
  8015.9316   3.64176e-17 
  8017.1323   3.27558e-17 
   8018.333   3.73396e-17 
  8019.5337   3.80884e-17 
  8020.7349   3.79242e-17 
  8021.9355   3.78776e-17 
  8023.1362   3.37703e-17 
  8024.3369   3.68908e-17 
  8025.5376   3.51453e-17 
  8026.7383   3.16429e-17 
   8027.939   3.03779e-17 
  8029.1401     3.576e-17 
  8030.3408   3.59456e-17 
  8031.5415   3.42611e-17 
  8032.7427    3.7244e-17 
  8033.9434   3.50002e-17 
   8035.144   3.70435e-17 
  8036.3452   3.32294e-17 
  8037.5459    3.4093e-17 
  8038.7466    3.7495e-17 
  8039.9478   3.52669e-17 
  8041.1484   3.48981e-17 
  8042.3496     3.701e-17 
  8043.5503   3.69621e-17 
  8044.7515   3.40435e-17 
  8045.9521   3.62583e-17 
  8047.1533   3.50174e-17 
   8048.354   3.47681e-17 
  8049.5552   3.66881e-17 
  8050.7559   3.40569e-17 
   8051.957   3.53384e-17 
  8053.1582    3.5474e-17 
  8054.3589   3.58371e-17 
  8055.5601   3.18309e-17 
  8056.7612   3.32555e-17 
  8057.9619   3.51459e-17 
  8059.1631   3.35628e-17 
  8060.3643   3.62266e-17 
  8061.5654   3.72434e-17 
  8062.7661   3.61128e-17 
  8063.9673   3.61417e-17 
  8065.1685   3.12635e-17 
  8066.3696    3.2004e-17 
  8067.5708   3.72442e-17 
   8068.772   3.38305e-17 
  8069.9727   3.29982e-17 
  8071.1738    3.3819e-17 
   8072.375   3.28655e-17 
  8073.5762   3.35714e-17 
  8074.7773    3.3013e-17 
  8075.9785   3.21149e-17 
  8077.1797    3.6096e-17 
  8078.3809   3.43023e-17 
   8079.582   3.53813e-17 
  8080.7832   3.62332e-17 
  8081.9844   3.25207e-17 
   8083.186   3.23696e-17 
  8084.3872   3.59545e-17 
  8085.5884   3.16088e-17 
  8086.7896   3.25591e-17 
  8087.9907   3.42273e-17 
  8089.1919   3.48961e-17 
  8090.3931   3.29484e-17 
  8091.5947    3.2336e-17 
  8092.7959   3.67916e-17 
  8093.9971   3.51646e-17 
  8095.1982   3.64136e-17 
  8096.3999   3.33573e-17 
  8097.6011   3.18636e-17 
  8098.8022   3.38568e-17 
  8100.0039   3.20936e-17 
  8101.2051   3.60577e-17 
  8102.4062   3.16892e-17 
  8103.6079    3.4342e-17 
  8104.8091   3.22098e-17 
  8106.0107   3.39635e-17 
  8107.2119   3.42013e-17 
  8108.4136   3.30831e-17 
  8109.6147   3.30638e-17 
  8110.8164   3.20339e-17 
  8112.0176   3.59376e-17 
  8113.2192   3.51268e-17 
  8114.4204   3.29438e-17 
  8115.6221   3.66805e-17 
  8116.8232   3.26415e-17 
  8118.0249   3.52008e-17 
  8119.2261   3.41889e-17 
  8120.4277   3.44619e-17 
  8121.6294   3.14652e-17 
  8122.8306   3.33671e-17 
  8124.0322    3.6574e-17 
  8125.2339   3.31224e-17 
  8126.4351   3.49091e-17 
  8127.6367   3.71475e-17 
  8128.8384   3.31273e-17 
    8130.04   3.06157e-17 
  8131.2417   3.58561e-17 
  8132.4429   3.21382e-17 
  8133.6445   2.96281e-17 
  8134.8462   3.24163e-17 
  8136.0479   3.32814e-17 
  8137.2495   3.26905e-17 
  8138.4512   3.08664e-17 
  8139.6528    3.1124e-17 
   8140.854   3.40799e-17 
  8142.0557   3.27332e-17 
  8143.2573   3.35219e-17 
   8144.459   3.26372e-17 
  8145.6606   3.41617e-17 
  8146.8623   3.27963e-17 
   8148.064   3.31092e-17 
  8149.2656   3.12196e-17 
  8150.4673   3.15236e-17 
  8151.6689   3.37476e-17 
  8152.8706   3.45707e-17 
  8154.0723   3.23058e-17 
  8155.2744   3.13554e-17 
  8156.4761   3.58658e-17 
  8157.6777   3.45461e-17 
  8158.8794   3.19614e-17 
  8160.0811   3.30445e-17 
  8161.2827   3.20529e-17 
  8162.4849   3.35385e-17 
  8163.6865   3.43922e-17 
  8164.8882   3.40355e-17 
  8166.0898   3.25151e-17 
  8167.2915   3.30964e-17 
  8168.4937   3.56757e-17 
  8169.6953   3.08164e-17 
   8170.897   2.95216e-17 
  8172.0991    3.6365e-17 
  8173.3008   3.28977e-17 
  8174.5024   2.87424e-17 
  8175.7046   2.86051e-17 
  8176.9062   3.39884e-17 
  8178.1079   3.35071e-17 
  8179.3101   3.41535e-17 
  8180.5117   3.43527e-17 
  8181.7139   3.10408e-17 
  8182.9155   3.27248e-17 
  8184.1177   3.09781e-17 
  8185.3193   3.21826e-17 
  8186.5215   3.26549e-17 
  8187.7231   2.79443e-17 
  8188.9253    3.0763e-17 
   8190.127   3.20015e-17 
  8191.3291   3.04437e-17 
  8192.5312   3.10634e-17 
  8193.7324   3.18137e-17 
  8194.9346   3.34087e-17 
  8196.1367   3.12417e-17 
  8197.3389   3.21077e-17 
   8198.541   3.10277e-17 
  8199.7422   3.37916e-17 
  8200.9443   3.26175e-17 
  8202.1465   3.18391e-17 
  8203.3486   2.89883e-17 
  8204.5508   3.32348e-17 
  8205.7529   3.03994e-17 
  8206.9551   3.21709e-17 
  8208.1562    3.3334e-17 
  8209.3584    3.0814e-17 
  8210.5605   3.11108e-17 
  8211.7627   3.51245e-17 
  8212.9648   3.38847e-17 
   8214.167   3.15885e-17 
  8215.3691   3.11188e-17 
  8216.5713   3.01786e-17 
  8217.7734   3.20165e-17 
  8218.9756   2.94141e-17 
  8220.1768   2.82933e-17 
  8221.3789   3.00147e-17 
  8222.5811   3.12927e-17 
  8223.7832   2.84868e-17 
  8224.9854   2.81036e-17 
  8226.1875   2.78582e-17 
  8227.3896   2.70074e-17 
  8228.5918   2.57129e-17 
  8229.7939   3.07577e-17 
  8230.9961   2.80063e-17 
  8232.1982   2.87553e-17 
  8233.4004   2.85243e-17 
  8234.6025   2.76718e-17 
  8235.8047   2.76835e-17 
  8237.0068   2.73917e-17 
   8238.209   3.02451e-17 
  8239.4111   3.01688e-17 
  8240.6133   2.87088e-17 
  8241.8154   2.62604e-17 
  8243.0186   2.92894e-17 
  8244.2207    2.9518e-17 
  8245.4229   2.93266e-17 
   8246.625   2.96507e-17 
  8247.8271   3.19857e-17 
  8249.0293   3.10405e-17 
  8250.2314   2.97271e-17 
  8251.4336   2.90604e-17 
  8252.6357   2.95116e-17 
  8253.8379   2.74909e-17 
    8255.04   3.27669e-17 
  8256.2432   3.09355e-17 
  8257.4453   2.90283e-17 
  8258.6475   2.99488e-17 
  8259.8496   2.84408e-17 
  8261.0518   3.26635e-17 
  8262.2539   3.22308e-17 
  8263.4561   2.51868e-17 
  8264.6592    3.0157e-17 
  8265.8613   2.92592e-17 
  8267.0635   2.87547e-17 
  8268.2656   3.06385e-17 
  8269.4678   3.03554e-17 
  8270.6699   2.80199e-17 
   8271.873   2.93828e-17 
  8273.0752   2.97381e-17 
  8274.2773   2.52762e-17 
  8275.4795   3.09345e-17 
  8276.6826   2.95548e-17 
  8277.8848   3.03231e-17 
  8279.0869   2.81235e-17 
  8280.2891   2.83228e-17 
  8281.4922   3.08128e-17 
  8282.6943   3.14175e-17 
  8283.8965   3.11241e-17 
  8285.0986   2.93687e-17 
  8286.3018   2.76823e-17 
  8287.5039   2.75247e-17 
  8288.7061   2.83457e-17 
  8289.9082    2.7627e-17 
  8291.1113   2.59876e-17 
  8292.3135   2.89139e-17 
  8293.5156   2.73667e-17 
  8294.7188   3.17721e-17 
  8295.9209   3.36727e-17 
   8297.123   3.13087e-17 
  8298.3252   3.16909e-17 
  8299.5283   2.86561e-17 
  8300.7305   2.76215e-17 
  8301.9326   2.69534e-17 
  8303.1357   2.91956e-17 
  8304.3379   3.05312e-17 
    8305.54   3.10471e-17 
  8306.7432   2.90478e-17 
  8307.9453   3.10012e-17 
  8309.1484   2.98834e-17 
  8310.3506   2.70199e-17 
  8311.5527   2.91906e-17 
  8312.7559    2.9225e-17 
   8313.958   3.08201e-17 
  8315.1602   3.05362e-17 
  8316.3633   2.73334e-17 
  8317.5654   2.53138e-17 
  8318.7686   2.63322e-17 
  8319.9707   3.17865e-17 
  8321.1729   2.89011e-17 
   8322.376   2.76293e-17 
  8323.5781   2.88943e-17 
  8324.7812   3.34644e-17 
  8325.9834   3.16367e-17 
  8327.1865   3.42189e-17 
  8328.3887   2.91086e-17 
  8329.5908   3.31412e-17 
  8330.7939   2.89969e-17 
  8331.9961   3.22873e-17 
  8333.1992   3.21291e-17 
  8334.4014   3.00719e-17 
  8335.6045   2.94024e-17 
  8336.8066   3.05793e-17 
  8338.0098   3.04242e-17 
  8339.2119    2.9862e-17 
   8340.415   3.36573e-17 
  8341.6172   3.09251e-17 
  8342.8203   3.98959e-17 
  8344.0225   3.15457e-17 
  8345.2256   3.10084e-17 
  8346.4277   3.70926e-17 
  8347.6309   3.84991e-17 
   8348.833   2.57748e-17 
  8350.0361   3.11316e-17 
  8351.2383   2.76239e-17 
  8352.4414   2.68427e-17 
  8353.6436   3.30133e-17 
  8354.8467   3.22592e-17 
  8356.0488   3.17128e-17 
   8357.252   3.38522e-17 
  8358.4541    3.0446e-17 
  8359.6572   2.75801e-17 
  8360.8594   3.18961e-17 
  8362.0625   3.21626e-17 
  8363.2656   3.25914e-17 
  8364.4678   2.98796e-17 
  8365.6709   2.79471e-17 
   8366.873   2.92735e-17 
  8368.0762    3.1266e-17 
  8369.2783   3.02306e-17 
  8370.4814   3.01277e-17 
  8371.6846   3.26529e-17 
  8372.8867   3.17938e-17 
  8374.0898   2.71256e-17 
   8375.292   3.28796e-17 
  8376.4951   3.14372e-17 
  8377.6982   2.90089e-17 
  8378.9004    2.8822e-17 
  8380.1035   3.18146e-17 
  8381.3057   2.78947e-17 
  8382.5088   3.18334e-17 
  8383.7119    3.4974e-17 
  8384.9141    2.9372e-17 
  8386.1172   3.27891e-17 
  8387.3203    2.9847e-17 
  8388.5225   3.10816e-17 
  8389.7256   2.93516e-17 
  8390.9277   3.13639e-17 
  8392.1309    2.9286e-17 
   8393.334   2.89981e-17 
  8394.5361   2.67754e-17 
  8395.7393   2.62904e-17 
  8396.9424   2.94149e-17 
  8398.1445   2.83656e-17 
  8399.3477   3.23944e-17 
  8400.5508   3.34194e-17 
  8401.7529   2.69189e-17 
  8402.9561    2.8819e-17 
  8404.1592   3.10048e-17 
  8405.3613   3.41611e-17 
  8406.5645    2.9739e-17 
  8407.7676   2.96229e-17 
  8408.9707   3.25982e-17 
  8410.1729   3.00308e-17 
   8411.376      3.19e-17 
  8412.5791   2.67642e-17 
  8413.7812   3.31908e-17 
  8414.9844   2.59182e-17 
  8416.1875   3.06053e-17 
  8417.3906   2.87654e-17 
  8418.5928   2.87487e-17 
  8419.7959   3.18615e-17 
   8420.999    3.0604e-17 
  8422.2012     3.078e-17 
  8423.4043   3.08739e-17 
  8424.6074   3.03457e-17 
  8425.8105   3.00147e-17 
  8427.0127   3.18206e-17 
  8428.2158   3.01096e-17 
  8429.4189   3.26273e-17 
  8430.6221   3.59119e-17 
  8431.8242   2.77175e-17 
  8433.0273   2.84112e-17 
  8434.2305   2.59549e-17 
  8435.4336    3.0873e-17 
  8436.6357   2.89617e-17 
  8437.8389   3.18412e-17 
   8439.042   3.02856e-17 
  8440.2451   2.88843e-17 
  8441.4473   2.84389e-17 
  8442.6504   2.67508e-17 
  8443.8535   2.94845e-17 
  8445.0566   2.79444e-17 
  8446.2598   2.97646e-17 
  8447.4619   2.67295e-17 
   8448.665   2.94561e-17 
  8449.8682   2.91591e-17 
  8451.0713     2.848e-17 
  8452.2734   2.51867e-17 
  8453.4766   2.84548e-17 
  8454.6797   3.05568e-17 
  8455.8828   3.14311e-17 
  8457.0859   2.58121e-17 
  8458.2881   2.93021e-17 
  8459.4912   2.88224e-17 
  8460.6943   3.01075e-17 
  8461.8975   2.74502e-17 
  8463.1006   3.30743e-17 
  8464.3027   3.18766e-17 
  8465.5059   3.21714e-17 
   8466.709   3.02519e-17 
  8467.9121    2.2018e-17 
  8469.1152   2.89005e-17 
  8470.3184    2.8963e-17 
  8471.5205   2.81212e-17 
  8472.7236   2.66889e-17 
  8473.9268   3.01266e-17 
  8475.1299   2.93081e-17 
   8476.333   3.11303e-17 
  8477.5361   2.86716e-17 
  8478.7383   2.99631e-17 
  8479.9414    2.6699e-17 
  8481.1445   3.24056e-17 
  8482.3477   2.73499e-17 
  8483.5508   2.83787e-17 
  8484.7539   3.01381e-17 
  8485.9561   2.81619e-17 
  8487.1592   2.92729e-17 
  8488.3623   2.94571e-17 
  8489.5654   3.11071e-17 
  8490.7686   2.50473e-17 
  8491.9717   2.72559e-17 
  8493.1738   3.12899e-17 
   8494.377   2.87463e-17 
  8495.5801   2.88842e-17 
  8496.7832     3.117e-17 
  8497.9863   2.95791e-17 
  8499.1895   2.83365e-17 
  8500.3926   2.99259e-17 
  8501.5947   3.20012e-17 
  8502.7979   3.01882e-17 
   8504.001   3.18285e-17 
  8505.2041   2.76319e-17 
  8506.4072   2.77534e-17 
  8507.6104   3.02096e-17 
  8508.8135   2.90042e-17 
  8510.0166   3.03916e-17 
  8511.2188   2.84663e-17 
  8512.4219   3.04704e-17 
   8513.625   2.98401e-17 
  8514.8281    2.8877e-17 
  8516.0312   2.78677e-17 
  8517.2344    2.8947e-17 
  8518.4375    2.9806e-17 
  8519.6406   2.72958e-17 
  8520.8438   3.08702e-17 
  8522.0459   2.85064e-17 
   8523.249   3.18943e-17 
  8524.4521   3.14148e-17 
  8525.6553    2.8652e-17 
  8526.8584   2.91672e-17 
  8528.0615   2.81963e-17 
  8529.2646   3.13356e-17 
  8530.4678     2.771e-17 
  8531.6699   2.75212e-17 
   8532.873   2.77553e-17 
  8534.0762   2.91144e-17 
  8535.2793   2.87456e-17 
  8536.4824   3.14374e-17 
  8537.6855   2.76782e-17 
  8538.8887   2.99016e-17 
  8540.0918   2.83037e-17 
  8541.2949   3.14687e-17 
   8542.498   2.74236e-17 
  8543.7002   2.74327e-17 
  8544.9033   2.91848e-17 
  8546.1064   2.76462e-17 
  8547.3096   2.97532e-17 
  8548.5127   3.11075e-17 
  8549.7158   2.86244e-17 
  8550.9189    2.8002e-17 
  8552.1221   2.88711e-17 
  8553.3252   2.86304e-17 
  8554.5283   2.88771e-17 
  8555.7305   2.90558e-17 
  8556.9336   2.70527e-17 
  8558.1367   2.71351e-17 
  8559.3398    2.6584e-17 
   8560.543   2.95194e-17 
  8561.7461   2.74909e-17 
  8562.9492   2.77748e-17 
  8564.1523   2.76595e-17 
  8565.3555   2.67191e-17 
  8566.5586   3.04114e-17 
  8567.7607   2.85935e-17 
  8568.9639   3.13182e-17 
   8570.167   2.85588e-17 
  8571.3701   2.82613e-17 
  8572.5732   2.89726e-17 
  8573.7764   2.85736e-17 
  8574.9795   2.61539e-17 
  8576.1826   2.75022e-17 
  8577.3857   3.01237e-17 
  8578.5889   2.84958e-17 
   8579.791   2.87393e-17 
  8580.9941   2.70721e-17 
  8582.1973   2.74904e-17 
  8583.4004   2.84509e-17 
  8584.6035   2.90473e-17 
  8585.8066   2.96341e-17 
  8587.0098   2.90208e-17 
  8588.2129   2.77954e-17 
   8589.416   3.12538e-17 
  8590.6191   2.75101e-17 
  8591.8223   3.01623e-17 
  8593.0244   2.93454e-17 
  8594.2275   2.69489e-17 
  8595.4307   2.79087e-17 
  8596.6338   2.97693e-17 
  8597.8369    2.6004e-17 
    8599.04   2.79216e-17 
  8600.2432   2.63713e-17 
  8601.4463   2.85369e-17 
  8602.6494   2.99092e-17 
  8603.8525   2.89211e-17 
  8605.0547   2.74676e-17 
  8606.2578   2.66126e-17 
  8607.4609   2.60298e-17 
  8608.6641   2.74227e-17 
  8609.8672   2.85971e-17 
  8611.0703   2.80632e-17 
  8612.2734   2.44737e-17 
  8613.4766   2.86512e-17 
  8614.6797   2.63984e-17 
  8615.8818   2.86556e-17 
   8617.085   3.01974e-17 
  8618.2881   2.84409e-17 
  8619.4912   2.63127e-17 
  8620.6943   2.58413e-17 
  8621.8975    2.8841e-17 
  8623.1006   2.61999e-17 
  8624.3037   2.54766e-17 
  8625.5068   2.58356e-17 
   8626.709   2.62205e-17 
  8627.9121   2.45838e-17 
  8629.1152   3.17106e-17 
  8630.3184    3.1106e-17 
  8631.5215   2.35078e-17 
  8632.7246    2.8741e-17 
  8633.9277   2.67743e-17 
  8635.1309   2.64092e-17 
   8636.333   2.85551e-17 
  8637.5361   2.52242e-17 
  8638.7393   2.59679e-17 
  8639.9424   2.76137e-17 
  8641.1455   2.97554e-17 
  8642.3486   2.68264e-17 
  8643.5518   2.47135e-17 
  8644.7549   2.79703e-17 
   8645.957   2.93409e-17 
  8647.1602   2.59461e-17 
  8648.3633   2.68306e-17 
  8649.5664   2.66669e-17 
  8650.7695   2.56636e-17 
  8651.9727   2.52726e-17 
  8653.1758   2.88244e-17 
  8654.3779    2.6125e-17 
  8655.5811   2.44175e-17 
  8656.7842   2.74463e-17 
  8657.9873   2.33667e-17 
  8659.1904   2.57944e-17 
  8660.3936   3.04934e-17 
  8661.5957   2.80238e-17 
  8662.7988   3.13066e-17 
   8664.002   3.06734e-17 
  8665.2051   2.46571e-17 
  8666.4082   3.23745e-17 
  8667.6113   2.87415e-17 
  8668.8135   3.09183e-17 
  8670.0166   2.49954e-17 
  8671.2197   2.66728e-17 
  8672.4229   2.46662e-17 
   8673.626   3.27603e-17 
  8674.8281   2.56737e-17 
  8676.0312   2.75103e-17 
  8677.2344   2.82008e-17 
  8678.4375   2.66287e-17 
  8679.6406   2.61685e-17 
  8680.8438   2.75792e-17 
  8682.0459   2.59648e-17 
   8683.249   2.53197e-17 
  8684.4521   2.60729e-17 
  8685.6553   2.61477e-17 
  8686.8584   2.77956e-17 
  8688.0605   2.80322e-17 
  8689.2637   2.96743e-17 
  8690.4668   3.02285e-17 
  8691.6699   2.62614e-17 
   8692.873   2.89372e-17 
  8694.0752    2.6939e-17 
  8695.2783   2.44462e-17 
  8696.4814   2.68831e-17 
  8697.6846   2.88563e-17 
  8698.8867   2.53713e-17 
  8700.0898   2.73494e-17 
   8701.293   2.61991e-17 
  8702.4961   2.55907e-17 
  8703.6992   2.54959e-17 
  8704.9014   2.39391e-17 
  8706.1045   2.21125e-17 
  8707.3076   3.00565e-17 
  8708.5107   2.43993e-17 
  8709.7129   2.56154e-17 
   8710.916   2.67699e-17 
  8712.1191   2.42452e-17 
  8713.3223    2.7131e-17 
  8714.5244   2.68453e-17 
  8715.7275   2.89884e-17 
  8716.9307   2.69162e-17 
  8718.1338   2.53904e-17 
  8719.3359   2.64587e-17 
  8720.5391   2.69132e-17 
  8721.7422   2.61367e-17 
  8722.9453   2.53991e-17 
  8724.1475   2.94605e-17 
  8725.3506   2.72948e-17 
  8726.5537   2.58047e-17 
  8727.7559   2.68718e-17 
   8728.959   2.54508e-17 
  8730.1621   2.62733e-17 
  8731.3652    2.5825e-17 
  8732.5674    2.4153e-17 
  8733.7705   2.59669e-17 
  8734.9736   2.72744e-17 
  8743.3936   2.56285e-17 
  8744.5957   2.56905e-17 
  8745.7988   2.52472e-17 
   8747.002   2.56499e-17 
  8748.2041   2.78334e-17 
  8749.4072   2.54073e-17 
  8750.6094    2.7847e-17 
  8751.8125   2.61502e-17 
  8753.0156   2.70013e-17 
  8754.2178   2.69712e-17 
  8755.4209   2.70329e-17 
   8756.624    2.8327e-17 
  8757.8262   2.60335e-17 
  8759.0293    2.6328e-17 
  8760.2324   2.58768e-17 
  8761.4346   2.96799e-17 
  8762.6377   2.72181e-17 
  8763.8398   2.35516e-17 
   8765.043   2.92996e-17 
  8766.2461    2.2432e-17 
  8767.4482   2.35458e-17 
  8768.6514   2.66045e-17 
  8769.8535   2.77482e-17 
  8771.0566    2.3693e-17 
  8772.2598   2.93383e-17 
  8773.4619   2.61897e-17 
   8774.665   2.58919e-17 
  8775.8672   3.01189e-17 
  8777.0703   2.56399e-17 
  8778.2734   2.75878e-17 
  8779.4756   3.12248e-17 
  8780.6787   2.29306e-17 
  8781.8809   2.35204e-17 
   8783.084   2.77295e-17 
  8784.2861   2.59841e-17 
  8785.4893   2.64132e-17 
  8786.6924   2.52809e-17 
  8787.8945   2.70253e-17 
  8789.0977   2.95043e-17 
  8790.2998   2.44402e-17 
  8791.5029   2.87113e-17 
  8792.7051   2.11823e-17 
  8793.9082   2.42111e-17 
  8795.1104   2.49327e-17 
  8796.3135   2.67214e-17 
  8797.5156   2.60224e-17 
  8798.7188   2.60578e-17 
  8799.9209   2.72379e-17 
   8801.124   2.56908e-17 
  8802.3262   2.40751e-17 
  8803.5293   2.69511e-17 
  8804.7314   2.72325e-17 
  8805.9346   2.66136e-17 
  8807.1367   2.49569e-17 
  8808.3398   2.52301e-17 
   8809.542   2.35626e-17 
  8810.7441   2.47692e-17 
  8811.9473   2.63196e-17 
  8813.1494   2.64881e-17 
  8814.3525   2.60439e-17 
  8815.5547   2.79828e-17 
  8816.7578   2.56165e-17 
    8817.96   2.66028e-17 
  8819.1631   2.28323e-17 
  8820.3652   2.51174e-17 
  8821.5674   2.40777e-17 
  8822.7705   2.41433e-17 
  8823.9727   2.80189e-17 
  8825.1758   2.96039e-17 
  8826.3779   3.00489e-17 
  8827.5801   2.30445e-17 
  8828.7832   2.68552e-17 
  8829.9854   2.21487e-17 
  8831.1885   2.40221e-17 
  8832.3906   2.58428e-17 
  8833.5928   2.41647e-17 
  8834.7959   3.00063e-17 
   8835.998   2.09329e-17 
  8837.2002   2.20008e-17 
  8838.4033     2.479e-17 
  8839.6055   2.12845e-17 
  8840.8076   2.50198e-17 
  8842.0107   2.41164e-17 
  8843.2129   2.31291e-17 
   8844.415   2.41599e-17 
  8845.6182   2.36236e-17 
  8846.8203   2.46867e-17 
  8848.0225   2.48438e-17 
  8849.2256   2.59786e-17 
  8850.4277   2.64699e-17 
  8851.6299   2.25632e-17 
   8852.833    2.7598e-17 
  8854.0352   2.36098e-17 
  8855.2373   2.19318e-17 
  8856.4395   2.36931e-17 
  8857.6426   2.50365e-17 
  8858.8447   2.30446e-17 
  8860.0469   2.38305e-17 
   8861.249   2.44696e-17 
  8862.4521   2.73727e-17 
  8863.6543   2.70105e-17 
  8864.8564   2.93822e-17 
  8866.0586   2.05388e-17 
  8867.2617     2.313e-17 
  8868.4639   2.61025e-17 
   8869.666   2.20653e-17 
  8870.8682   2.42062e-17 
  8872.0703    2.3833e-17 
  8873.2734    2.6939e-17 
  8874.4756   2.61194e-17 
  8875.6777   2.42449e-17 
  8876.8799   2.44903e-17 
   8878.082    2.5922e-17 
  8879.2852   2.49635e-17 
  8880.4873   2.29446e-17 
  8881.6895      2.76e-17 
  8882.8916   3.00124e-17 
  8884.0938   2.36102e-17 
  8885.2959   2.06155e-17 
   8886.498   2.34522e-17 
  8887.7012   2.54982e-17 
  8888.9033   2.79462e-17 
  8890.1055   2.25099e-17 
  8891.3076   2.21824e-17 
  8892.5098   2.55343e-17 
  8893.7119   2.35882e-17 
  8894.9141     2.378e-17 
  8896.1162   2.43459e-17 
  8897.3184   2.21073e-17 
  8898.5205   2.40974e-17 
  8899.7236   2.91126e-17 
  8900.9258   2.64774e-17 
  8902.1279   2.58733e-17 
  8903.3301   2.45629e-17 
  8904.5322   2.82191e-17 
  8905.7344   2.31894e-17 
  8906.9365   2.41634e-17 
  8908.1387   2.42925e-17 
  8909.3408   2.48524e-17 
   8910.543   2.63121e-17 
  8911.7451   2.40089e-17 
  8912.9473   2.20599e-17 
  8914.1494   2.16218e-17 
  8915.3516   2.50966e-17 
  8916.5537   1.83523e-17 
  8917.7559   1.83807e-17 
   8918.958   2.61626e-17 
  8920.1602   2.92791e-17 
  8921.3623    2.8599e-17 
  8922.5645   2.63574e-17 
  8923.7656     2.028e-17 
  8924.9678   2.55478e-17 
  8926.1699   2.54798e-17 
  8927.3721   2.32101e-17 
  8928.5742   2.28992e-17 
  8929.7764   2.60954e-17 
  8930.9785   2.47936e-17 
  8932.1807   2.28723e-17 
  8933.3828   2.38986e-17 
   8934.585   2.27497e-17 
  8935.7871   2.21062e-17 
  8936.9883   2.36584e-17 
  8938.1904   2.48001e-17 
  8939.3926   2.71778e-17 
  8940.5947   2.61546e-17 
  8941.7969   2.53871e-17 
   8942.999   2.15089e-17 
  8944.2002   2.26292e-17 
  8945.4023   2.18721e-17 
  8946.6045   2.28423e-17 
  8947.8066   2.41111e-17 
  8949.0088   2.75974e-17 
    8950.21   2.47139e-17 
  8951.4121   2.35999e-17 
  8952.6143    2.2078e-17 
  8953.8164   2.76789e-17 
  8955.0186   2.58727e-17 
  8956.2197   2.62528e-17 
  8957.4219   2.91106e-17 
   8958.624   2.12932e-17 
  8959.8262   3.00878e-17 
  8961.0273   1.68361e-17 
  8962.2295   2.15778e-17 
  8963.4316   2.53643e-17 
  8964.6328   2.45079e-17 
   8965.835   2.64623e-17 
  8967.0371   2.13778e-17 
  8968.2383   2.22366e-17 
  8969.4404   2.25255e-17 
  8970.6426   2.24838e-17 
  8971.8438   2.56047e-17 
  8973.0459   2.42889e-17 
   8974.248   2.19218e-17 
  8975.4492   2.28523e-17 
  8976.6514   2.37211e-17 
  8977.8535   2.22855e-17 
  8979.0547   2.29328e-17 
  8980.2568   2.19046e-17 
   8981.458   2.28167e-17 
  8982.6602   2.25758e-17 
  8983.8623    2.2594e-17 
  8985.0635   2.36217e-17 
  8986.2656   2.33806e-17 
  8987.4668   2.15534e-17 
  8988.6689   2.72215e-17 
  8989.8701   2.40068e-17 
  8991.0723   2.77137e-17 
  8992.2734   2.29692e-17 
  8993.4756   2.64801e-17 
  8994.6768   2.48494e-17 
  8995.8789   2.21896e-17 
  8997.0801   2.24109e-17 
  8998.2822   2.44217e-17 
  8999.4834   2.80237e-17 
  9000.6855   1.94165e-17 
  9001.8867   2.41979e-17 
  9003.0889   2.42104e-17 
    9004.29   2.88356e-17 
  9005.4922   2.26531e-17 
  9006.6934   2.25814e-17 
  9007.8955   2.35901e-17 
  9009.0967   2.28152e-17 
  9010.2979   2.31709e-17 
     9011.5   2.37215e-17 
  9012.7012   2.19301e-17 
  9013.9033   2.00609e-17 
  9015.1045   2.21249e-17 
  9016.3057   2.22752e-17 
  9017.5078   2.55465e-17 
   9018.709   2.28234e-17 
  9019.9102   2.10362e-17 
  9021.1123     2.191e-17 
  9022.3135   1.89942e-17 
  9023.5146   2.35743e-17 
  9024.7168   2.24566e-17 
   9025.918   2.35821e-17 
  9027.1191   2.28101e-17 
  9028.3203   2.24156e-17 
  9029.5225    1.9414e-17 
  9030.7236   2.02459e-17 
  9031.9248   2.00909e-17 
   9033.127   2.08834e-17 
  9034.3281    2.1382e-17 
  9035.5293   2.28742e-17 
  9036.7305   2.11837e-17 
  9037.9316   1.97763e-17 
  9039.1338   1.81018e-17 
   9040.335   2.03855e-17 
  9041.5361   2.01428e-17 
  9042.7373   2.08291e-17 
  9043.9385   2.20512e-17 
  9045.1406    2.1225e-17 
  9046.3418   2.00362e-17 
   9047.543   2.32737e-17 
  9048.7441   2.30623e-17 
  9049.9453   1.62644e-17 
  9051.1465   2.38619e-17 
  9052.3477   2.21038e-17 
  9053.5488    2.3622e-17 
   9054.751   2.12357e-17 
  9055.9521   2.19434e-17 
  9057.1533   2.22553e-17 
  9058.3545   2.03681e-17 
  9059.5557   1.98523e-17 
  9060.7568    2.0321e-17 
   9061.958   2.18926e-17 
  9063.1592   1.91473e-17 
  9064.3604   1.90814e-17 
  9065.5615   2.07783e-17 
  9066.7627   2.04952e-17 
  9067.9639   2.21898e-17 
   9069.165   2.14808e-17 
  9070.3662   2.23229e-17 
  9071.5674    2.3624e-17 
  9072.7686    2.0063e-17 
  9073.9697   2.08083e-17 
  9075.1709   2.52149e-17 
  9076.3721   1.93772e-17 
  9077.5723     2.241e-17 
  9078.7734   2.16372e-17 
  9079.9746   2.12137e-17 
  9081.1758   2.09589e-17 
   9082.377    2.3107e-17 
  9083.5781   1.98813e-17 
  9084.7793   2.20342e-17 
  9085.9805    2.1413e-17 
  9087.1807   2.49854e-17 
  9088.3818   2.12151e-17 
   9089.583   2.12313e-17 
  9090.7842   1.96513e-17 
  9091.9854   2.34448e-17 
  9093.1855   2.40758e-17 
  9094.3867   2.21823e-17 
  9095.5879   2.37238e-17 
  9096.7891   2.16709e-17 
  9097.9902   1.99367e-17 
  9099.1904   2.22718e-17 
  9100.3916   2.33321e-17 
  9101.5928   2.40596e-17 
   9102.793   2.11321e-17 
  9103.9941   2.39974e-17 
  9105.1953   2.23104e-17 
  9106.3965   2.24107e-17 
  9107.5967   2.25219e-17 
  9108.7979   2.32074e-17 
   9109.999   2.21866e-17 
  9111.1992   2.29259e-17 
  9112.4004   2.39853e-17 
  9113.6006   2.34621e-17 
  9114.8018   2.10564e-17 
  9116.0029   2.03556e-17 
  9117.2031    2.1062e-17 
  9118.4043   2.38708e-17 
  9119.6045   2.44545e-17 
  9120.8057   2.42406e-17 
  9122.0068   2.34948e-17 
   9123.207   2.14064e-17 
  9124.4082   2.47117e-17 
  9125.6084   2.42637e-17 
  9126.8096   2.39435e-17 
  9128.0098   2.28383e-17 
  9129.2109   2.12501e-17 
  9130.4111   2.49339e-17 
  9131.6123    2.2727e-17 
  9132.8125   2.33085e-17 
  9134.0137    2.3607e-17 
  9135.2139   2.27535e-17 
  9136.4141   2.16603e-17 
  9137.6152   2.23033e-17 
  9138.8154   2.39407e-17 
  9140.0166   2.46585e-17 
  9141.2168   2.30817e-17 
   9142.417   2.18049e-17 
  9143.6182   2.24021e-17 
  9144.8184   2.35063e-17 
  9146.0186    2.5221e-17 
  9147.2197   2.02822e-17 
  9148.4199   1.80281e-17 
  9149.6201   1.97011e-17 
  9150.8213   2.33917e-17 
  9152.0215   2.15724e-17 
  9153.2217   2.34963e-17 
  9154.4229   2.50835e-17 
   9155.623   2.48621e-17 
  9156.8232   2.29461e-17 
  9158.0234   2.33547e-17 
  9159.2246   2.19066e-17 
  9160.4248   2.05898e-17 
   9161.625   2.05672e-17 
  9162.8252   2.24939e-17 
  9164.0254   2.30371e-17 
  9165.2266   2.20012e-17 
  9166.4268   2.05854e-17 
   9167.627   2.18151e-17 
  9168.8271   2.20293e-17 
  9170.0273   2.04051e-17 
  9171.2275   2.08302e-17 
  9172.4277   2.08372e-17 
  9173.6279   1.97165e-17 
  9174.8291   2.08744e-17 
  9176.0293   2.17874e-17 
  9177.2295   2.03599e-17 
  9178.4297   2.31581e-17 
  9179.6299   2.40398e-17 
  9180.8301   2.01848e-17 
  9182.0303   1.97124e-17 
  9183.2305   2.00149e-17 
  9184.4307   2.28503e-17 
  9185.6309   2.19708e-17 
  9186.8311   2.32276e-17 
  9188.0312   2.39016e-17 
  9189.2314   2.28394e-17 
  9190.4316   2.16081e-17 
  9191.6318    2.2555e-17 
   9192.832   2.24583e-17 
  9194.0312   1.96236e-17 
  9195.2314   2.29036e-17 
  9196.4316   2.06423e-17 
  9197.6318   2.36737e-17 
   9198.832   2.24108e-17 
  9200.0322   2.20752e-17 
  9201.2324   2.16064e-17 
  9202.4316    2.2308e-17 
  9203.6318   2.20723e-17 
   9204.832   2.02776e-17 
  9206.0322    2.2731e-17 
  9207.2324    2.1222e-17 
  9208.4316   2.25121e-17 
  9209.6318   2.15421e-17 
   9210.832   2.22992e-17 
  9212.0322   2.32363e-17 
  9213.2314   2.31148e-17 
  9214.4316   2.18343e-17 
  9215.6318   1.93272e-17 
   9216.832   2.10083e-17 
  9218.0312   2.19174e-17 
  9219.2314   2.24638e-17 
  9220.4316   2.10928e-17 
  9221.6309   2.03044e-17 
  9222.8311   2.45127e-17 
  9224.0303   2.02023e-17 
  9225.2305     1.937e-17 
  9226.4307   2.13691e-17 
  9227.6299   2.26781e-17 
  9228.8301   2.45316e-17 
  9230.0293   2.12553e-17 
  9231.2295   2.33823e-17 
  9232.4287   2.19171e-17 
  9233.6289   2.14659e-17 
  9234.8281   2.18324e-17 
  9236.0283   2.16005e-17 
  9237.2275   2.04479e-17 
  9238.4277   2.34497e-17 
   9239.627    2.3031e-17 
  9240.8271   2.22403e-17 
  9242.0264   2.24478e-17 
  9243.2266   2.12085e-17 
  9244.4258   2.31781e-17 
   9245.626   2.36631e-17 
  9246.8252   2.05113e-17 
  9248.0244   2.15605e-17 
  9249.2246   2.37169e-17 
  9250.4238    2.1673e-17 
   9251.623   2.26461e-17 
  9252.8232   2.41187e-17 
  9254.0225   2.10035e-17 
  9255.2217   2.44343e-17 
  9256.4219   2.08132e-17 
  9257.6211   2.45423e-17 
  9258.8203   2.14604e-17 
  9260.0195   2.37298e-17 
  9261.2197   2.33636e-17 
  9262.4189   2.15957e-17 
  9263.6182   2.13954e-17 
  9264.8174   2.26407e-17 
  9266.0166   2.30088e-17 
  9267.2168   2.37981e-17 
   9268.416   2.12856e-17 
  9269.6152   2.17849e-17 
  9270.8145   2.02719e-17 
  9272.0137    2.1225e-17 
  9273.2129   2.25763e-17 
  9274.4121   2.28792e-17 
  9275.6113   2.02324e-17 
  9276.8115   2.25295e-17 
  9278.0107   2.15789e-17 
    9279.21   2.42925e-17 
  9280.4092   2.52003e-17 
  9281.6084   2.15542e-17 
  9282.8076   2.36485e-17 
  9284.0068    2.5802e-17 
  9285.2061   2.53615e-17 
  9286.4053   2.40199e-17 
  9287.6045   2.55246e-17 
  9288.8037    2.6337e-17 
  9290.0029    2.1688e-17 
  9291.2021   2.14975e-17 
  9292.4004   1.94729e-17 
  9293.5996   2.21532e-17 
  9294.7988   2.32263e-17 
   9295.998   2.18886e-17 
  9297.1973   2.32953e-17 
  9298.3965   2.22745e-17 
  9299.5957   2.29568e-17 
  9300.7939    2.3471e-17 
  9301.9932   2.22966e-17 
  9303.1924   2.54994e-17 
  9304.3916   2.28829e-17 
  9305.5908   2.41659e-17 
  9306.7891   1.97145e-17 
  9307.9883   1.94428e-17 
  9309.1875    3.0393e-17 
  9310.3867   2.32595e-17 
   9311.585   2.58467e-17 
  9312.7842   1.77185e-17 
  9313.9834   2.60897e-17 
  9315.1816   2.02057e-17 
  9316.3809   2.28729e-17 
  9317.5801   2.73119e-17 
  9318.7783    2.5779e-17 
  9319.9775   2.14863e-17 
  9321.1758   2.30308e-17 
   9322.375   2.14632e-17 
  9323.5732   2.03284e-17 
  9324.7725   2.69367e-17 
  9325.9717   2.65245e-17 
  9327.1699    2.7962e-17 
  9328.3691   3.05557e-17 
  9329.5674   2.02824e-17 
  9330.7666   2.19141e-17 
  9331.9648   1.96548e-17 
  9333.1641   2.25205e-17 
  9334.3623   2.34219e-17 
  9335.5605   2.16529e-17 
  9336.7598   2.13988e-17 
   9337.958   2.56621e-17 
  9339.1572   2.25796e-17 
  9340.3555   1.51183e-17 
  9341.5537   1.66075e-17 
  9342.7529   1.85597e-17 
  9343.9512    2.2721e-17 
  9345.1494   2.79454e-17 
  9346.3486    2.8766e-17 
  9347.5469   2.65307e-17 
  9348.7451   2.42571e-17 
  9349.9443   2.35529e-17 
  9351.1426    1.8171e-17 
  9352.3408   1.51324e-17 
  9353.5391   2.12128e-17 
  9354.7383   2.22911e-17 
  9355.9365   2.24833e-17 
  9357.1348   2.34996e-17 
   9358.333   2.36447e-17 
  9359.5312    3.1156e-17 
  9360.7295   2.88295e-17 
  9361.9277   2.29874e-17 
   9363.127   2.10662e-17 
  9364.3252   1.90784e-17 
  9365.5234    1.7088e-17 
  9366.7217   1.83129e-17 
  9367.9199   1.98243e-17 
  9369.1182   1.99322e-17 
  9370.3164   1.98852e-17 
  9371.5146   2.37842e-17 
  9372.7129   2.85724e-17 
  9373.9111   3.53368e-17 
  9375.1094   2.51008e-17 
  9376.3076   4.13661e-17 
  9377.5059   1.99115e-17 
  9378.7041   1.00767e-17 
  9379.9023    2.5393e-17 
  9381.1006   2.37689e-17 
  9382.2988   3.21266e-17 
  9383.4961   2.54343e-17 
  9384.6943   1.90779e-17 
  9385.8926   2.54946e-17 
  9387.0908   2.48311e-17 
  9388.2891   2.42184e-17 
  9389.4873   2.42261e-17 
  9390.6846    2.3144e-17 
  9391.8828   2.39028e-17 
  9393.0811   2.00518e-17 
  9394.2793   2.55538e-17 
  9395.4766   2.14007e-17 
  9396.6748    2.0471e-17 
   9397.873   1.68693e-17 
  9399.0703   2.20891e-17 
  9400.2686   2.50185e-17 
  9401.4668   2.34151e-17 
  9402.6641    2.2099e-17 
  9403.8623   2.29146e-17 
  9405.0605   2.05286e-17 
  9406.2578   2.00311e-17 
  9407.4561   1.80039e-17 
  9408.6533   1.99486e-17 
  9409.8516    2.3283e-17 
  9411.0498   2.05716e-17 
  9412.2471    2.3311e-17 
  9413.4453   2.33622e-17 
  9414.6426   2.14648e-17 
  9415.8408   1.87246e-17 
  9417.0381   2.02464e-17 
  9418.2354   1.75606e-17 
  9419.4336    2.5662e-17 
  9420.6309   2.32001e-17 
  9421.8291   3.19061e-17 
  9423.0264   2.51258e-17 
  9424.2246   1.91914e-17 
  9425.4219   2.06682e-17 
  9426.6191   1.56302e-17 
  9427.8174    2.0978e-17 
  9429.0146   2.58169e-17 
  9430.2119   2.51021e-17 
  9431.4102   2.78098e-17 
  9432.6074   2.19203e-17 
  9433.8047   2.02744e-17 
   9435.002   2.01334e-17 
  9436.1992   1.56246e-17 
  9437.3975   3.05934e-17 
  9438.5947   1.52761e-17 
   9439.792   2.34502e-17 
  9440.9893   2.85172e-17 
  9442.1865   2.04314e-17 
  9443.3848   1.72692e-17 
   9444.582   1.96777e-17 
  9445.7793   2.42608e-17 
  9446.9766   2.21623e-17 
  9448.1738   2.20949e-17 
  9449.3711   2.31937e-17 
  9450.5684   2.23419e-17 
  9451.7656   2.20374e-17 
  9452.9629   2.10595e-17 
  9454.1602   1.67503e-17 
  9455.3574   2.68136e-17 
  9456.5547   2.29652e-17 
   9457.752   1.99512e-17 
  9458.9492   2.10629e-17 
  9460.1465   3.26664e-17 
  9461.3438   3.09086e-17 
   9462.541   2.33409e-17 
  9463.7383   2.16075e-17 
  9464.9355   2.09761e-17 
  9466.1318   1.76995e-17 
  9467.3291   1.82258e-17 
  9468.5264   2.33817e-17 
  9469.7236   2.02307e-17 
  9470.9209   2.26588e-17 
  9472.1172   2.01806e-17 
  9473.3145   2.29951e-17 
  9474.5117   8.23145e-18 
   9475.709   1.95056e-17 
  9476.9053   2.99972e-17 
  9478.1025   2.18495e-17 
  9479.2998   1.63689e-17 
  9480.4961   1.53424e-17 
  9481.6934   2.27272e-17 
  9482.8906    2.7252e-17 
  9484.0869   2.59602e-17 
  9485.2842   2.34084e-17 
  9486.4814   2.26068e-17 
  9487.6777   2.24887e-17 
   9488.875   2.23854e-17 
  9490.0713   2.41397e-17 
  9491.2686   1.78531e-17 
  9492.4648   1.59219e-17 
  9493.6621   2.14314e-17 
  9494.8584   1.97678e-17 
  9496.0557   2.23981e-17 
   9497.252   2.24051e-17 
  9498.4492   2.09947e-17 
  9499.6455   2.19371e-17 
  9500.8418   3.64174e-17 
  9502.0391   3.02005e-17 
  9503.2354   2.40818e-17 
  9504.4316   2.12469e-17 
  9505.6289   2.43438e-17 
  9506.8252   2.08511e-17 
  9508.0215   1.78557e-17 
  9509.2188   2.15572e-17 
   9510.415   2.01121e-17 
  9511.6113   1.84742e-17 
  9512.8076   2.11846e-17 
  9514.0049   2.03912e-17 
  9515.2012   1.77545e-17 
  9516.3975   1.70972e-17 
  9517.5938   2.58414e-17 
    9518.79   2.05603e-17 
  9519.9873   1.70931e-17 
  9521.1836   2.39554e-17 
  9522.3799   2.46212e-17 
  9523.5762   2.14592e-17 
  9524.7725   2.38054e-17 
  9525.9688   2.18427e-17 
   9527.165   1.98443e-17 
  9528.3613   2.21506e-17 
  9529.5576   2.31959e-17 
  9530.7539   2.10938e-17 
  9531.9502   2.23835e-17 
  9533.1465   2.16858e-17 
  9534.3428   2.14914e-17 
  9535.5391   2.27705e-17 
  9536.7354   2.00351e-17 
  9537.9316   2.20306e-17 
  9539.1279   1.97124e-17 
  9540.3242   2.10795e-17 
  9541.5195    1.8896e-17 
  9542.7158   1.92271e-17 
  9543.9121   1.92362e-17 
  9545.1084   2.64175e-17 
  9546.3047   2.27734e-17 
   9547.501    2.5257e-17 
  9548.6963   2.40139e-17 
  9549.8926    2.2823e-17 
  9551.0889   2.19988e-17 
  9552.2852   1.91386e-17 
  9553.4805   1.74554e-17 
  9554.6768   2.22012e-17 
   9555.873   2.14635e-17 
  9557.0684   2.46034e-17 
  9558.2646   2.83386e-17 
    9559.46   1.86788e-17 
  9560.6562   2.19017e-17 
  9561.8525   1.88238e-17 
  9563.0479   2.33158e-17 
  9564.2441   1.84612e-17 
  9565.4395   2.24219e-17 
  9566.6357   3.23959e-17 
  9567.8311   2.50251e-17 
  9569.0273   2.71322e-17 
  9570.2227   1.95763e-17 
  9571.4189    1.8898e-17 
  9572.6143   2.04738e-17 
  9573.8105   2.39834e-17 
  9575.0059   2.26177e-17 
  9576.2012    2.1282e-17 
  9577.3975   2.32433e-17 
  9578.5928   1.95696e-17 
  9579.7881   2.09827e-17 
  9580.9844   2.47929e-17 
  9582.1797   2.37439e-17 
   9583.375   2.37269e-17 
  9584.5703   2.13642e-17 
  9585.7666   2.26154e-17 
  9586.9619    1.9156e-17 
  9588.1572   2.16038e-17 
  9589.3525   1.97467e-17 
  9590.5488   2.39689e-17 
  9591.7441    1.9703e-17 
  9592.9395   2.78719e-17 
  9594.1348   2.53904e-17 
  9595.3301   1.93338e-17 
  9596.5254    2.0954e-17 
  9597.7207   2.07071e-17 
   9598.916   2.18575e-17 
  9600.1113   2.26021e-17 
  9601.3066   1.93257e-17 
   9602.502   2.07129e-17 
  9603.6973    1.9667e-17 
  9604.8926   2.33995e-17 
  9606.0879   2.36258e-17 
  9607.2832   2.31757e-17 
  9608.4785    2.5463e-17 
  9609.6738   1.73771e-17 
  9610.8691   2.38518e-17 
  9612.0645   2.03503e-17 
  9613.2598   1.89704e-17 
  9614.4551    2.1002e-17 
  9615.6494    2.3044e-17 
  9616.8447     2.428e-17 
    9618.04   1.73121e-17 
  9619.2354   2.07764e-17 
  9620.4307   1.74752e-17 
   9621.625   1.79039e-17 
  9622.8203   2.94404e-17 
  9624.0156   2.94342e-17 
  9625.2109    2.0192e-17 
  9626.4053   1.80152e-17 
  9627.6006   2.62823e-17 
  9628.7949   2.19243e-17 
  9629.9902   2.35415e-17 
  9631.1855   2.48887e-17 
  9632.3799   2.04111e-17 
  9633.5752   1.79102e-17 
  9634.7695   1.78341e-17 
  9635.9648   1.88847e-17 
  9637.1602   1.97815e-17 
  9638.3545   2.19886e-17 
  9639.5498   2.22967e-17 
  9640.7441   2.15514e-17 
  9641.9395   1.99119e-17 
  9643.1338   1.96232e-17 
  9644.3281   1.71009e-17 
  9645.5234   2.27195e-17 
  9646.7178   2.07354e-17 
  9647.9131   2.03935e-17 
  9649.1074   2.00022e-17 
  9650.3018   2.09629e-17 
  9651.4971   2.20899e-17 
  9652.6914   2.05361e-17 
  9653.8857   2.09696e-17 
  9655.0801    1.9634e-17 
  9656.2754   2.35813e-17 
  9657.4697   2.12613e-17 
  9658.6641   2.03966e-17 
  9659.8584   1.97594e-17 
  9661.0527   1.68431e-17 
   9662.248   2.60656e-17 
  9663.4424    1.8644e-17 
  9664.6367   2.13967e-17 
  9665.8311    2.2118e-17 
  9667.0254   2.14664e-17 
  9668.2197   2.24129e-17 
  9669.4141   1.72041e-17 
  9670.6084   1.75864e-17 
  9671.8027   2.48568e-17 
  9672.9971    2.2761e-17 
  9674.1914   2.23241e-17 
  9675.3857   1.92542e-17 
  9676.5801   1.68011e-17 
  9677.7744    2.2239e-17 
  9678.9688   1.95562e-17 
  9680.1631   1.61919e-17 
  9681.3574   2.02534e-17 
  9682.5518   2.13934e-17 
  9683.7461   2.15201e-17 
  9684.9395   1.91363e-17 
  9686.1338   1.95037e-17 
  9687.3281   2.11972e-17 
  9688.5225    2.2586e-17 
  9689.7168   2.22601e-17 
  9690.9102   1.68269e-17 
  9692.1045   2.14648e-17 
  9693.2988   2.04332e-17 
  9694.4932   1.84726e-17 
  9695.6865    2.1492e-17 
  9696.8809   1.66393e-17 
  9698.0742   1.45623e-17 
  9699.2686   2.33032e-17 
  9700.4629    2.1915e-17 
  9701.6562   2.08513e-17 
  9702.8506   1.86933e-17 
  9704.0439   2.43593e-17 
  9705.2383   1.97556e-17 
  9706.4316   2.07372e-17 
   9707.626   1.96766e-17 
  9708.8193   2.38649e-17 
  9710.0137    2.1047e-17 
   9711.207    2.2774e-17 
  9712.4014   2.58246e-17 
  9713.5947   1.91289e-17 
  9714.7891   2.11207e-17 
  9715.9824   2.19453e-17 
  9717.1758   2.48901e-17 
  9718.3701   2.21645e-17 
  9719.5635   1.38135e-17 
  9720.7568   2.26264e-17 
  9721.9512   2.29234e-17 
  9723.1445   1.80548e-17 
  9724.3379   1.89337e-17 
  9725.5312   2.22209e-17 
  9726.7256    2.3469e-17 
  9727.9189   1.92432e-17 
  9729.1123   1.91674e-17 
  9730.3057   1.93332e-17 
   9731.499   1.73426e-17 
  9732.6934   2.22415e-17 
  9733.8867   1.85748e-17 
  9735.0801   1.77907e-17 
  9736.2734   1.99263e-17 
  9737.4668   1.50485e-17 
  9738.6602   1.89335e-17 
  9739.8535   2.08305e-17 
  9741.0469   1.90445e-17 
  9742.2402   1.72056e-17 
  9743.4336   2.42511e-17 
   9744.627   2.17105e-17 
  9745.8203   2.16927e-17 
  9747.0137   1.87151e-17 
   9748.207   1.82687e-17 
  9749.4004   1.83425e-17 
  9750.5928   2.21432e-17 
  9751.7861   1.74717e-17 
  9752.9795   1.72931e-17 
  9754.1729   1.86827e-17 
  9755.3662   1.93545e-17 
  9756.5596   2.00809e-17 
   9757.752   2.20304e-17 
  9758.9453   1.98248e-17 
  9760.1387   2.05531e-17 
  9761.3311   1.81115e-17 
  9762.5244   1.90208e-17 
  9763.7178   1.88664e-17 
  9764.9102   2.13375e-17 
  9766.1035   2.13488e-17 
  9767.2969   1.99653e-17 
  9768.4893   1.86388e-17 
  9769.6826   2.00411e-17 
   9770.876    1.9825e-17 
  9772.0684   2.13748e-17 
  9773.2617   1.93626e-17 
  9774.4541   1.71196e-17 
  9775.6475   2.22314e-17 
  9776.8398   1.92639e-17 
  9778.0332   1.88277e-17 
  9779.2256   1.88074e-17 
   9780.418   1.80182e-17 
  9781.6113   2.13535e-17 
  9782.8037   2.09965e-17 
  9783.9971   1.85333e-17 
  9785.1895   1.80493e-17 
  9786.3818   1.95537e-17 
  9787.5752   1.65179e-17 
  9788.7676   2.36563e-17 
    9789.96   1.52709e-17 
  9791.1523   1.71167e-17 
  9792.3457   3.93166e-17 
  9793.5381   1.55395e-17 
  9794.7305   1.62089e-17 
  9795.9229   1.86926e-17 
  9797.1152   1.97239e-17 
  9798.3086    2.2957e-17 
   9799.501   2.08668e-17 
  9800.6934   2.08645e-17 
  9801.8857   2.11615e-17 
  9803.0781    2.1563e-17 
  9804.2705    2.0312e-17 
  9805.4629   1.81104e-17 
  9806.6553   1.94415e-17 
  9807.8477   2.11255e-17 
    9809.04   1.65665e-17 
  9810.2324   1.67838e-17 
  9811.4248   1.63917e-17 
  9812.6172   1.95752e-17 
  9813.8096   2.02311e-17 
   9815.002   1.91415e-17 
  9816.1943    1.7919e-17 
  9817.3867   2.23619e-17 
  9818.5791   1.68312e-17 
  9819.7715   1.90922e-17 
  9820.9629   1.80058e-17 
  9822.1553   2.14252e-17 
  9823.3477   2.05941e-17 
    9824.54   1.72578e-17 
  9825.7314    1.8429e-17 
  9826.9238   1.77889e-17 
  9828.1162   1.85787e-17 
  9829.3086   1.94451e-17 
     9830.5   1.77395e-17 
  9831.6924    1.7459e-17 
  9832.8848   1.69726e-17 
  9834.0762   1.88411e-17 
  9835.2686   1.80357e-17 
    9836.46   1.84863e-17 
  9837.6523   1.92287e-17 
  9838.8438   1.70459e-17 
  9840.0361   1.97227e-17 
  9841.2285   1.67374e-17 
  9842.4199   1.60262e-17 
  9843.6113   1.79628e-17 
  9844.8037   1.77291e-17 
  9845.9951   1.81983e-17 
  9847.1875   1.78243e-17 
  9848.3789   1.42711e-17 
  9849.5713   1.92624e-17 
  9850.7627   1.22698e-17 
  9851.9541   1.73362e-17 
  9853.1465   2.24997e-17 
  9854.3379   1.80169e-17 
  9855.5293   2.00539e-17 
  9856.7217   1.88749e-17 
  9857.9131   1.94516e-17 
  9859.1045   1.74969e-17 
  9860.2959    1.9875e-17 
  9861.4883   1.84303e-17 
  9862.6797   1.86722e-17 
  9863.8711    1.7058e-17 
  9865.0625   2.13398e-17 
  9866.2539   1.80901e-17 
  9867.4453   1.70505e-17 
  9868.6367   1.82988e-17 
  9869.8291   2.81143e-17 
  9871.0205   1.81361e-17 
  9872.2119   6.87021e-18 
  9873.4033   1.16413e-17 
  9874.5947   1.92181e-17 
  9875.7861   1.86227e-17 
  9876.9775   2.01908e-17 
  9878.1689   1.80258e-17 
  9879.3604   1.81021e-17 
  9880.5518   1.69627e-17 
  9881.7432   1.73152e-17 
  9882.9336   1.99749e-17 
   9884.125   1.79304e-17 
  9885.3164   1.55706e-17 
  9886.5078   1.76773e-17 
  9887.6992   2.30025e-17 
  9888.8906   1.89771e-17 
  9890.0811   2.00169e-17 
  9891.2725   1.67074e-17 
  9892.4639   1.65614e-17 
  9893.6553   2.49328e-17 
  9894.8457   2.09527e-17 
  9896.0371   1.22912e-17 
  9897.2285   1.72271e-17 
  9898.4189   1.57926e-17 
  9899.6104   2.31428e-17 
  9900.8018   1.87393e-17 
  9901.9922   1.61673e-17 
  9903.1836    1.7361e-17 
   9904.374   2.26649e-17 
  9905.5654   1.71524e-17 
  9906.7568    1.9856e-17 
  9907.9473   1.94843e-17 
  9909.1387   1.59877e-17 
  9910.3291   2.09748e-17 
  9911.5205   2.84967e-17 
  9912.7109   2.95205e-17 
  9913.9014   1.98554e-17 
  9915.0928   1.85794e-17 
  9916.2832   2.68487e-17 
  9917.4746   1.38412e-17 
   9918.665   1.48877e-17 
  9919.8555   1.55717e-17 
  9921.0469   2.01907e-17 
  9922.2373    1.9061e-17 
  9923.4277     1.955e-17 
  9924.6191   1.99842e-17 
  9925.8096   1.60024e-17 
     9927.0   1.89081e-17 
  9928.1904   1.75035e-17 
  9929.3818    2.0412e-17 
  9930.5723   2.27349e-17 
  9931.7627   1.76726e-17 
  9932.9531   1.41022e-17 
  9934.1436   1.89013e-17 
   9935.334   2.11303e-17 
  9936.5244   2.19469e-17 
  9937.7148   1.50248e-17 
  9938.9062   2.14662e-17 
  9940.0967   2.91746e-17 
  9941.2871   2.02179e-17 
  9942.4775   1.72154e-17 
   9943.668   2.02305e-17 
  9944.8584   1.54436e-17 
  9946.0488    3.1935e-17 
  9947.2393   2.48075e-17 
  9948.4287   2.58747e-17 
  9949.6191   1.78843e-17 
  9950.8096     1.718e-17 
     9952.0   2.16691e-17 
  9953.1904   2.18001e-17 
  9954.3809   1.54104e-17 
  9955.5713   1.97481e-17 
  9956.7607   1.58717e-17 
  9957.9512   2.55766e-17 
  9959.1416   1.46173e-17 
   9960.332   1.90849e-17 
  9961.5215   2.02827e-17 
  9962.7119   7.74551e-18 
  9963.9023   1.46414e-17 
  9965.0928    1.8726e-17 
  9966.2822   1.94802e-17 
  9967.4727   1.56742e-17 
  9968.6631   1.86344e-17 
  9969.8525   1.39343e-17 
   9971.043   1.79794e-17 
  9972.2324   2.10616e-17 
  9973.4229   1.85804e-17 
  9974.6123   2.55364e-17 
  9975.8027   1.66102e-17 
  9976.9922   1.68348e-17 
  9978.1826   1.50746e-17 
  9979.3721    2.3054e-17 
  9980.5625   1.46663e-17 
   9981.752   1.65818e-17 
  9982.9424    1.7141e-17 
  9984.1318   1.84178e-17 
  9985.3213   1.93124e-17 
  9986.5117   1.96149e-17 
  9987.7012   1.58779e-17 
  9988.8906   1.98039e-17 
  9990.0811   1.49052e-17 
  9991.2705   1.87261e-17 
    9992.46   1.75302e-17 
  9993.6504    1.7545e-17 
  9994.8398   1.91058e-17 
  9996.0293   2.15749e-17 
  9997.2188    1.8334e-17 
  9998.4092    2.3068e-17 
  9999.5986   2.18762e-17 
  10000.788   1.61312e-17 
  10001.978   1.81399e-17 
  10003.167   2.12339e-17 
  10004.357   1.99875e-17 
  10005.546   1.58138e-17 
  10006.736   1.72311e-17 
  10007.925   2.24683e-17 
  10009.115   1.77062e-17 
  10010.304   1.71402e-17 
  10011.494   1.67752e-17 
  10012.683    2.3757e-18 
  10013.873   2.15446e-17 
  10015.062   2.20053e-17 
  10016.251   1.84462e-17 
  10017.441    2.3704e-17 
   10018.63   1.69811e-17 
   10019.82   2.51299e-17 
  10021.009   1.81359e-17 
  10022.198   2.61644e-17 
  10023.388   2.49207e-17 
  10024.577   1.64449e-17 
  10025.766   1.75046e-17 
  10026.955   1.75012e-17 
  10028.145   2.50819e-17 
  10029.334   1.53645e-17 
  10030.523   1.73298e-17 
  10031.712   1.75387e-17 
  10032.901   2.09106e-17 
   10034.09   1.97789e-17 
   10035.28   2.45865e-17 
  10036.469   1.75015e-17 
  10037.658   1.96562e-17 
  10038.847   2.07446e-17 
  10040.036   1.75776e-17 
  10041.225   1.28286e-17 
  10042.414   1.54196e-17 
  10043.603   2.31432e-17 
  10044.792   2.19823e-17 
  10045.981   1.88726e-17 
   10047.17   1.41386e-17 
  10048.359   1.53248e-17 
  10049.548   1.89971e-17 
  10050.737    1.9851e-17 
  10051.926   2.14838e-17 
  10053.115   1.94205e-17 
  10054.304   1.82664e-17 
  10055.492   1.85957e-17 
  10056.681   1.80219e-17 
   10057.87   1.97132e-17 
  10059.059   1.36483e-17 
  10060.248   1.70558e-17 
  10061.436   1.90065e-17 
  10062.625   1.72326e-17 
  10063.814   1.98641e-17 
  10065.003   1.86429e-17 
  10066.191   1.70865e-17 
   10067.38   1.45323e-17 
  10068.569   2.28418e-17 
  10069.757   2.37577e-17 
  10070.946   2.17192e-17 
  10072.135   1.58145e-17 
  10073.323   7.86247e-18 
  10074.512   1.97039e-17 
  10075.701   1.49891e-17 
  10076.889   1.58168e-17 
  10078.078   1.69141e-17 
  10079.266    2.6611e-17 
  10080.455   3.12063e-17 
  10081.643   2.88353e-17 
  10082.832   1.52466e-17 
   10084.02   1.81618e-17 
  10085.209    1.7404e-17 
  10086.397   2.05235e-17 
  10087.586   2.74465e-17 
  10088.774   1.77326e-17 
  10089.962   2.35393e-17 
  10091.151   2.10149e-17 
  10092.339   1.55547e-17 
  10093.528   1.75608e-17 
  10094.716   1.70991e-17 
  10095.904   1.50372e-17 
  10097.092   1.94292e-17 
  10098.281   1.70694e-17 
  10099.469   1.31463e-17 
  10100.657   2.66553e-17 
  10101.846   1.55961e-17 
  10103.034   2.16213e-17 
  10104.222   7.81099e-18 
   10105.41   1.63144e-17 
  10106.598   2.20939e-17 
  10107.787   2.00201e-17 
  10108.975   1.90257e-17 
  10110.163   2.37414e-17 
  10111.351   1.71368e-17 
  10112.539   1.67128e-17 
  10113.727   2.41852e-17 
  10114.915   2.17661e-17 
  10116.103   1.74782e-17 
  10117.291   1.62434e-17 
  10118.479   1.75154e-17 
  10119.667   2.25939e-17 
  10120.855     1.877e-17 
  10122.043   3.14895e-17 
  10123.231   1.36882e-17 
  10124.419   7.79557e-18 
  10125.607   2.43939e-17 
  10126.795   1.73629e-17 
  10127.983   1.19334e-17 
  10129.171   2.42744e-17 
  10130.359   2.24744e-17 
  10131.547   1.71228e-17 
  10132.735   1.58988e-17 
  10133.922   1.54667e-17 
   10135.11   1.98781e-17 
  10136.298   1.52659e-17 
  10137.486   1.87193e-17 
  10138.674    1.0568e-17 
  10139.861   2.09416e-17 
  10141.049   1.90359e-17 
  10142.237   1.65508e-17 
  10143.425   1.31471e-17 
  10144.612   1.78501e-17 
    10145.8   2.06824e-17 
  10146.988   1.93428e-17 
  10148.175   2.16456e-17 
  10149.363   2.10025e-17 
  10150.551   2.38413e-17 
  10151.738   1.63134e-17 
  10152.926    1.9545e-17 
  10154.113   1.92968e-17 
  10155.301   1.52871e-17 
  10156.488   2.02069e-17 
  10157.676   1.41972e-17 
  10158.864   2.40961e-17 
  10160.051   2.43286e-17 
  10161.239    2.6127e-17 
  10162.426   6.49344e-18 
  10163.614   1.96863e-17 
  10164.801   1.90306e-17 
  10165.988   1.74041e-17 
  10167.176   1.52625e-17 
  10168.363   2.53182e-17 
  10169.551   2.12761e-17 
  10170.738   1.04299e-17 
  10171.925   1.01735e-18 
  10173.113   1.69339e-17 
    10174.3   1.77698e-17 
  10175.487   2.10194e-17 
  10176.675   2.20028e-17 
  10177.862   1.97212e-17 
  10179.049   1.28494e-17 
  10180.237   1.87143e-17 
  10181.424   2.24459e-17 
  10182.611   2.13893e-17 
  10183.798     1.655e-17 
  10184.986   1.11525e-17 
  10186.173   1.55085e-17 
   10187.36   1.98299e-17 
  10188.547   2.34619e-17 
  10189.734   2.42628e-17 
  10190.921   1.68134e-17 
  10192.109   1.14735e-17 
  10193.296   1.21318e-17 
  10194.483   1.90642e-17 
   10195.67   1.50785e-17 
  10196.857   1.53027e-17 
  10198.044   1.75145e-17 
  10199.231    2.2662e-17 
  10200.418   1.77162e-17 
  10201.605   2.18426e-17 
  10202.792   1.64781e-17 
  10203.979   1.65913e-17 
  10205.166    8.6924e-18 
  10206.353   4.77007e-18 
   10207.54    1.8646e-17 
  10208.727   7.39847e-18 
  10209.914   2.97967e-17 
  10211.101   3.05193e-17 
  10212.288   2.69407e-17 
  10213.475   1.64863e-17 
  10214.662   6.69478e-18 
  10215.848   1.11679e-17 
  10217.035   2.30874e-17 
  10218.222   2.14682e-17 
  10219.409    1.7229e-17 
  10220.596    9.8648e-18 
  10221.783   1.52522e-17 
  10222.969   9.25776e-18 
  10224.156   2.19776e-17 
  10225.343   1.99485e-17 
   10226.53    3.2746e-17 
  10227.716   1.57943e-17 
  10228.903   1.66669e-17 
   10230.09   1.89228e-17 
  10231.277   2.40963e-17 
  10232.463   1.41053e-17 
   10233.65   2.29982e-17 
  10234.837   2.25043e-17 
  10236.023   1.30678e-17 
   10237.21   1.13134e-17 
  10238.396   1.12415e-17 
  10239.583   1.67484e-17 
   10240.77    2.2848e-17 
  10241.956   1.87931e-17 
  10243.143   1.68548e-17 
  10244.329   2.48047e-17 
  10245.516   1.44591e-17 
  10246.702   2.02392e-17 
  10247.889   2.17977e-17 
  10249.075   1.41297e-17 
  10250.262   2.24565e-17 
  10251.448   1.98619e-17 
  10252.635   1.57079e-17 
  10253.821    2.0713e-17 
  10255.008   1.50429e-17 
  10256.194   2.20383e-17 
  10257.381     1.768e-17 
  10258.567   3.00384e-17 
  10259.754   1.71655e-17 
   10260.94   1.43009e-17 
  10262.126    1.5525e-17 
  10263.313    1.7727e-17 
  10264.499   1.50652e-17 
  10265.685   7.38684e-18 
  10266.872    2.3804e-17 
  10268.058   1.76388e-17 
  10269.244   1.98777e-17 
  10270.431   3.37191e-17 
  10271.617    1.7338e-17 
  10272.803   1.70235e-17 
  10273.989   3.24298e-17 
  10275.176   2.94568e-17 
  10276.362   9.44822e-18 
  10277.548   1.65626e-17 
  10278.734     2.701e-17 
  10279.921   1.58593e-17 
  10281.107    1.5831e-17 
  10282.293   2.00467e-17 
  10283.479   1.07673e-17 
  10284.665   4.75793e-17 
  10285.851   1.03839e-18 
  10287.038  -6.67807e-18 
  10288.224   2.03952e-17 
   10289.41   6.10383e-18 
  10290.596  -1.85733e-17 
  10291.782    1.8978e-17 
  10292.968   1.82399e-17 
  10294.154   1.07886e-17 
   10295.34   6.18244e-18 
  10296.526   9.05172e-18 
  10297.712   3.00804e-17 
  10298.898   1.64363e-17 
  10300.084    1.6503e-17 
   10301.27   7.64189e-18 
  10302.456   1.78778e-17 
  10303.642  -1.92312e-18 
  10304.828   2.31983e-17 
  10306.014    4.3405e-17 
    10307.2   1.06279e-17 
