# STATUS =
# OBJECT = 2018don
# TELESCOPE = P200
# INSTRUMENT = SEDM
# DATE-OBS = 2018-06-09 00:00:00.000
# MJD = 58278.0
# EXPTIME =
# AIRMASS =
# SLIT =
# DISPERSER =
# SOURCE = DOI 10.3847/1538-4357/aca161
# FILTER =
# RESOLUTION =
# FLUX_STANDARD =
# EXTINCTION_CORRECTED =
# PHOTOMETRY_CALIBRATED =
# TELLURIC_CORRECTED =
# FLUX_UNITS =
# WAVE_UNITS =
# QUALITY =
# MIN_WAVE = 3800.0
# MAX_WAVE = 10000.65
# COMMENT =
 Wavelength        Flux 
   3801.525  4.3234e-17 
    3803.05  3.1008e-17 
   3804.575  3.8584e-17 
     3806.1  3.6691e-17 
   3807.625  4.6285e-17 
    3809.15  4.3498e-17 
   3810.675  4.5638e-17 
     3812.2  4.3867e-17 
   3813.725  4.5959e-17 
    3815.25  4.3817e-17 
   3816.775  4.7397e-17 
     3818.3  4.6333e-17 
   3819.825  5.2353e-17 
    3821.35  5.3383e-17 
   3822.875   4.216e-17 
     3824.4  4.5711e-17 
   3825.925  4.2829e-17 
    3827.45  4.0924e-17 
   3828.975  4.9703e-17 
     3830.5   4.914e-17 
   3832.025  4.9379e-17 
    3833.55  4.9225e-17 
   3835.075  4.3474e-17 
     3836.6  4.8532e-17 
   3838.125  4.7601e-17 
    3839.65  4.7111e-17 
   3841.175  4.3512e-17 
     3842.7  4.8839e-17 
   3844.225  3.5293e-17 
    3845.75  4.0154e-17 
   3847.275   4.933e-17 
     3848.8  5.7059e-17 
   3850.325  3.8492e-17 
    3851.85  4.8411e-17 
   3853.375  4.2027e-17 
     3854.9  4.1829e-17 
   3856.425  4.1883e-17 
    3857.95  4.7557e-17 
   3859.475  6.3501e-17 
     3861.0  5.5269e-17 
   3862.525  5.8049e-17 
    3864.05  4.5142e-17 
   3865.575  5.8625e-17 
     3867.1   6.268e-17 
   3868.625  5.0669e-17 
    3870.15  5.7227e-17 
   3871.675  5.0395e-17 
     3873.2  5.0058e-17 
   3874.725  4.6473e-17 
    3876.25  5.8081e-17 
   3877.775  5.8031e-17 
     3879.3  4.7325e-17 
   3880.825  4.3196e-17 
    3882.35  4.2572e-17 
   3883.875  5.5436e-17 
     3885.4  6.1305e-17 
   3886.925  5.3232e-17 
    3888.45  4.4394e-17 
   3889.975  5.3542e-17 
     3891.5  5.8519e-17 
   3893.025  5.0201e-17 
    3894.55  4.5506e-17 
   3896.075  5.9497e-17 
     3897.6  5.0991e-17 
   3899.125  5.1213e-17 
    3900.65  4.9328e-17 
   3902.175   5.761e-17 
     3903.7  5.5008e-17 
   3905.225  4.6068e-17 
    3906.75   4.561e-17 
   3908.275  4.8413e-17 
     3909.8  5.2535e-17 
   3911.325  6.0658e-17 
    3912.85  4.9658e-17 
   3914.375  6.3526e-17 
     3915.9  4.9274e-17 
   3917.425  4.3161e-17 
    3918.95  4.2881e-17 
   3920.475   4.641e-17 
     3922.0  4.7933e-17 
   3923.525  4.4302e-17 
    3925.05  4.6373e-17 
   3926.575  5.3871e-17 
     3928.1  4.5956e-17 
   3929.625  6.2813e-17 
    3931.15  4.6043e-17 
   3932.675  4.1096e-17 
     3934.2  5.3993e-17 
   3935.725  5.8798e-17 
    3937.25   6.014e-17 
   3938.775  4.9157e-17 
     3940.3  4.6208e-17 
   3941.825  5.1179e-17 
    3943.35  5.7098e-17 
   3944.875   7.116e-17 
     3946.4  6.0811e-17 
   3947.925  5.3168e-17 
    3949.45  4.8141e-17 
   3950.975   4.958e-17 
     3952.5  6.0735e-17 
   3954.025  5.8691e-17 
    3955.55  4.8267e-17 
   3957.075  5.7603e-17 
     3958.6  5.1982e-17 
   3960.125  4.8409e-17 
    3961.65  5.3605e-17 
   3963.175  5.1799e-17 
     3964.7  5.3849e-17 
   3966.225  5.6878e-17 
    3967.75  5.6491e-17 
   3969.275  5.5339e-17 
     3970.8  4.8699e-17 
   3972.325  4.7986e-17 
    3973.85  4.1658e-17 
   3975.375  5.5201e-17 
     3976.9  5.2479e-17 
   3978.425  4.5036e-17 
    3979.95  6.5744e-17 
   3981.475  4.8046e-17 
     3983.0  5.1072e-17 
   3984.525  5.2838e-17 
    3986.05  4.8466e-17 
   3987.575  4.8825e-17 
     3989.1  4.1074e-17 
   3990.625  4.6262e-17 
    3992.15   4.977e-17 
   3993.675  5.2599e-17 
     3995.2  5.1906e-17 
   3996.725   4.776e-17 
    3998.25   5.337e-17 
   3999.775   6.242e-17 
     4001.3  6.4902e-17 
   4002.825  6.2707e-17 
    4004.35  5.5057e-17 
   4005.875  4.9865e-17 
     4007.4  3.9909e-17 
   4008.925  3.8284e-17 
    4010.45  3.9513e-17 
   4011.975  4.5785e-17 
     4013.5  5.8059e-17 
   4015.025  5.4613e-17 
    4016.55  5.6636e-17 
   4018.075   5.285e-17 
     4019.6  5.3622e-17 
   4021.125  5.4808e-17 
    4022.65  5.2182e-17 
   4024.175  4.8342e-17 
     4025.7  4.9684e-17 
   4027.225  4.9795e-17 
    4028.75  5.5023e-17 
   4030.275  4.9843e-17 
     4031.8  5.0202e-17 
   4033.325  5.6029e-17 
    4034.85  5.3171e-17 
   4036.375  5.2483e-17 
     4037.9  5.7975e-17 
   4039.425  5.6888e-17 
    4040.95  5.0806e-17 
   4042.475  4.8426e-17 
     4044.0  5.8301e-17 
   4045.525  6.6768e-17 
    4047.05  6.9544e-17 
   4048.575  3.9688e-17 
     4050.1     3.3e-17 
   4051.625  4.8008e-17 
    4053.15  5.1593e-17 
   4054.675  6.2765e-17 
     4056.2  5.4118e-17 
   4057.725  5.0858e-17 
    4059.25   5.844e-17 
   4060.775  6.1632e-17 
     4062.3  4.6201e-17 
   4063.825  4.8977e-17 
    4065.35  4.7573e-17 
   4066.875  4.7993e-17 
     4068.4  5.3606e-17 
   4069.925  5.6489e-17 
    4071.45  5.5482e-17 
   4072.975  5.0307e-17 
     4074.5  4.2425e-17 
   4076.025  5.1663e-17 
    4077.55  5.4999e-17 
   4079.075  5.2002e-17 
     4080.6  5.3818e-17 
   4082.125  7.0418e-17 
    4083.65  6.5918e-17 
   4085.175  5.6169e-17 
     4086.7  5.8351e-17 
   4088.225  5.6007e-17 
    4089.75  6.2839e-17 
   4091.275  6.3863e-17 
     4092.8   6.041e-17 
   4094.325  5.1062e-17 
    4095.85  4.8052e-17 
   4097.375  6.3621e-17 
     4098.9  6.3763e-17 
   4100.425  5.9296e-17 
    4101.95  4.5501e-17 
   4103.475  5.3676e-17 
     4105.0  6.0918e-17 
   4106.525  5.1759e-17 
    4108.05  5.7781e-17 
   4109.575  6.1206e-17 
     4111.1  5.0952e-17 
   4112.625  4.1102e-17 
    4114.15  4.7689e-17 
   4115.675  5.2919e-17 
     4117.2  4.9565e-17 
   4118.725  5.1386e-17 
    4120.25  5.7386e-17 
   4121.775  6.0773e-17 
     4123.3  5.3591e-17 
   4124.825  5.2039e-17 
    4126.35  5.6376e-17 
   4127.875  5.2976e-17 
     4129.4  4.9736e-17 
   4130.925   5.754e-17 
    4132.45  6.5374e-17 
   4133.975  6.8112e-17 
     4135.5  6.0946e-17 
   4137.025   6.793e-17 
    4138.55   6.388e-17 
   4140.075   5.477e-17 
     4141.6  6.3589e-17 
   4143.125  6.9875e-17 
    4144.65  6.2538e-17 
   4146.175  6.4047e-17 
     4147.7  6.4898e-17 
   4149.225  6.4307e-17 
    4150.75  6.0451e-17 
   4152.275  6.2908e-17 
     4153.8  6.4378e-17 
   4155.325  6.6369e-17 
    4156.85  6.3175e-17 
   4158.375  5.8283e-17 
     4159.9  5.5686e-17 
   4161.425  5.8869e-17 
    4162.95  6.7759e-17 
   4164.475  6.8849e-17 
     4166.0  5.3523e-17 
   4167.525  5.5497e-17 
    4169.05  6.8038e-17 
   4170.575  6.9724e-17 
     4172.1  6.7426e-17 
   4173.625   6.103e-17 
    4175.15  6.2561e-17 
   4176.675  5.8436e-17 
     4178.2    6.33e-17 
   4179.725   6.113e-17 
    4181.25  6.1366e-17 
   4182.775  6.2156e-17 
     4184.3  5.5093e-17 
   4185.825  7.1246e-17 
    4187.35  7.0373e-17 
   4188.875  7.0985e-17 
     4190.4  7.3124e-17 
   4191.925  6.9784e-17 
    4193.45  7.3061e-17 
   4194.975  6.4319e-17 
     4196.5  8.4687e-17 
   4198.025  8.1798e-17 
    4199.55  6.9712e-17 
   4201.075  7.2602e-17 
     4202.6  6.9569e-17 
   4204.125  6.5364e-17 
    4205.65  6.4287e-17 
   4207.175  6.9776e-17 
     4208.7  7.0812e-17 
   4210.225  6.8415e-17 
    4211.75  7.3401e-17 
   4213.275  7.7412e-17 
     4214.8  7.6584e-17 
   4216.325  6.6076e-17 
    4217.85  6.6682e-17 
   4219.375  6.6857e-17 
     4220.9  6.7139e-17 
   4222.425  6.5956e-17 
    4223.95  5.6905e-17 
   4225.475  6.0094e-17 
     4227.0  6.8307e-17 
   4228.525  7.1219e-17 
    4230.05  7.7031e-17 
   4231.575    7.44e-17 
     4233.1   7.032e-17 
   4234.625  7.3507e-17 
    4236.15  7.9669e-17 
   4237.675  6.8581e-17 
     4239.2  7.8223e-17 
   4240.725  7.6126e-17 
    4242.25  7.2464e-17 
   4243.775   7.134e-17 
     4245.3  7.7682e-17 
   4246.825  8.1627e-17 
    4248.35  7.2829e-17 
   4249.875  6.4717e-17 
     4251.4  7.0867e-17 
   4252.925  6.5968e-17 
    4254.45  7.7138e-17 
   4255.975  6.7045e-17 
     4257.5   6.604e-17 
   4259.025  6.9119e-17 
    4260.55  6.2938e-17 
   4262.075  6.3483e-17 
     4263.6  6.6984e-17 
   4265.125  6.8511e-17 
    4266.65  6.6455e-17 
   4268.175  7.7316e-17 
     4269.7  7.5053e-17 
   4271.225  7.5256e-17 
    4272.75   6.645e-17 
   4274.275  6.1931e-17 
     4275.8  7.3413e-17 
   4277.325  7.5428e-17 
    4278.85  7.5522e-17 
   4280.375  8.2202e-17 
     4281.9  8.0817e-17 
   4283.425  6.6899e-17 
    4284.95  7.5639e-17 
   4286.475  7.9575e-17 
     4288.0  7.6782e-17 
   4289.525  7.8647e-17 
    4291.05   7.212e-17 
   4292.575  7.2767e-17 
     4294.1  7.7034e-17 
   4295.625  7.1718e-17 
    4297.15  7.1594e-17 
   4298.675  6.8765e-17 
     4300.2  7.0045e-17 
   4301.725  7.2883e-17 
    4303.25  7.9439e-17 
   4304.775  7.3068e-17 
     4306.3  6.9637e-17 
   4307.825  7.3227e-17 
    4309.35  7.3859e-17 
   4310.875  7.5916e-17 
     4312.4  7.1263e-17 
   4313.925  7.4241e-17 
    4315.45  6.9641e-17 
   4316.975  7.0174e-17 
     4318.5  7.1616e-17 
   4320.025  7.1934e-17 
    4321.55  7.3718e-17 
   4323.075  7.1848e-17 
     4324.6  7.2953e-17 
   4326.125   7.264e-17 
    4327.65  7.8158e-17 
   4329.175  7.3047e-17 
     4330.7  7.4813e-17 
   4332.225  7.0258e-17 
    4333.75  7.7256e-17 
   4335.275  7.0618e-17 
     4336.8  7.5348e-17 
   4338.325  7.2254e-17 
    4339.85  6.6511e-17 
   4341.375  6.4372e-17 
     4342.9  7.5263e-17 
   4344.425  8.1095e-17 
    4345.95  7.2576e-17 
   4347.475  7.1023e-17 
     4349.0  7.1608e-17 
   4350.525  7.6653e-17 
    4352.05  7.1699e-17 
   4353.575  6.0573e-17 
     4355.1  6.0351e-17 
   4356.625  1.1567e-16 
    4358.15  1.3064e-16 
   4359.675  8.4221e-17 
     4361.2  5.9598e-17 
   4362.725  6.5555e-17 
    4364.25  7.0438e-17 
   4365.775  7.4819e-17 
     4367.3  8.4362e-17 
   4368.825  7.9573e-17 
    4370.35  7.6114e-17 
   4371.875  7.9147e-17 
     4373.4  7.7077e-17 
   4374.925  6.6062e-17 
    4376.45  6.7324e-17 
   4377.975  7.3488e-17 
     4379.5  8.2918e-17 
   4381.025  7.0809e-17 
    4382.55  7.5584e-17 
   4384.075  7.5702e-17 
     4385.6  6.8989e-17 
   4387.125  7.6201e-17 
    4388.65   7.821e-17 
   4390.175  8.2913e-17 
     4391.7  8.2255e-17 
   4393.225  7.7185e-17 
    4394.75  8.4108e-17 
   4396.275  7.9574e-17 
     4397.8  7.5933e-17 
   4399.325  7.2205e-17 
    4400.85  8.0928e-17 
   4402.375  8.8107e-17 
     4403.9  8.3019e-17 
   4405.425   7.948e-17 
    4406.95  8.1441e-17 
   4408.475  8.8412e-17 
     4410.0  7.2641e-17 
   4411.525  5.2433e-17 
    4413.05  7.0592e-17 
   4414.575  7.6498e-17 
     4416.1  7.6505e-17 
   4417.625  8.0744e-17 
    4419.15  8.0965e-17 
   4420.675  7.9349e-17 
     4422.2  8.4025e-17 
   4423.725   7.353e-17 
    4425.25  6.9842e-17 
   4426.775  7.5134e-17 
     4428.3  7.5145e-17 
   4429.825  8.2669e-17 
    4431.35  8.5883e-17 
   4432.875  8.4278e-17 
     4434.4  7.5269e-17 
   4435.925  7.1385e-17 
    4437.45  8.0923e-17 
   4438.975  8.5014e-17 
     4440.5  7.6397e-17 
   4442.025  7.1866e-17 
    4443.55  7.9644e-17 
   4445.075  8.5419e-17 
     4446.6   8.344e-17 
   4448.125   8.344e-17 
    4449.65  7.6133e-17 
   4451.175  8.9157e-17 
     4452.7  8.6092e-17 
   4454.225  8.0068e-17 
    4455.75  8.4036e-17 
   4457.275  8.7489e-17 
     4458.8  9.1409e-17 
   4460.325  9.3669e-17 
    4461.85  7.8464e-17 
   4463.375  8.5341e-17 
     4464.9  9.4885e-17 
   4466.425  9.1246e-17 
    4467.95  8.3351e-17 
   4469.475   8.407e-17 
     4471.0  9.3423e-17 
   4472.525  9.1484e-17 
    4474.05  8.2517e-17 
   4475.575   8.675e-17 
     4477.1   9.691e-17 
   4478.625  8.1925e-17 
    4480.15  8.5888e-17 
   4481.675  8.2249e-17 
     4483.2  8.0705e-17 
   4484.725  8.8949e-17 
    4486.25  9.1876e-17 
   4487.775  8.3158e-17 
     4489.3  8.0857e-17 
   4490.825  7.9345e-17 
    4492.35  9.3276e-17 
   4493.875  9.5882e-17 
     4495.4  7.9441e-17 
   4496.925  8.0404e-17 
    4498.45  8.9046e-17 
   4499.975  8.8344e-17 
     4501.5  7.7023e-17 
   4503.025  7.6924e-17 
    4504.55  7.1573e-17 
   4506.075  7.9679e-17 
     4507.6  8.0532e-17 
   4509.125  8.0652e-17 
    4510.65   7.288e-17 
   4512.175  8.9163e-17 
     4513.7  8.1521e-17 
   4515.225  8.0297e-17 
    4516.75   8.729e-17 
   4518.275  8.5329e-17 
     4519.8  8.7815e-17 
   4521.325  8.6061e-17 
    4522.85  8.0539e-17 
   4524.375   8.168e-17 
     4525.9  9.3802e-17 
   4527.425  8.1996e-17 
    4528.95  7.2593e-17 
   4530.475  8.3402e-17 
     4532.0  7.9328e-17 
   4533.525  7.0897e-17 
    4535.05  7.7971e-17 
   4536.575  7.6102e-17 
     4538.1  7.9395e-17 
   4539.625  7.8792e-17 
    4541.15  7.9945e-17 
   4542.675   8.413e-17 
     4544.2  9.5004e-17 
   4545.725  1.0003e-16 
    4547.25  8.7068e-17 
   4548.775  7.0969e-17 
     4550.3  7.2183e-17 
   4551.825  7.4513e-17 
    4553.35  8.0244e-17 
   4554.875  7.7703e-17 
     4556.4   8.273e-17 
   4557.925  8.4315e-17 
    4559.45  8.5592e-17 
   4560.975  8.1905e-17 
     4562.5  7.3165e-17 
   4564.025  7.4649e-17 
    4565.55  9.0388e-17 
   4567.075  8.4607e-17 
     4568.6  8.4677e-17 
   4570.125  9.5534e-17 
    4571.65  7.2888e-17 
   4573.175  7.8068e-17 
     4574.7   8.334e-17 
   4576.225  8.1239e-17 
    4577.75  7.4156e-17 
   4579.275  8.0753e-17 
     4580.8  8.0891e-17 
   4582.325  7.4736e-17 
    4583.85  6.9697e-17 
   4585.375  8.2202e-17 
     4586.9  8.1491e-17 
   4588.425  7.2351e-17 
    4589.95  6.6862e-17 
   4591.475  8.3182e-17 
     4593.0    8.49e-17 
   4594.525  9.1398e-17 
    4596.05  8.4016e-17 
   4597.575  7.7914e-17 
     4599.1  7.9267e-17 
   4600.625  7.6807e-17 
    4602.15   7.233e-17 
   4603.675  6.6475e-17 
     4605.2  7.6723e-17 
   4606.725  7.1269e-17 
    4608.25  6.4035e-17 
   4609.775  6.4952e-17 
     4611.3   8.403e-17 
   4612.825  8.2725e-17 
    4614.35  7.4476e-17 
   4615.875  7.3177e-17 
     4617.4  6.6574e-17 
   4618.925  7.3804e-17 
    4620.45  6.4893e-17 
   4621.975  6.6543e-17 
     4623.5  7.4567e-17 
   4625.025   7.395e-17 
    4626.55  7.5776e-17 
   4628.075  7.6432e-17 
     4629.6  8.2006e-17 
   4631.125  7.9494e-17 
    4632.65  8.2197e-17 
   4634.175  8.4703e-17 
     4635.7  8.1201e-17 
   4637.225  8.0336e-17 
    4638.75  8.1343e-17 
   4640.275  7.5538e-17 
     4641.8  7.4713e-17 
   4643.325  7.5394e-17 
    4644.85  8.1785e-17 
   4646.375  6.6798e-17 
     4647.9  7.8099e-17 
   4649.425  8.5722e-17 
    4650.95  9.1751e-17 
   4652.475  8.2018e-17 
     4654.0   7.051e-17 
   4655.525  7.1958e-17 
    4657.05  8.1216e-17 
   4658.575  6.7087e-17 
     4660.1  7.6375e-17 
   4661.625  7.9301e-17 
    4663.15  7.6396e-17 
   4664.675  6.3271e-17 
     4666.2  6.9511e-17 
   4667.725  7.6014e-17 
    4669.25  7.6658e-17 
   4670.775  6.8511e-17 
     4672.3   6.568e-17 
   4673.825  8.1161e-17 
    4675.35  7.4213e-17 
   4676.875  6.8906e-17 
     4678.4  7.4184e-17 
   4679.925  8.0796e-17 
    4681.45   7.786e-17 
   4682.975  7.8168e-17 
     4684.5  7.5179e-17 
   4686.025  7.2733e-17 
    4687.55  6.8676e-17 
   4689.075  7.1178e-17 
     4690.6  7.8501e-17 
   4692.125  8.5182e-17 
    4693.65   8.164e-17 
   4695.175  7.8233e-17 
     4696.7  8.0138e-17 
   4698.225   7.182e-17 
    4699.75  7.7396e-17 
   4701.275  8.0431e-17 
     4702.8  7.7084e-17 
   4704.325  7.0314e-17 
    4705.85  6.7302e-17 
   4707.375  7.3054e-17 
     4708.9  7.5841e-17 
   4710.425  8.2026e-17 
    4711.95  8.6026e-17 
   4713.475  8.5042e-17 
     4715.0  8.7423e-17 
   4716.525  8.8101e-17 
    4718.05  8.5519e-17 
   4719.575  9.5669e-17 
     4721.1  8.1507e-17 
   4722.625  8.4422e-17 
    4724.15  8.4043e-17 
   4725.675  7.4113e-17 
     4727.2  8.0691e-17 
   4728.725  8.1699e-17 
    4730.25  7.8772e-17 
   4731.775  9.3567e-17 
     4733.3  8.0312e-17 
   4734.825  8.7851e-17 
    4736.35  9.0232e-17 
   4737.875  8.2717e-17 
     4739.4  8.5687e-17 
   4740.925  8.6597e-17 
    4742.45  8.8136e-17 
   4743.975  8.4544e-17 
     4745.5  8.0916e-17 
   4747.025  8.2133e-17 
    4748.55  9.0519e-17 
   4750.075  8.9181e-17 
     4751.6  7.5995e-17 
   4753.125  8.4391e-17 
    4754.65  9.0743e-17 
   4756.175  8.4872e-17 
     4757.7  8.8733e-17 
   4759.225  8.6477e-17 
    4760.75  8.7223e-17 
   4762.275  9.1907e-17 
     4763.8  9.4392e-17 
   4765.325    9.57e-17 
    4766.85  9.5312e-17 
   4768.375  9.0776e-17 
     4769.9   7.751e-17 
   4771.425  9.2018e-17 
    4772.95  1.0355e-16 
   4774.475  9.1628e-17 
     4776.0  9.8233e-17 
   4777.525  9.8644e-17 
    4779.05  8.7443e-17 
   4780.575  9.0446e-17 
     4782.1  9.1573e-17 
   4783.625  9.2421e-17 
    4785.15  8.4974e-17 
   4786.675  8.5624e-17 
     4788.2  8.3913e-17 
   4789.725  9.2237e-17 
    4791.25  9.0872e-17 
   4792.775  8.6673e-17 
     4794.3  8.9264e-17 
   4795.825  8.5759e-17 
    4797.35  9.8681e-17 
   4798.875  9.4096e-17 
     4800.4  1.0058e-16 
   4801.925  9.4223e-17 
    4803.45  9.4301e-17 
   4804.975   9.934e-17 
     4806.5  1.0775e-16 
   4808.025  9.2315e-17 
    4809.55  9.7616e-17 
   4811.075  9.4634e-17 
     4812.6  9.3627e-17 
   4814.125  9.1067e-17 
    4815.65  9.3824e-17 
   4817.175  1.0386e-16 
     4818.7  9.7388e-17 
   4820.225  1.0076e-16 
    4821.75  1.0246e-16 
   4823.275  9.7679e-17 
     4824.8  1.0173e-16 
   4826.325  9.7971e-17 
    4827.85  9.1079e-17 
   4829.375  9.9618e-17 
     4830.9  9.4395e-17 
   4832.425  9.1658e-17 
    4833.95  8.7023e-17 
   4835.475  9.8412e-17 
     4837.0  1.0509e-16 
   4838.525  1.1207e-16 
    4840.05  1.0271e-16 
   4841.575  9.8425e-17 
     4843.1  9.5749e-17 
   4844.625  9.7011e-17 
    4846.15  1.0303e-16 
   4847.675  1.0378e-16 
     4849.2  9.8507e-17 
   4850.725  9.9043e-17 
    4852.25  9.2916e-17 
   4853.775  1.0344e-16 
     4855.3  1.0049e-16 
   4856.825  9.3185e-17 
    4858.35  8.7136e-17 
   4859.875    9.47e-17 
     4861.4  9.9282e-17 
   4862.925  9.6136e-17 
    4864.45  1.0683e-16 
   4865.975  1.0089e-16 
     4867.5  9.3493e-17 
   4869.025  1.1203e-16 
    4870.55  1.1781e-16 
   4872.075  1.0538e-16 
     4873.6  1.0734e-16 
   4875.125  1.0813e-16 
    4876.65  9.8783e-17 
   4878.175  1.1462e-16 
     4879.7  1.1234e-16 
   4881.225  1.0117e-16 
    4882.75  1.0581e-16 
   4884.275  1.0557e-16 
     4885.8  1.0989e-16 
   4887.325   1.136e-16 
    4888.85  9.9033e-17 
   4890.375  1.0491e-16 
     4891.9  1.1108e-16 
   4893.425  1.0567e-16 
    4894.95   1.092e-16 
   4896.475  1.2848e-16 
     4898.0  1.1396e-16 
   4899.525   1.064e-16 
    4901.05  1.0802e-16 
   4902.575  1.1591e-16 
     4904.1    1.13e-16 
   4905.625  1.1574e-16 
    4907.15  1.1342e-16 
   4908.675  1.1511e-16 
     4910.2  1.2308e-16 
   4911.725  1.1502e-16 
    4913.25  1.1637e-16 
   4914.775  1.1235e-16 
     4916.3  1.1827e-16 
   4917.825  1.1149e-16 
    4919.35  9.8568e-17 
   4920.875  1.0331e-16 
     4922.4  1.1225e-16 
   4923.925  1.2175e-16 
    4925.45  1.2067e-16 
   4926.975  1.1641e-16 
     4928.5  1.0728e-16 
   4930.025  1.0491e-16 
    4931.55  1.0653e-16 
   4933.075   1.081e-16 
     4934.6  1.0725e-16 
   4936.125  1.0371e-16 
    4937.65  1.0599e-16 
   4939.175  1.0782e-16 
     4940.7  1.0566e-16 
   4942.225  1.0033e-16 
    4943.75  9.8654e-17 
   4945.275  1.1092e-16 
     4946.8  1.0571e-16 
   4948.325  9.9964e-17 
    4949.85  1.0298e-16 
   4951.375  1.1412e-16 
     4952.9  1.1254e-16 
   4954.425  1.0404e-16 
    4955.95  1.0445e-16 
   4957.475  1.0447e-16 
     4959.0  1.0009e-16 
   4960.525  1.0496e-16 
    4962.05  1.0278e-16 
   4963.575  1.0375e-16 
     4965.1  1.1311e-16 
   4966.625  1.0188e-16 
    4968.15  1.0991e-16 
   4969.675  1.0489e-16 
     4971.2  9.7119e-17 
   4972.725   1.113e-16 
    4974.25   1.041e-16 
   4975.775  1.0131e-16 
     4977.3  1.0284e-16 
   4978.825  1.0689e-16 
    4980.35   1.102e-16 
   4981.875   9.727e-17 
     4983.4  1.0131e-16 
   4984.925  9.4404e-17 
    4986.45  9.4927e-17 
   4987.975  1.0016e-16 
     4989.5   9.395e-17 
   4991.025  9.9332e-17 
    4992.55   1.012e-16 
   4994.075  9.7225e-17 
     4995.6   1.011e-16 
   4997.125  1.0019e-16 
    4998.65  9.4494e-17 
   5000.175  9.5619e-17 
     5001.7   9.611e-17 
   5003.225   1.016e-16 
    5004.75  1.0697e-16 
   5006.275  9.6619e-17 
     5007.8  9.4741e-17 
   5009.325  1.0673e-16 
    5010.85  1.0109e-16 
   5012.375  8.4232e-17 
     5013.9  8.0588e-17 
   5015.425  8.2838e-17 
    5016.95  9.8166e-17 
   5018.475  9.8015e-17 
     5020.0  8.8112e-17 
   5021.525   9.774e-17 
    5023.05  1.0517e-16 
   5024.575  9.9563e-17 
     5026.1  9.4281e-17 
   5027.625  9.9131e-17 
    5029.15  1.0381e-16 
   5030.675  9.7571e-17 
     5032.2  8.8396e-17 
   5033.725  1.0363e-16 
    5035.25  1.0029e-16 
   5036.775  9.3774e-17 
     5038.3  9.1698e-17 
   5039.825  8.5708e-17 
    5041.35  8.5353e-17 
   5042.875  9.0749e-17 
     5044.4  1.0547e-16 
   5045.925  9.8221e-17 
    5047.45  9.5851e-17 
   5048.975  9.7952e-17 
     5050.5  9.4609e-17 
   5052.025  9.7475e-17 
    5053.55  9.9179e-17 
   5055.075  9.6963e-17 
     5056.6  9.6099e-17 
   5058.125  8.5103e-17 
    5059.65  8.9727e-17 
   5061.175  9.4734e-17 
     5062.7  8.6924e-17 
   5064.225  9.2231e-17 
    5065.75  9.8412e-17 
   5067.275  1.0242e-16 
     5068.8  1.0007e-16 
   5070.325  8.5153e-17 
    5071.85  8.6324e-17 
   5073.375  9.5715e-17 
     5074.9  8.3371e-17 
   5076.425   1.001e-16 
    5077.95  9.0674e-17 
   5079.475  8.1031e-17 
     5081.0  8.4308e-17 
   5082.525  8.5336e-17 
    5084.05  8.2115e-17 
   5085.575  9.0912e-17 
     5087.1  8.9138e-17 
   5088.625  8.2235e-17 
    5090.15  8.8824e-17 
   5091.675  8.5326e-17 
     5093.2  8.6516e-17 
   5094.725  9.3057e-17 
    5096.25  8.3438e-17 
   5097.775  8.7734e-17 
     5099.3  1.0324e-16 
   5100.825  9.1324e-17 
    5102.35  8.1756e-17 
   5103.875  8.1793e-17 
     5105.4  9.1038e-17 
   5106.925  9.2391e-17 
    5108.45  9.1027e-17 
   5109.975  9.7437e-17 
     5111.5  8.9119e-17 
   5113.025  8.6391e-17 
    5114.55  8.6684e-17 
   5116.075  9.0883e-17 
     5117.6  9.3487e-17 
   5119.125  9.9054e-17 
    5120.65   9.256e-17 
   5122.175   8.582e-17 
     5123.7  9.2718e-17 
   5125.225  8.8723e-17 
    5126.75   9.006e-17 
   5128.275   9.283e-17 
     5129.8  9.7989e-17 
   5131.325  9.4383e-17 
    5132.85  8.4604e-17 
   5134.375  9.9739e-17 
     5135.9  9.2275e-17 
   5137.425  7.8316e-17 
    5138.95   8.249e-17 
   5140.475  9.1455e-17 
     5142.0  9.4893e-17 
   5143.525  9.0675e-17 
    5145.05    9.91e-17 
   5146.575  9.9573e-17 
     5148.1  9.9149e-17 
   5149.625  8.5117e-17 
    5151.15  9.2867e-17 
   5152.675   1.117e-16 
     5154.2  9.6648e-17 
   5155.725  9.1925e-17 
    5157.25  9.1535e-17 
   5158.775  9.1658e-17 
     5160.3  9.7765e-17 
   5161.825  9.5443e-17 
    5163.35  8.6949e-17 
   5164.875  8.0581e-17 
     5166.4  8.4138e-17 
   5167.925  8.3646e-17 
    5169.45  8.3774e-17 
   5170.975  8.4473e-17 
     5172.5  8.8534e-17 
   5174.025  1.0371e-16 
    5175.55  9.8054e-17 
   5177.075  9.5037e-17 
     5178.6  9.5404e-17 
   5180.125   8.836e-17 
    5181.65  9.3608e-17 
   5183.175  9.2832e-17 
     5184.7  9.0422e-17 
   5186.225  9.6738e-17 
    5187.75   8.912e-17 
   5189.275  9.2154e-17 
     5190.8  9.5453e-17 
   5192.325  9.0122e-17 
    5193.85  8.0106e-17 
   5195.375  8.8406e-17 
     5196.9   8.598e-17 
   5198.425  9.0293e-17 
    5199.95  8.9426e-17 
   5201.475  9.4206e-17 
     5203.0  9.2652e-17 
   5204.525   8.409e-17 
    5206.05  9.4912e-17 
   5207.575  1.0038e-16 
     5209.1  1.0027e-16 
   5210.625  8.7607e-17 
    5212.15  8.3973e-17 
   5213.675   8.844e-17 
     5215.2  7.4804e-17 
   5216.725  8.5669e-17 
    5218.25  9.2553e-17 
   5219.775  1.0068e-16 
     5221.3  9.3612e-17 
   5222.825  8.7282e-17 
    5224.35  9.2085e-17 
   5225.875  9.1686e-17 
     5227.4  9.1537e-17 
   5228.925  7.9285e-17 
    5230.45  8.8887e-17 
   5231.975  9.9442e-17 
     5233.5  9.8005e-17 
   5235.025  8.3729e-17 
    5236.55   8.742e-17 
   5238.075  9.6511e-17 
     5239.6  9.5124e-17 
   5241.125  9.2679e-17 
    5242.65  9.4735e-17 
   5244.175  9.9396e-17 
     5245.7   9.298e-17 
   5247.225  7.6324e-17 
    5248.75  8.5867e-17 
   5250.275  9.4192e-17 
     5251.8  1.0108e-16 
   5253.325  9.1545e-17 
    5254.85  9.8782e-17 
   5256.375   1.008e-16 
     5257.9  8.9211e-17 
   5259.425  8.5224e-17 
    5260.95  8.5119e-17 
   5262.475  9.2073e-17 
     5264.0  9.0105e-17 
   5265.525  8.9415e-17 
    5267.05  9.5607e-17 
   5268.575    9.45e-17 
     5270.1  9.7799e-17 
   5271.625  9.8826e-17 
    5273.15  9.0494e-17 
   5274.675  9.2675e-17 
     5276.2  9.0607e-17 
   5277.725  8.0233e-17 
    5279.25  8.5705e-17 
   5280.775  9.5068e-17 
     5282.3  8.3809e-17 
   5283.825  8.1381e-17 
    5285.35  8.3217e-17 
   5286.875  8.3653e-17 
     5288.4   9.944e-17 
   5289.925  8.8808e-17 
    5291.45  9.2824e-17 
   5292.975  9.9528e-17 
     5294.5  9.3336e-17 
   5296.025  8.8585e-17 
    5297.55  8.1334e-17 
   5299.075  9.0596e-17 
     5300.6  9.6468e-17 
   5302.125  8.6957e-17 
    5303.65  8.6561e-17 
   5305.175  9.8858e-17 
     5306.7  9.1559e-17 
   5308.225   8.451e-17 
    5309.75  9.0144e-17 
   5311.275   8.726e-17 
     5312.8  8.8334e-17 
   5314.325  1.0659e-16 
    5315.85  9.2661e-17 
   5317.375  8.2286e-17 
     5318.9  8.9951e-17 
   5320.425  9.0258e-17 
    5321.95   7.915e-17 
   5323.475  8.5903e-17 
     5325.0  9.3347e-17 
   5326.525  8.8801e-17 
    5328.05  9.7874e-17 
   5329.575  9.5579e-17 
     5331.1  9.0176e-17 
   5332.625  8.7709e-17 
    5334.15  9.6248e-17 
   5335.675   8.145e-17 
     5337.2   8.659e-17 
   5338.725  1.0044e-16 
    5340.25  9.2595e-17 
   5341.775  8.1874e-17 
     5343.3  8.7172e-17 
   5344.825   8.166e-17 
    5346.35  7.9246e-17 
   5347.875  8.6083e-17 
     5349.4  9.5126e-17 
   5350.925  8.2485e-17 
    5352.45  8.9187e-17 
   5353.975   9.847e-17 
     5355.5  1.0475e-16 
   5357.025  1.0608e-16 
    5358.55  1.1149e-16 
   5360.075   1.047e-16 
     5361.6  1.0515e-16 
   5363.125  9.2725e-17 
    5364.65  9.4145e-17 
   5366.175   9.296e-17 
     5367.7  9.9155e-17 
   5369.225  9.2307e-17 
    5370.75  8.4756e-17 
   5372.275  9.0138e-17 
     5373.8  1.0278e-16 
   5375.325  8.0841e-17 
    5376.85  9.2062e-17 
   5378.375  1.0323e-16 
     5379.9  8.8308e-17 
   5381.425  9.2436e-17 
    5382.95  9.6188e-17 
   5384.475  1.0653e-16 
     5386.0  9.3661e-17 
   5387.525   7.954e-17 
    5389.05  9.7524e-17 
   5390.575  9.7694e-17 
     5392.1  8.6595e-17 
   5393.625  9.9051e-17 
    5395.15  1.0404e-16 
   5396.675  9.9635e-17 
     5398.2  9.5314e-17 
   5399.725  8.8188e-17 
    5401.25  1.0682e-16 
   5402.775  9.7727e-17 
     5404.3  7.7549e-17 
   5405.825  1.0207e-16 
    5407.35  1.0486e-16 
   5408.875  9.7121e-17 
     5410.4   8.758e-17 
   5411.925  8.3078e-17 
    5413.45  1.1546e-16 
   5414.975  1.1138e-16 
     5416.5  9.5863e-17 
   5418.025  9.3297e-17 
    5419.55  9.1183e-17 
   5421.075  8.9805e-17 
     5422.6  1.0866e-16 
   5424.125  8.4363e-17 
    5425.65  8.3702e-17 
   5427.175  8.1567e-17 
     5428.7  9.5021e-17 
   5430.225  1.0164e-16 
    5431.75  9.9211e-17 
   5433.275  9.2984e-17 
     5434.8    1.03e-16 
   5436.325  9.3813e-17 
    5437.85  8.4407e-17 
   5439.375  8.3319e-17 
     5440.9  1.0301e-16 
   5442.425  1.0721e-16 
    5443.95  1.0256e-16 
   5445.475  9.9981e-17 
     5447.0  1.0553e-16 
   5448.525  1.0269e-16 
    5450.05  9.6737e-17 
   5451.575  9.0789e-17 
     5453.1  9.1426e-17 
   5454.625  1.0873e-16 
    5456.15  8.7068e-17 
   5457.675  1.0101e-16 
     5459.2  1.4531e-16 
   5460.725  1.1552e-16 
    5462.25  5.9872e-17 
   5463.775  8.5539e-17 
     5465.3  9.5837e-17 
   5466.825  1.0731e-16 
    5468.35  1.4191e-16 
   5469.875  1.1803e-16 
     5471.4  9.8638e-17 
   5472.925  8.8403e-17 
    5474.45  9.8911e-17 
   5475.975  1.1484e-16 
     5477.5  1.0028e-16 
   5479.025   9.883e-17 
    5480.55  1.1372e-16 
   5482.075  1.0239e-16 
     5483.6  1.1938e-16 
   5485.125  1.3015e-16 
    5486.65  1.2088e-16 
   5488.175  1.1059e-16 
     5489.7  1.0066e-16 
   5491.225  1.2293e-16 
    5492.75  1.2739e-16 
   5494.275  1.1112e-16 
     5495.8  1.1073e-16 
   5497.325    1.06e-16 
    5498.85  1.0662e-16 
   5500.375  9.7793e-17 
     5501.9    1.03e-16 
   5503.425  1.1165e-16 
    5504.95  1.0877e-16 
   5506.475  1.1761e-16 
     5508.0  9.5945e-17 
   5509.525  9.3753e-17 
    5511.05  1.1397e-16 
   5512.575  1.0453e-16 
     5514.1  1.1218e-16 
   5515.625  1.2091e-16 
    5517.15  1.0626e-16 
   5518.675  1.0477e-16 
     5520.2  1.0846e-16 
   5521.725  1.0404e-16 
    5523.25  1.0889e-16 
   5524.775  1.1442e-16 
     5526.3  1.1448e-16 
   5527.825  1.0886e-16 
    5529.35  1.0844e-16 
   5530.875  1.0972e-16 
     5532.4  1.2435e-16 
   5533.925  1.3096e-16 
    5535.45  1.1307e-16 
   5536.975   1.029e-16 
     5538.5  1.0061e-16 
   5540.025  1.0889e-16 
    5541.55  1.0429e-16 
   5543.075  1.0099e-16 
     5544.6  1.1437e-16 
   5546.125  1.1139e-16 
    5547.65  1.0232e-16 
   5549.175  1.0478e-16 
     5550.7  1.1166e-16 
   5552.225  1.1185e-16 
    5553.75  1.1212e-16 
   5555.275  1.1027e-16 
     5556.8  1.1847e-16 
   5558.325  1.2425e-16 
    5559.85  1.1707e-16 
   5561.375  1.1392e-16 
     5562.9  1.0946e-16 
   5564.425  9.6561e-17 
    5565.95  1.1048e-16 
   5567.475  1.1628e-16 
     5569.0   1.148e-16 
   5570.525  1.1655e-16 
    5572.05  1.0622e-16 
   5573.575  1.2459e-16 
     5575.1  1.4665e-16 
   5576.625  1.4604e-16 
    5578.15  1.4116e-16 
   5579.675  1.1532e-16 
     5581.2  1.0545e-16 
   5582.725  1.1554e-16 
    5584.25  1.1422e-16 
   5585.775  1.1726e-16 
     5587.3  1.1753e-16 
   5588.825  1.2113e-16 
    5590.35   1.312e-16 
   5591.875  1.2496e-16 
     5593.4  1.1456e-16 
   5594.925  1.1794e-16 
    5596.45   1.133e-16 
   5597.975  1.0971e-16 
     5599.5  1.1657e-16 
   5601.025  1.1043e-16 
    5602.55   1.101e-16 
   5604.075  1.1714e-16 
     5605.6  1.0988e-16 
   5607.125  1.1379e-16 
    5608.65  1.1513e-16 
   5610.175  9.9025e-17 
     5611.7  9.9826e-17 
   5613.225  1.2795e-16 
    5614.75  1.2415e-16 
   5616.275  1.0548e-16 
     5617.8  1.0873e-16 
   5619.325  1.0827e-16 
    5620.85  1.1555e-16 
   5622.375   1.154e-16 
     5623.9  1.2209e-16 
   5625.425  1.2921e-16 
    5626.95  1.1702e-16 
   5628.475  1.1132e-16 
     5630.0  1.1627e-16 
   5631.525  1.0929e-16 
    5633.05   1.131e-16 
   5634.575  1.1429e-16 
     5636.1  1.1156e-16 
   5637.625  1.0803e-16 
    5639.15  1.0171e-16 
   5640.675  1.0384e-16 
     5642.2  1.0982e-16 
   5643.725  1.2239e-16 
    5645.25  1.2675e-16 
   5646.775  1.2126e-16 
     5648.3  1.0836e-16 
   5649.825  9.9923e-17 
    5651.35   9.999e-17 
   5652.875  1.0378e-16 
     5654.4  1.0802e-16 
   5655.925  1.0087e-16 
    5657.45  1.0896e-16 
   5658.975   1.159e-16 
     5660.5  1.0474e-16 
   5662.025   1.055e-16 
    5663.55  1.1589e-16 
   5665.075   1.118e-16 
     5666.6  1.1222e-16 
   5668.125  1.1753e-16 
    5669.65  1.2552e-16 
   5671.175  1.1541e-16 
     5672.7  1.0834e-16 
   5674.225  1.1738e-16 
    5675.75  1.2139e-16 
   5677.275    1.07e-16 
     5678.8  9.7623e-17 
   5680.325  9.9593e-17 
    5681.85   9.965e-17 
   5683.375  1.0868e-16 
     5684.9  1.1977e-16 
   5686.425  1.2152e-16 
    5687.95  1.2513e-16 
   5689.475   1.224e-16 
     5691.0  1.1396e-16 
   5692.525  1.0683e-16 
    5694.05  1.1076e-16 
   5695.575  1.1067e-16 
     5697.1  1.0197e-16 
   5698.625  1.0257e-16 
    5700.15  1.0757e-16 
   5701.675  1.1114e-16 
     5703.2  1.0398e-16 
   5704.725  9.6647e-17 
    5706.25  1.0172e-16 
   5707.775  1.1236e-16 
     5709.3  1.1754e-16 
   5710.825  1.0876e-16 
    5712.35  9.7415e-17 
   5713.875  9.6979e-17 
     5715.4  1.0582e-16 
   5716.925  1.0926e-16 
    5718.45  1.0397e-16 
   5719.975  9.9053e-17 
     5721.5  1.0544e-16 
   5723.025  1.0888e-16 
    5724.55  1.0791e-16 
   5726.075  1.0646e-16 
     5727.6  1.0252e-16 
   5729.125  1.0147e-16 
    5730.65  1.0244e-16 
   5732.175   9.448e-17 
     5733.7   8.865e-17 
   5735.225  1.0001e-16 
    5736.75  1.0723e-16 
   5738.275  1.0545e-16 
     5739.8  1.0499e-16 
   5741.325   1.086e-16 
    5742.85  1.0866e-16 
   5744.375  1.0428e-16 
     5745.9  1.0094e-16 
   5747.425  1.0183e-16 
    5748.95  1.0264e-16 
   5750.475  1.0083e-16 
     5752.0   1.059e-16 
   5753.525  1.0549e-16 
    5755.05  1.0234e-16 
   5756.575  9.8476e-17 
     5758.1  9.0166e-17 
   5759.625  8.7114e-17 
    5761.15  9.9461e-17 
   5762.675  1.0299e-16 
     5764.2  9.0971e-17 
   5765.725  8.9838e-17 
    5767.25  9.0188e-17 
   5768.775  9.6117e-17 
     5770.3  1.0319e-16 
   5771.825  9.9499e-17 
    5773.35  1.0055e-16 
   5774.875  1.0583e-16 
     5776.4  1.0391e-16 
   5777.925  9.4502e-17 
    5779.45  1.0224e-16 
   5780.975  1.1727e-16 
     5782.5  1.0696e-16 
   5784.025  9.8125e-17 
    5785.55  9.9366e-17 
   5787.075  9.7282e-17 
     5788.6  9.9716e-17 
   5790.125  1.0535e-16 
    5791.65   1.082e-16 
   5793.175  1.0168e-16 
     5794.7  1.0358e-16 
   5796.225  1.0432e-16 
    5797.75  9.7651e-17 
   5799.275  9.7831e-17 
     5800.8  9.2851e-17 
   5802.325  9.6979e-17 
    5803.85  1.0798e-16 
   5805.375  1.0639e-16 
     5806.9  1.0038e-16 
   5808.425  1.0134e-16 
    5809.95  9.7651e-17 
   5811.475  9.1616e-17 
     5813.0  9.8788e-17 
   5814.525  1.0345e-16 
    5816.05  1.0118e-16 
   5817.575  1.0285e-16 
     5819.1  1.0357e-16 
   5820.625  9.8627e-17 
    5822.15  9.8637e-17 
   5823.675  9.9735e-17 
     5825.2  1.0709e-16 
   5826.725   1.077e-16 
    5828.25  9.5331e-17 
   5829.775  9.2534e-17 
     5831.3   9.768e-17 
   5832.825    9.93e-17 
    5834.35  1.0118e-16 
   5835.875  1.0059e-16 
     5837.4  1.0085e-16 
   5838.925  1.0462e-16 
    5840.45  1.0783e-16 
   5841.975  1.0476e-16 
     5843.5  1.0263e-16 
   5845.025  1.0603e-16 
    5846.55  1.0323e-16 
   5848.075  9.5425e-17 
     5849.6  9.8722e-17 
   5851.125   9.803e-17 
    5852.65  9.3837e-17 
   5854.175  9.4791e-17 
     5855.7   9.786e-17 
   5857.225   9.534e-17 
    5858.75   8.946e-17 
   5860.275  9.9859e-17 
     5861.8  9.6505e-17 
   5863.325   8.739e-17 
    5864.85  9.7102e-17 
   5866.375  1.0494e-16 
     5867.9    1.01e-16 
   5869.425  1.0309e-16 
    5870.95  9.4491e-17 
   5872.475  9.0648e-17 
     5874.0  9.2946e-17 
   5875.525  9.8618e-17 
    5877.05   1.046e-16 
   5878.575   9.948e-17 
     5880.1  9.6827e-17 
   5881.625  9.2698e-17 
    5883.15  9.1356e-17 
   5884.675  9.7291e-17 
     5886.2  1.1285e-16 
   5887.725  1.2428e-16 
    5889.25   1.159e-16 
   5890.775  1.1012e-16 
     5892.3  1.1431e-16 
   5893.825  1.0707e-16 
    5895.35  1.1975e-16 
   5896.875  1.3216e-16 
     5898.4  1.0674e-16 
   5899.925  9.3361e-17 
    5901.45  9.0461e-17 
   5902.975  9.1975e-17 
     5904.5   8.999e-17 
   5906.025   9.767e-17 
    5907.55  9.3987e-17 
   5909.075  8.6761e-17 
     5910.6  9.1468e-17 
   5912.125    1.02e-16 
    5913.65  1.0179e-16 
   5915.175  9.7471e-17 
     5916.7  9.4581e-17 
   5918.225  9.6932e-17 
    5919.75  9.6079e-17 
   5921.275  9.6325e-17 
     5922.8   1.038e-16 
   5924.325  1.0493e-16 
    5925.85  1.0432e-16 
   5927.375  1.0622e-16 
     5928.9  1.0984e-16 
   5930.425  9.8011e-17 
    5931.95  8.2753e-17 
   5933.475  8.4578e-17 
     5935.0  8.7348e-17 
   5936.525  9.7405e-17 
    5938.05  1.0286e-16 
   5939.575  9.3657e-17 
     5941.1  9.3026e-17 
   5942.625  9.3921e-17 
    5944.15  9.2601e-17 
   5945.675  8.9624e-17 
     5947.2  9.2757e-17 
   5948.725  9.3799e-17 
    5950.25  9.2716e-17 
   5951.775  9.4083e-17 
     5953.3  9.1633e-17 
   5954.825  9.1685e-17 
    5956.35  9.8902e-17 
   5957.875  9.9574e-17 
     5959.4  9.5605e-17 
   5960.925  8.9828e-17 
    5962.45  8.5835e-17 
   5963.975  9.0474e-17 
     5965.5  9.5899e-17 
   5967.025  9.6212e-17 
    5968.55  8.8524e-17 
   5970.075  9.3558e-17 
     5971.6  9.6998e-17 
   5973.125  8.9706e-17 
    5974.65  9.5094e-17 
   5976.175  1.0341e-16 
     5977.7  1.0419e-16 
   5979.225  9.7036e-17 
    5980.75  8.7294e-17 
   5982.275  9.1564e-17 
     5983.8  9.9697e-17 
   5985.325  9.5804e-17 
    5986.85  9.4361e-17 
   5988.375   9.463e-17 
     5989.9  9.8997e-17 
   5991.425  9.7974e-17 
    5992.95  1.0456e-16 
   5994.475  9.7699e-17 
     5996.0  8.4481e-17 
   5997.525  9.4023e-17 
    5999.05  1.0053e-16 
   6000.575  9.4189e-17 
     6002.1  9.0364e-17 
   6003.625  9.2578e-17 
    6005.15   9.589e-17 
   6006.675  9.9565e-17 
     6008.2  1.0028e-16 
   6009.725  1.0672e-16 
    6011.25  1.1379e-16 
   6012.775  1.0649e-16 
     6014.3  1.0498e-16 
   6015.825  1.0567e-16 
    6017.35  1.0596e-16 
   6018.875  1.0114e-16 
     6020.4  9.1144e-17 
   6021.925  8.7337e-17 
    6023.45  9.4441e-17 
   6024.975   1.068e-16 
     6026.5  1.0787e-16 
   6028.025  1.1146e-16 
    6029.55  1.0484e-16 
   6031.075  9.1433e-17 
     6032.6  8.5745e-17 
   6034.125   9.749e-17 
    6035.65  9.8352e-17 
   6037.175  1.0247e-16 
     6038.7  1.0617e-16 
   6040.225  1.0275e-16 
    6041.75  1.0486e-16 
   6043.275  1.1608e-16 
     6044.8  1.1264e-16 
   6046.325  9.5596e-17 
    6047.85  9.4447e-17 
   6049.375  1.0418e-16 
     6050.9    1.08e-16 
   6052.425  1.0967e-16 
    6053.95  1.1056e-16 
   6055.475  1.0556e-16 
     6057.0  1.0532e-16 
   6058.525  1.0392e-16 
    6060.05   9.732e-17 
   6061.575  9.5331e-17 
     6063.1   9.552e-17 
   6064.625  9.6733e-17 
    6066.15  9.8921e-17 
   6067.675   1.068e-16 
     6069.2  1.0507e-16 
   6070.725  1.0011e-16 
    6072.25  1.0344e-16 
   6073.775  9.9006e-17 
     6075.3  9.3491e-17 
   6076.825  9.5359e-17 
    6078.35  9.5331e-17 
   6079.875  8.5662e-17 
     6081.4  8.9204e-17 
   6082.925  8.9672e-17 
    6084.45  9.1022e-17 
   6085.975  9.5198e-17 
     6087.5  9.5747e-17 
   6089.025  9.6505e-17 
    6090.55  9.2415e-17 
   6092.075  9.4182e-17 
     6093.6  1.0313e-16 
   6095.125  1.0319e-16 
    6096.65  9.6922e-17 
   6098.175  9.8116e-17 
     6099.7  1.0144e-16 
   6101.225  9.9953e-17 
    6102.75  9.8324e-17 
   6104.275  9.9963e-17 
     6105.8  9.7026e-17 
   6107.325  9.9773e-17 
    6108.85  1.0082e-16 
   6110.375  9.7045e-17 
     6111.9  1.0154e-16 
   6113.425  1.0356e-16 
    6114.95  9.2774e-17 
   6116.475    8.74e-17 
     6118.0  8.7496e-17 
   6119.525  9.7254e-17 
    6121.05  1.0399e-16 
   6122.575  9.1216e-17 
     6124.1  8.5899e-17 
   6125.625  9.2139e-17 
    6127.15  9.5283e-17 
   6128.675  9.5283e-17 
     6130.2   9.624e-17 
   6131.725  8.8137e-17 
    6133.25  8.8113e-17 
   6134.775  9.5132e-17 
     6136.3  9.6117e-17 
   6137.825  9.1952e-17 
    6139.35   9.714e-17 
   6140.875  9.9281e-17 
     6142.4  1.0273e-16 
   6143.925  1.0304e-16 
    6145.45  9.8741e-17 
   6146.975  9.9821e-17 
     6148.5  1.0216e-16 
   6150.025  9.7888e-17 
    6151.55  8.9203e-17 
   6153.075  9.0587e-17 
     6154.6  9.2767e-17 
   6156.125  9.2471e-17 
    6157.65  9.8381e-17 
   6159.175   9.695e-17 
     6160.7  8.9486e-17 
   6162.225  9.3459e-17 
    6163.75  1.0111e-16 
   6165.275  1.0148e-16 
     6166.8  9.5804e-17 
   6168.325   9.097e-17 
    6169.85  9.4961e-17 
   6171.375  9.6505e-17 
     6172.9  9.7348e-17 
   6174.425  8.9166e-17 
    6175.95  8.9435e-17 
   6177.475   9.732e-17 
     6179.0  9.7197e-17 
   6180.525  9.3245e-17 
    6182.05  9.2203e-17 
   6183.575  9.6268e-17 
     6185.1  9.5047e-17 
   6186.625   8.407e-17 
    6188.15  8.1241e-17 
   6189.675  8.9426e-17 
     6191.2  9.1967e-17 
   6192.725  9.2204e-17 
    6194.25  9.9385e-17 
   6195.775  1.0477e-16 
     6197.3  1.0531e-16 
   6198.825  1.0093e-16 
    6200.35  9.1325e-17 
   6201.875  9.4257e-17 
     6203.4  9.8845e-17 
   6204.925  1.0229e-16 
    6206.45  1.1054e-16 
   6207.975  1.0629e-16 
     6209.5  9.6515e-17 
   6211.025  9.5388e-17 
    6212.55  9.4553e-17 
   6214.075  9.2883e-17 
     6215.6  9.6685e-17 
   6217.125  1.0412e-16 
    6218.65  1.0944e-16 
   6220.175  1.0818e-16 
     6221.7  1.0872e-16 
   6223.225  1.0455e-16 
    6224.75  1.0201e-16 
   6226.275  9.6496e-17 
     6227.8   9.516e-17 
   6229.325   9.589e-17 
    6230.85  9.5028e-17 
   6232.375  9.5264e-17 
     6233.9  9.9413e-17 
   6235.425  1.0247e-16 
    6236.95  9.9262e-17 
   6238.475  9.8116e-17 
     6240.0  9.8362e-17 
   6241.525  9.9536e-17 
    6243.05  1.0607e-16 
   6244.575  1.0242e-16 
     6246.1   1.019e-16 
   6247.625   1.028e-16 
    6249.15  1.0194e-16 
   6250.675  1.0047e-16 
     6252.2  9.2648e-17 
   6253.725  9.4607e-17 
    6255.25  1.0423e-16 
   6256.775  1.1032e-16 
     6258.3  1.0684e-16 
   6259.825  1.0635e-16 
    6261.35  1.1324e-16 
   6262.875  1.1105e-16 
     6264.4  1.1128e-16 
   6265.925  1.0746e-16 
    6267.45  1.0277e-16 
   6268.975  1.0179e-16 
     6270.5  1.0401e-16 
   6272.025  1.0486e-16 
    6273.55  1.0407e-16 
   6275.075   1.068e-16 
     6276.6  1.0617e-16 
   6278.125  9.7822e-17 
    6279.65  9.8362e-17 
   6281.175  9.6562e-17 
     6282.7  9.7803e-17 
   6284.225  1.0028e-16 
    6285.75  9.5738e-17 
   6287.275  9.6458e-17 
     6288.8  1.0071e-16 
   6290.325  1.0009e-16 
    6291.85   9.749e-17 
   6293.375  9.9821e-17 
     6294.9  1.0951e-16 
   6296.425  1.1382e-16 
    6297.95  1.1104e-16 
   6299.475  1.0379e-16 
     6301.0  1.0578e-16 
   6302.525  1.0855e-16 
    6304.05   1.091e-16 
   6305.575  1.0344e-16 
     6307.1  9.8191e-17 
   6308.625  9.7746e-17 
    6310.15  1.0646e-16 
   6311.675  1.0282e-16 
     6313.2  1.0177e-16 
   6314.725  1.0228e-16 
    6316.25  9.6941e-17 
   6317.775  9.6572e-17 
     6319.3  9.5028e-17 
   6320.825  9.6259e-17 
    6322.35  1.0167e-16 
   6323.875  9.6752e-17 
     6325.4  9.6136e-17 
   6326.925  9.9262e-17 
    6328.45   1.018e-16 
   6329.975  1.0351e-16 
     6331.5  1.0106e-16 
   6333.025  9.8447e-17 
    6334.55  9.9139e-17 
   6336.075  1.0419e-16 
     6337.6  1.0874e-16 
   6339.125  1.0309e-16 
    6340.65  1.0298e-16 
   6342.175  1.0765e-16 
     6343.7  1.1118e-16 
   6345.225  1.0899e-16 
    6346.75  1.0359e-16 
   6348.275  1.0349e-16 
     6349.8  1.0296e-16 
   6351.325  1.0487e-16 
    6352.85  1.0646e-16 
   6354.375  9.9347e-17 
     6355.9  1.0028e-16 
   6357.425   1.048e-16 
    6358.95  1.0258e-16 
   6360.475  1.0227e-16 
     6362.0  1.0317e-16 
   6363.525  1.0349e-16 
    6365.05  1.0437e-16 
   6366.575  1.0123e-16 
     6368.1  9.5226e-17 
   6369.625  9.9508e-17 
    6371.15  1.0164e-16 
   6372.675  9.8949e-17 
     6374.2  1.0498e-16 
   6375.725  1.1253e-16 
    6377.25  1.0184e-16 
   6378.775  1.0168e-16 
     6380.3  1.1179e-16 
   6381.825  1.1332e-16 
    6383.35  1.0282e-16 
   6384.875  9.6088e-17 
     6386.4   1.002e-16 
   6387.925  1.0268e-16 
    6389.45  1.1074e-16 
   6390.975  1.0961e-16 
     6392.5   9.839e-17 
   6394.025  1.0305e-16 
    6395.55  1.1037e-16 
   6397.075  1.0527e-16 
     6398.6  1.0235e-16 
   6400.125  1.0485e-16 
    6401.65  1.0596e-16 
   6403.175  1.0858e-16 
     6404.7  1.1283e-16 
   6406.225  1.0599e-16 
    6407.75   9.947e-17 
   6409.275  1.0589e-16 
     6410.8   1.101e-16 
   6412.325  9.7879e-17 
    6413.85  9.6685e-17 
   6415.375  1.0324e-16 
     6416.9  1.0207e-16 
   6418.425  9.8097e-17 
    6419.95  9.7888e-17 
   6421.475  1.0254e-16 
     6423.0  1.0275e-16 
   6424.525  9.6098e-17 
    6426.05  9.9205e-17 
   6427.575  1.0868e-16 
     6429.1  1.0944e-16 
   6430.625  1.0191e-16 
    6432.15  9.3812e-17 
   6433.675  9.4829e-17 
     6435.2  1.0207e-16 
   6436.725    1.03e-16 
    6438.25  9.8116e-17 
   6439.775  9.7831e-17 
     6441.3  9.9101e-17 
   6442.825  9.8599e-17 
    6444.35  9.5823e-17 
   6445.875  9.7026e-17 
     6447.4    1.02e-16 
   6448.925   1.015e-16 
    6450.45  1.0043e-16 
   6451.975  1.0494e-16 
     6453.5  1.0379e-16 
   6455.025  9.5634e-17 
    6456.55  9.8722e-17 
   6458.075  1.0187e-16 
     6459.6  1.0162e-16 
   6461.125  1.0375e-16 
    6462.65   9.912e-17 
   6464.175  1.0055e-16 
     6465.7  1.0562e-16 
   6467.225  1.0244e-16 
    6468.75  9.8182e-17 
   6470.275  9.9394e-17 
     6471.8  1.0495e-16 
   6473.325  1.0916e-16 
    6474.85  1.0609e-16 
   6476.375  1.0594e-16 
     6477.9  1.0796e-16 
   6479.425  1.0342e-16 
    6480.95   9.749e-17 
   6482.475  9.2726e-17 
     6484.0  9.1159e-17 
   6485.525  9.3411e-17 
    6487.05  9.8248e-17 
   6488.575  9.9565e-17 
     6490.1  1.0103e-16 
   6491.625  1.0204e-16 
    6493.15  9.9233e-17 
   6494.675  9.7064e-17 
     6496.2   9.857e-17 
   6497.725  9.8201e-17 
    6499.25  1.0138e-16 
   6500.775  1.0092e-16 
     6502.3  9.1843e-17 
   6503.825  8.9232e-17 
    6505.35  9.4538e-17 
   6506.875    9.48e-17 
     6508.4  9.5122e-17 
   6509.925  1.0207e-16 
    6511.45  9.8485e-17 
   6512.975  9.2456e-17 
     6514.5  9.8078e-17 
   6516.025  1.0181e-16 
    6517.55   9.786e-17 
   6519.075  9.8883e-17 
     6520.6  9.7396e-17 
   6522.125  9.7794e-17 
    6523.65  9.3999e-17 
   6525.175  8.8544e-17 
     6526.7  9.4187e-17 
   6528.225  1.0559e-16 
    6529.75  1.0807e-16 
   6531.275  1.0307e-16 
     6532.8   9.387e-17 
   6534.325  8.9471e-17 
    6535.85  9.0009e-17 
   6537.375  9.2548e-17 
     6538.9   9.804e-17 
   6540.425   9.911e-17 
    6541.95  1.0144e-16 
   6543.475  1.0418e-16 
     6545.0  1.0023e-16 
   6546.525  9.3306e-17 
    6548.05   8.807e-17 
   6549.575  9.5672e-17 
     6551.1  1.0223e-16 
   6552.625  1.0608e-16 
    6554.15   1.099e-16 
   6555.675  1.1103e-16 
     6557.2  1.1286e-16 
   6558.725  1.1262e-16 
    6560.25  1.1217e-16 
   6561.775  1.1689e-16 
     6563.3  1.1454e-16 
   6564.825  1.0893e-16 
    6566.35  1.0679e-16 
   6567.875   1.054e-16 
     6569.4  1.0042e-16 
   6570.925  9.5975e-17 
    6572.45  9.7282e-17 
   6573.975   1.008e-16 
     6575.5   9.875e-17 
   6577.025  1.0274e-16 
    6578.55  9.9726e-17 
   6580.075  9.7168e-17 
     6581.6  1.0144e-16 
   6583.125  9.5245e-17 
    6584.65  9.1161e-17 
   6586.175  9.0206e-17 
     6587.7  9.3163e-17 
   6589.225  9.0599e-17 
    6590.75  8.7881e-17 
   6592.275  9.2326e-17 
     6593.8  9.8883e-17 
   6595.325  9.9195e-17 
    6596.85  9.2578e-17 
   6598.375   9.255e-17 
     6599.9  9.0442e-17 
   6601.425  9.1099e-17 
    6602.95  9.1994e-17 
   6604.475  8.9036e-17 
     6606.0  8.6281e-17 
   6607.525  8.6182e-17 
    6609.05  8.8045e-17 
   6610.575  8.4887e-17 
     6612.1  8.5505e-17 
   6613.625  8.5884e-17 
    6615.15  8.7525e-17 
   6616.675  8.8854e-17 
     6618.2  8.0119e-17 
   6619.725  8.0947e-17 
    6621.25  8.7751e-17 
   6622.775  8.5239e-17 
     6624.3    8.36e-17 
   6625.825  8.7781e-17 
    6627.35  9.0272e-17 
   6628.875  8.7112e-17 
     6630.4  8.6528e-17 
   6631.925  8.7245e-17 
    6633.45  8.4866e-17 
   6634.975  8.4141e-17 
     6636.5  8.3353e-17 
   6638.025  8.2025e-17 
    6639.55  8.2931e-17 
   6641.075  8.4312e-17 
     6642.6  8.3323e-17 
   6644.125  8.3663e-17 
    6645.65  9.3196e-17 
   6647.175   9.607e-17 
     6648.7  9.2167e-17 
   6650.225  9.0665e-17 
    6651.75  8.9727e-17 
   6653.275  9.1924e-17 
     6654.8  8.7883e-17 
   6656.325  8.1621e-17 
    6657.85  8.7039e-17 
   6659.375  8.7507e-17 
     6660.9  8.4775e-17 
   6662.425  8.5661e-17 
    6663.95   8.904e-17 
   6665.475  8.8631e-17 
     6667.0  8.8379e-17 
   6668.525  8.6193e-17 
    6670.05  8.2476e-17 
   6671.575   8.344e-17 
     6673.1    8.51e-17 
   6674.625  8.3788e-17 
    6676.15  8.8785e-17 
   6677.675   8.216e-17 
     6679.2  7.9023e-17 
   6680.725  8.0142e-17 
    6682.25  8.4299e-17 
   6683.775  8.8429e-17 
     6685.3  8.6281e-17 
   6686.825  8.9299e-17 
    6688.35  8.5465e-17 
   6689.875  9.0454e-17 
     6691.4  1.0275e-16 
   6692.925  1.0224e-16 
    6694.45  8.9285e-17 
   6695.975  8.7443e-17 
     6697.5  9.0103e-17 
   6699.025  9.1823e-17 
    6700.55  9.8182e-17 
   6702.075  9.6903e-17 
     6703.6  9.0808e-17 
   6705.125  9.2963e-17 
    6706.65  9.6591e-17 
   6708.175  9.9139e-17 
     6709.7  9.7462e-17 
   6711.225  9.4421e-17 
    6712.75   9.714e-17 
   6714.275  9.7291e-17 
     6715.8  9.3211e-17 
   6717.325  1.0058e-16 
    6718.85  1.0558e-16 
   6720.375  1.0173e-16 
     6721.9  9.8987e-17 
   6723.425  9.7614e-17 
    6724.95  1.0063e-16 
   6726.475  9.9177e-17 
     6728.0  9.5056e-17 
   6729.525  9.8021e-17 
    6731.05  1.0069e-16 
   6732.575  9.8997e-17 
     6734.1  1.0117e-16 
   6735.625  1.0427e-16 
    6737.15  1.0414e-16 
   6738.675  1.0507e-16 
     6740.2  1.0287e-16 
   6741.725   1.016e-16 
    6743.25  1.0018e-16 
   6744.775   1.072e-16 
     6746.3  1.1222e-16 
   6747.825  1.0377e-16 
    6749.35  1.0261e-16 
   6750.875   1.078e-16 
     6752.4  1.0454e-16 
   6753.925  1.0477e-16 
    6755.45   1.076e-16 
   6756.975  1.0874e-16 
     6758.5  1.1312e-16 
   6760.025  1.1361e-16 
    6761.55  1.0569e-16 
   6763.075  1.0201e-16 
     6764.6  1.0475e-16 
   6766.125  1.0933e-16 
    6767.65  1.1227e-16 
   6769.175  1.1493e-16 
     6770.7  1.1741e-16 
   6772.225  1.1241e-16 
    6773.75  1.0957e-16 
   6775.275  1.0998e-16 
     6776.8  1.0883e-16 
   6778.325  1.1267e-16 
    6779.85  1.1178e-16 
   6781.375  1.0567e-16 
     6782.9  1.0619e-16 
   6784.425  1.1195e-16 
    6785.95  1.1448e-16 
   6787.475  1.1006e-16 
     6789.0  1.0852e-16 
   6790.525  1.1113e-16 
    6792.05   1.123e-16 
   6793.575  1.1029e-16 
     6795.1  1.0849e-16 
   6796.625  1.1349e-16 
    6798.15   1.177e-16 
   6799.675  1.1086e-16 
     6801.2    1.05e-16 
   6802.725  1.0839e-16 
    6804.25   1.165e-16 
   6805.775  1.2497e-16 
     6807.3  1.2416e-16 
   6808.825  1.1885e-16 
    6810.35  1.1875e-16 
   6811.875  1.2021e-16 
     6813.4  1.1403e-16 
   6814.925  1.0907e-16 
    6816.45  1.0938e-16 
   6817.975    1.12e-16 
     6819.5  1.1454e-16 
   6821.025  1.1373e-16 
    6822.55  1.1026e-16 
   6824.075  1.1217e-16 
     6825.6  1.1731e-16 
   6827.125  1.1999e-16 
    6828.65  1.1852e-16 
   6830.175  1.1798e-16 
     6831.7  1.1532e-16 
   6833.225  1.1267e-16 
    6834.75  1.1413e-16 
   6836.275  1.1578e-16 
     6837.8  1.1929e-16 
   6839.325  1.1721e-16 
    6840.85  1.2094e-16 
   6842.375  1.2184e-16 
     6843.9  1.1456e-16 
   6845.425  1.1699e-16 
    6846.95  1.2284e-16 
   6848.475  1.1957e-16 
     6850.0  1.1446e-16 
   6851.525   1.173e-16 
    6853.05  1.2001e-16 
   6854.575  1.1307e-16 
     6856.1  1.0785e-16 
   6857.625  1.1519e-16 
    6859.15  1.2177e-16 
   6860.675  1.2127e-16 
     6862.2  1.2347e-16 
   6863.725  1.2044e-16 
    6865.25    1.21e-16 
   6866.775  1.2451e-16 
     6868.3  1.2305e-16 
   6869.825  1.1899e-16 
    6871.35  1.2307e-16 
   6872.875  1.2115e-16 
     6874.4  1.1547e-16 
   6875.925  1.1569e-16 
    6877.45  1.2233e-16 
   6878.975  1.1798e-16 
     6880.5  1.1626e-16 
   6882.025  1.1431e-16 
    6883.55  1.1008e-16 
   6885.075  1.1213e-16 
     6886.6  1.1697e-16 
   6888.125  1.1195e-16 
    6889.65  1.0935e-16 
   6891.175   1.098e-16 
     6892.7  1.1351e-16 
   6894.225   1.118e-16 
    6895.75   1.102e-16 
   6897.275  1.1047e-16 
     6898.8  1.1465e-16 
   6900.325  1.1217e-16 
    6901.85  1.1081e-16 
   6903.375  1.1281e-16 
     6904.9   1.111e-16 
   6906.425  1.0263e-16 
    6907.95  1.0177e-16 
   6909.475  1.0704e-16 
     6911.0  1.0812e-16 
   6912.525  1.1193e-16 
    6914.05  1.1839e-16 
   6915.575  1.1351e-16 
     6917.1  1.0637e-16 
   6918.625  1.1212e-16 
    6920.15  1.1985e-16 
   6921.675   1.186e-16 
     6923.2  1.1441e-16 
   6924.725  1.1272e-16 
    6926.25  1.1264e-16 
   6927.775  1.1071e-16 
     6929.3  1.0351e-16 
   6930.825  1.0249e-16 
    6932.35  1.1225e-16 
   6933.875  1.0666e-16 
     6935.4  9.8693e-17 
   6936.925  1.0425e-16 
    6938.45  1.0831e-16 
   6939.975  1.0502e-16 
     6941.5  9.9641e-17 
   6943.025   9.839e-17 
    6944.55  9.9915e-17 
   6946.075  1.0597e-16 
     6947.6  1.0772e-16 
   6949.125  1.0492e-16 
    6950.65  1.0331e-16 
   6952.175  9.8741e-17 
     6953.7  1.0271e-16 
   6955.225  1.0437e-16 
    6956.75  1.0288e-16 
   6958.275  1.0204e-16 
     6959.8  1.0182e-16 
   6961.325   1.002e-16 
    6962.85  1.0174e-16 
   6964.375  1.0872e-16 
     6965.9  1.1202e-16 
   6967.425  1.0809e-16 
    6968.95  1.0405e-16 
   6970.475  1.0676e-16 
     6972.0  1.0661e-16 
   6973.525  1.0035e-16 
    6975.05  9.8864e-17 
   6976.575  9.8684e-17 
     6978.1  1.0315e-16 
   6979.625  1.0661e-16 
    6981.15  1.0998e-16 
   6982.675  1.0642e-16 
     6984.2   1.005e-16 
   6985.725  1.0214e-16 
    6987.25  1.0717e-16 
   6988.775  1.0897e-16 
     6990.3  1.0364e-16 
   6991.825  1.0389e-16 
    6993.35  1.0609e-16 
   6994.875  1.0345e-16 
     6996.4  1.0252e-16 
   6997.925  1.0502e-16 
    6999.45   1.071e-16 
   7000.975   1.071e-16 
     7002.5  1.0446e-16 
   7004.025  9.9101e-17 
    7005.55  9.8106e-17 
   7007.075  1.0362e-16 
     7008.6   1.059e-16 
   7010.125  1.0364e-16 
    7011.65  1.1022e-16 
   7013.175  1.1625e-16 
     7014.7  1.1127e-16 
   7016.225  1.0696e-16 
    7017.75  1.0591e-16 
   7019.275  1.0739e-16 
     7020.8   1.117e-16 
   7022.325  1.1203e-16 
    7023.85  1.0759e-16 
   7025.375  1.0675e-16 
     7026.9   1.069e-16 
   7028.425  1.0575e-16 
    7029.95  1.0494e-16 
   7031.475  1.0265e-16 
     7033.0  1.0432e-16 
   7034.525  1.0576e-16 
    7036.05   9.804e-17 
   7037.575  9.5492e-17 
     7039.1  1.1031e-16 
   7040.625   1.249e-16 
    7042.15  1.2854e-16 
   7043.675  1.3018e-16 
     7045.2   1.285e-16 
   7046.725  1.1704e-16 
    7048.25  1.1044e-16 
   7049.775  1.0658e-16 
     7051.3  1.0401e-16 
   7052.825  1.0773e-16 
    7054.35  1.0611e-16 
   7055.875  1.0944e-16 
     7057.4  1.1511e-16 
   7058.925  1.1371e-16 
    7060.45  1.1045e-16 
   7061.975  1.1221e-16 
     7063.5   1.156e-16 
   7065.025  1.2106e-16 
    7066.55  1.2342e-16 
   7068.075  1.1651e-16 
     7069.6  1.1158e-16 
   7071.125  1.0942e-16 
    7072.65  1.0474e-16 
   7074.175  9.8116e-17 
     7075.7  9.4598e-17 
   7077.225  1.0122e-16 
    7078.75  1.0612e-16 
   7080.275  1.0786e-16 
     7081.8  1.0662e-16 
   7083.325  1.0533e-16 
    7084.85  1.0149e-16 
   7086.375  1.0097e-16 
     7087.9  1.0314e-16 
   7089.425  1.0668e-16 
    7090.95  1.1024e-16 
   7092.475  1.0903e-16 
     7094.0   1.001e-16 
   7095.525  1.0443e-16 
    7097.05  1.1297e-16 
   7098.575  1.1156e-16 
     7100.1  1.1163e-16 
   7101.625  1.1189e-16 
    7103.15  1.0847e-16 
   7104.675   1.083e-16 
     7106.2  1.1017e-16 
   7107.725  1.0816e-16 
    7109.25  1.0881e-16 
   7110.775  1.0478e-16 
     7112.3  1.0251e-16 
   7113.825  1.1128e-16 
    7115.35  1.1094e-16 
   7116.875  1.0603e-16 
     7118.4  1.0407e-16 
   7119.925  1.0653e-16 
    7121.45  1.0493e-16 
   7122.975  1.0345e-16 
     7124.5  1.0452e-16 
   7126.025  1.0488e-16 
    7127.55  1.0321e-16 
   7129.075  1.0402e-16 
     7130.6  1.0184e-16 
   7132.125  1.0203e-16 
    7133.65  1.0572e-16 
   7135.175  1.0566e-16 
     7136.7  1.0419e-16 
   7138.225  1.0289e-16 
    7139.75  1.0554e-16 
   7141.275   1.056e-16 
     7142.8  1.0034e-16 
   7144.325  1.0131e-16 
    7145.85  1.0184e-16 
   7147.375  1.0025e-16 
     7148.9  1.0206e-16 
   7150.425  1.0455e-16 
    7151.95   1.036e-16 
   7153.475  1.0295e-16 
     7155.0  1.0578e-16 
   7156.525  1.0459e-16 
    7158.05  1.0163e-16 
   7159.575  1.0496e-16 
     7161.1     1.1e-16 
   7162.625  1.1052e-16 
    7164.15  1.1097e-16 
   7165.675  1.1099e-16 
     7167.2  1.0932e-16 
   7168.725  1.1001e-16 
    7170.25   1.069e-16 
   7171.775  9.8646e-17 
     7173.3  1.0329e-16 
   7174.825  1.0682e-16 
    7176.35   1.007e-16 
   7177.875  1.0036e-16 
     7179.4  1.0244e-16 
   7180.925  1.0132e-16 
    7182.45  1.0414e-16 
   7183.975   1.037e-16 
     7185.5  1.0041e-16 
   7187.025  1.0402e-16 
    7188.55  1.0436e-16 
   7190.075  9.9764e-17 
     7191.6  1.0092e-16 
   7193.125   1.032e-16 
    7194.65  1.0227e-16 
   7196.175  1.0479e-16 
     7197.7  1.0008e-16 
   7199.225   9.839e-17 
    7200.75  1.0525e-16 
   7202.275  1.0172e-16 
     7203.8  1.0364e-16 
   7205.325  1.0829e-16 
    7206.85  1.0591e-16 
   7208.375   1.062e-16 
     7209.9  1.0517e-16 
   7211.425  1.0523e-16 
    7212.95  1.0577e-16 
   7214.475   1.034e-16 
     7216.0  1.0475e-16 
   7217.525  1.0087e-16 
    7219.05  9.7396e-17 
   7220.575  1.0242e-16 
     7222.1  1.0345e-16 
   7223.625  1.0359e-16 
    7225.15  1.0629e-16 
   7226.675   1.077e-16 
     7228.2  1.0555e-16 
   7229.725  1.0657e-16 
    7231.25  1.0521e-16 
   7232.775   1.013e-16 
     7234.3  1.0014e-16 
   7235.825  9.8637e-17 
    7237.35  9.4687e-17 
   7238.875  9.8826e-17 
     7240.4  1.0234e-16 
   7241.925  1.0858e-16 
    7243.45  1.1024e-16 
   7244.975  1.0595e-16 
     7246.5   1.007e-16 
   7248.025  1.0088e-16 
    7249.55  1.0056e-16 
   7251.075  1.0012e-16 
     7252.6  9.9792e-17 
   7254.125  9.7045e-17 
    7255.65  1.0249e-16 
   7257.175  1.0506e-16 
     7258.7  1.0128e-16 
   7260.225  9.7651e-17 
    7261.75  1.0281e-16 
   7263.275  1.0297e-16 
     7264.8  9.5899e-17 
   7266.325  9.8021e-17 
    7267.85  1.0324e-16 
   7269.375   1.064e-16 
     7270.9  1.1057e-16 
   7272.425  1.1354e-16 
    7273.95   1.168e-16 
   7275.475  1.1404e-16 
     7277.0  1.0797e-16 
   7278.525  1.0113e-16 
    7280.05  1.0234e-16 
   7281.575  1.0276e-16 
     7283.1  1.0073e-16 
   7284.625   1.051e-16 
    7286.15  1.1002e-16 
   7287.675  1.0672e-16 
     7289.2   1.026e-16 
   7290.725  9.6666e-17 
    7292.25  9.4004e-17 
   7293.775    9.57e-17 
     7295.3  1.0037e-16 
   7296.825  1.0315e-16 
    7298.35  1.0108e-16 
   7299.875  9.5113e-17 
     7301.4  9.8968e-17 
   7302.925   9.984e-17 
    7304.45  9.9773e-17 
   7305.975   9.948e-17 
     7307.5  1.0227e-16 
   7309.025   1.008e-16 
    7310.55  9.5359e-17 
   7312.075  1.0592e-16 
     7313.6  1.1113e-16 
   7315.125  1.0591e-16 
    7316.65  1.0163e-16 
   7318.175  9.9783e-17 
     7319.7  1.0119e-16 
   7321.225  9.4698e-17 
    7322.75  9.6306e-17 
   7324.275  1.0055e-16 
     7325.8  1.0034e-16 
   7327.325  9.9631e-17 
    7328.85  9.8561e-17 
   7330.375  9.6363e-17 
     7331.9  9.8087e-17 
   7333.425  9.8987e-17 
    7334.95   9.893e-17 
   7336.475  1.0261e-16 
     7338.0  1.0733e-16 
   7339.525  1.1069e-16 
    7341.05  1.0557e-16 
   7342.575  9.7794e-17 
     7344.1  9.8656e-17 
   7345.625  1.0261e-16 
    7347.15  1.0192e-16 
   7348.675    9.75e-17 
     7350.2   9.624e-17 
   7351.725   9.966e-17 
    7353.25  1.0088e-16 
   7354.775  9.9385e-17 
     7356.3  9.5435e-17 
   7357.825  9.3911e-17 
    7359.35  9.5975e-17 
   7360.875  9.4461e-17 
     7362.4  9.3936e-17 
   7363.925  9.3634e-17 
    7365.45  9.5558e-17 
   7366.975  1.0136e-16 
     7368.5  1.0489e-16 
   7370.025  1.0625e-16 
    7371.55  1.0329e-16 
   7373.075  9.9925e-17 
     7374.6  9.9177e-17 
   7376.125  9.8409e-17 
    7377.65  9.9555e-17 
   7379.175  9.9489e-17 
     7380.7  9.6221e-17 
   7382.225  9.5558e-17 
    7383.75  9.2381e-17 
   7385.275  9.0097e-17 
     7386.8  9.5189e-17 
   7388.325  9.2927e-17 
    7389.85  9.4753e-17 
   7391.375  9.8447e-17 
     7392.9  9.4838e-17 
   7394.425  9.0784e-17 
    7395.95  9.4239e-17 
   7397.475  9.7064e-17 
     7399.0  9.7651e-17 
   7400.525  9.6051e-17 
    7402.05   9.361e-17 
   7403.575  9.2775e-17 
     7405.1  9.1702e-17 
   7406.625  9.1646e-17 
    7408.15  9.1151e-17 
   7409.675   9.181e-17 
     7411.2  9.4497e-17 
   7412.725  9.6354e-17 
    7414.25  9.6932e-17 
   7415.775  1.0019e-16 
     7417.3  9.6875e-17 
   7418.825  9.4961e-17 
    7420.35  1.0053e-16 
   7421.875  9.8807e-17 
     7423.4  8.9676e-17 
   7424.925  9.0652e-17 
    7426.45  9.8523e-17 
   7427.975   9.983e-17 
     7429.5  9.9214e-17 
   7431.025  9.5482e-17 
    7432.55  1.0053e-16 
   7434.075  1.2196e-16 
     7435.6   1.396e-16 
   7437.125  1.2854e-16 
    7438.65  1.0686e-16 
   7440.175  9.3784e-17 
     7441.7  8.4194e-17 
   7443.225  9.1326e-17 
    7444.75  1.0193e-16 
   7446.275   9.965e-17 
     7447.8  9.6619e-17 
   7449.325  9.5729e-17 
    7450.85  9.7254e-17 
   7452.375  9.7036e-17 
     7453.9  9.7547e-17 
   7455.425  1.0278e-16 
    7456.95  1.0843e-16 
   7458.475  1.0447e-16 
     7460.0  9.8229e-17 
   7461.525  1.0096e-16 
    7463.05  1.0487e-16 
   7464.575  1.0046e-16 
     7466.1  9.9953e-17 
   7467.625    9.75e-17 
    7469.15  9.0794e-17 
   7470.675  9.7784e-17 
     7472.2  1.0812e-16 
   7473.725  1.0621e-16 
    7475.25   1.013e-16 
   7476.775  9.2108e-17 
     7478.3  9.0773e-17 
   7479.825  9.5823e-17 
    7481.35  9.2366e-17 
   7482.875  9.1546e-17 
     7484.4    9.37e-17 
   7485.925  9.3807e-17 
    7487.45  9.1873e-17 
   7488.975  9.7197e-17 
     7490.5  1.0182e-16 
   7492.025  1.0072e-16 
    7493.55  1.0459e-16 
   7495.075  1.0585e-16 
     7496.6   1.024e-16 
   7498.125  9.7898e-17 
    7499.65  9.4724e-17 
   7501.175  9.4848e-17 
     7502.7  9.6723e-17 
   7504.225  9.5037e-17 
    7505.75  9.3006e-17 
   7507.275  9.8144e-17 
     7508.8  1.0021e-16 
   7510.325  9.2671e-17 
    7511.85   8.987e-17 
   7513.375  9.6894e-17 
     7514.9   1.001e-16 
   7516.425  9.9555e-17 
    7517.95  9.7149e-17 
   7519.475  9.2835e-17 
     7521.0  9.1491e-17 
   7522.525  9.9015e-17 
    7524.05   1.102e-16 
   7525.575  1.0515e-16 
     7527.1  9.9887e-17 
   7528.625  1.0166e-16 
    7530.15  9.7216e-17 
   7531.675  1.0024e-16 
     7533.2  1.0033e-16 
   7534.725  9.5965e-17 
    7536.25  9.4942e-17 
   7537.775  9.6051e-17 
     7539.3  1.0042e-16 
   7540.825  1.0212e-16 
    7542.35  9.9972e-17 
   7543.875  9.9944e-17 
     7545.4  9.5984e-17 
   7546.925  9.0546e-17 
    7548.45  8.8979e-17 
   7549.975  9.4791e-17 
     7551.5  9.9849e-17 
   7553.025  9.4838e-17 
    7554.55  1.0073e-16 
   7556.075  1.0223e-16 
     7557.6  9.8618e-17 
   7559.125  1.0118e-16 
    7560.65  9.8333e-17 
   7562.175  9.7339e-17 
     7563.7  1.0642e-16 
   7565.225  1.0546e-16 
    7566.75  9.7424e-17 
   7568.275  1.0047e-16 
     7569.8   1.068e-16 
   7571.325  1.0379e-16 
    7572.85   1.034e-16 
   7574.375  1.0312e-16 
     7575.9  9.8286e-17 
   7577.425  9.8248e-17 
    7578.95  9.7642e-17 
   7580.475  9.5501e-17 
     7582.0  9.4753e-17 
   7583.525  9.4486e-17 
    7585.05  9.1279e-17 
   7586.575  9.9963e-17 
     7588.1  1.1076e-16 
   7589.625  1.0691e-16 
    7591.15   1.057e-16 
   7592.675  1.0532e-16 
     7594.2  9.8845e-17 
   7595.725  1.0633e-16 
    7597.25  1.1543e-16 
   7598.775  1.1562e-16 
   7604.875  1.0965e-16 
     7606.4  1.2738e-16 
   7607.925   1.212e-16 
    7609.45  9.2394e-17 
   7610.975  9.4438e-17 
     7612.5  1.0353e-16 
   7614.025   9.875e-17 
    7615.55  9.6988e-17 
   7617.075  9.9243e-17 
     7618.6  9.6875e-17 
   7620.125  1.0315e-16 
    7621.65   1.094e-16 
   7623.175  9.2904e-17 
     7624.7  9.0432e-17 
   7626.225  1.0479e-16 
    7627.75  1.0439e-16 
   7629.275   1.086e-16 
     7630.8  1.1944e-16 
   7632.325  1.1708e-16 
    7633.85  1.1904e-16 
   7635.375  1.1813e-16 
     7636.9  1.1367e-16 
   7638.425  1.1292e-16 
    7639.95  1.1074e-16 
   7641.475  1.0299e-16 
     7643.0  9.4093e-17 
   7644.525  1.0023e-16 
    7646.05   1.097e-16 
   7647.575  1.0385e-16 
     7649.1  9.5018e-17 
   7650.625  9.5331e-17 
    7652.15   9.821e-17 
   7653.675  1.0054e-16 
     7655.2  1.0103e-16 
   7656.725  9.9319e-17 
    7658.25   9.696e-17 
   7659.775  9.2454e-17 
     7661.3  9.4304e-17 
   7662.825  1.0082e-16 
    7664.35  1.0496e-16 
   7665.875  9.6297e-17 
     7667.4  9.0759e-17 
   7668.925  1.0054e-16 
    7670.45  1.0064e-16 
   7671.975  9.5482e-17 
     7673.5  9.6913e-17 
   7675.025   1.001e-16 
    7676.55  1.0224e-16 
   7678.075  1.0108e-16 
     7679.6  9.3127e-17 
   7681.125  9.8883e-17 
    7682.65  1.1051e-16 
   7684.175  1.0667e-16 
     7685.7  1.0089e-16 
   7687.225  9.8343e-17 
    7688.75  1.0114e-16 
   7690.275  1.0441e-16 
     7691.8  1.0419e-16 
   7693.325  1.0166e-16 
    7694.85  1.0207e-16 
   7696.375  1.0242e-16 
     7697.9  1.0433e-16 
   7699.425  1.0267e-16 
    7700.95  9.8618e-17 
   7702.475  9.8826e-17 
     7704.0  1.0429e-16 
   7705.525  1.0351e-16 
    7707.05  9.5927e-17 
   7708.575  9.5198e-17 
     7710.1  1.0428e-16 
   7711.625  1.1016e-16 
    7713.15  1.0812e-16 
   7714.675   9.947e-17 
     7716.2  9.1267e-17 
   7717.725  9.0828e-17 
    7719.25  9.6193e-17 
   7720.775  1.0512e-16 
     7722.3  1.0398e-16 
   7723.825  9.9356e-17 
    7725.35  9.8172e-17 
   7726.875  1.0189e-16 
     7728.4  1.0271e-16 
   7729.925  1.0162e-16 
    7731.45  9.3559e-17 
   7732.975  9.4248e-17 
     7734.5  9.8523e-17 
   7736.025  9.8741e-17 
    7737.55  1.0034e-16 
   7739.075  1.0161e-16 
     7740.6  1.0261e-16 
   7742.125  1.0139e-16 
    7743.65  1.0158e-16 
   7745.175  1.0404e-16 
     7746.7  1.0606e-16 
   7748.225  1.0648e-16 
    7749.75  1.0535e-16 
   7751.275  1.0092e-16 
     7752.8   9.499e-17 
   7754.325  1.0231e-16 
    7755.85  1.0921e-16 
   7757.375  1.0241e-16 
     7758.9  9.7358e-17 
   7760.425  1.0162e-16 
    7761.95  1.0128e-16 
   7763.475  9.5331e-17 
     7765.0  9.5852e-17 
   7766.525  9.9508e-17 
    7768.05  9.9375e-17 
   7769.575  9.9707e-17 
     7771.1  9.8097e-17 
   7772.625  9.8864e-17 
    7774.15  1.0599e-16 
   7775.675  1.0763e-16 
     7777.2  1.0411e-16 
   7778.725  1.0475e-16 
    7780.25  1.0657e-16 
   7781.775  1.0786e-16 
     7783.3  1.1061e-16 
   7784.825  1.0955e-16 
    7786.35  1.0345e-16 
   7787.875  9.7756e-17 
     7789.4  9.7481e-17 
   7790.925  1.0655e-16 
    7792.45  1.1426e-16 
   7793.975  1.1043e-16 
     7795.5  1.0724e-16 
   7797.025  1.0966e-16 
    7798.55  1.0863e-16 
   7800.075  1.0466e-16 
     7801.6  1.0305e-16 
   7803.125  1.0078e-16 
    7804.65  9.9233e-17 
   7806.175  1.0042e-16 
     7807.7  9.9593e-17 
   7809.225   9.589e-17 
    7810.75  1.0305e-16 
   7812.275  1.0312e-16 
     7813.8  9.9375e-17 
   7815.325  1.0549e-16 
    7816.85  1.1031e-16 
   7818.375  1.0849e-16 
     7819.9  1.0531e-16 
   7821.425  1.0982e-16 
    7822.95  1.0893e-16 
   7824.475  1.0294e-16 
     7826.0  9.6439e-17 
   7827.525  9.6363e-17 
    7829.05  1.0188e-16 
   7830.575   1.075e-16 
     7832.1  1.0356e-16 
   7833.625  1.0038e-16 
    7835.15  9.9697e-17 
   7836.675  9.8722e-17 
     7838.2  9.7841e-17 
   7839.725  1.0209e-16 
    7841.25  9.9233e-17 
   7842.775  9.6032e-17 
     7844.3  1.0302e-16 
   7845.825   1.054e-16 
    7847.35   1.045e-16 
   7848.875  1.0276e-16 
     7850.4  1.0306e-16 
   7851.925  1.0315e-16 
    7853.45  1.0577e-16 
   7854.975  1.0518e-16 
     7856.5  9.9451e-17 
   7858.025  9.8968e-17 
    7859.55  1.0353e-16 
   7861.075  1.0728e-16 
     7862.6  1.0497e-16 
   7864.125  1.0382e-16 
    7865.65  1.0248e-16 
   7867.175  1.0174e-16 
     7868.7  9.8504e-17 
   7870.225  1.0246e-16 
    7871.75  1.1127e-16 
   7873.275  1.1412e-16 
     7874.8  1.0943e-16 
   7876.325  1.0534e-16 
    7877.85  1.0534e-16 
   7879.375  1.0386e-16 
     7880.9  1.0166e-16 
   7882.425  1.0006e-16 
    7883.95  9.8769e-17 
   7885.475  1.0322e-16 
     7887.0  1.0284e-16 
   7888.525  1.0057e-16 
    7890.05  1.0242e-16 
   7891.575  1.0072e-16 
     7893.1   9.947e-17 
   7894.625  1.0562e-16 
    7896.15  1.0637e-16 
   7897.675  9.9091e-17 
     7899.2  9.6704e-17 
   7900.725  9.8163e-17 
    7902.25  1.0023e-16 
   7903.775  1.0302e-16 
     7905.3  1.0164e-16 
   7906.825  9.9991e-17 
    7908.35  1.0458e-16 
   7909.875  1.0964e-16 
     7911.4  1.0827e-16 
   7912.925  1.0599e-16 
    7914.45  1.0745e-16 
   7915.975  1.0957e-16 
     7917.5  1.0776e-16 
   7919.025  1.0621e-16 
    7920.55  1.1029e-16 
   7922.075  1.1518e-16 
     7923.6  1.1393e-16 
   7925.125  1.0056e-16 
    7926.65  9.7936e-17 
   7928.175  1.0496e-16 
     7929.7  1.0178e-16 
   7931.225  1.0004e-16 
    7932.75  9.7377e-17 
   7934.275  9.3095e-17 
     7935.8   9.458e-17 
   7937.325   1.007e-16 
    7938.85  9.7879e-17 
   7940.375  9.6543e-17 
     7941.9  1.0221e-16 
   7943.425   1.057e-16 
    7944.95  1.0605e-16 
   7946.475  1.0023e-16 
     7948.0  9.3699e-17 
   7949.525  9.6136e-17 
    7951.05   1.067e-16 
   7952.575  1.0567e-16 
     7954.1  9.4617e-17 
   7955.625  9.9906e-17 
    7957.15  1.0698e-16 
   7958.675  1.0183e-16 
     7960.2  1.0198e-16 
   7961.725  1.0459e-16 
    7963.25  9.9783e-17 
   7964.775  1.0603e-16 
     7966.3  1.0432e-16 
   7967.825  1.0329e-16 
    7969.35  1.0432e-16 
   7970.875   9.231e-17 
     7972.4  9.0739e-17 
   7973.925  9.8551e-17 
    7975.45   1.034e-16 
   7976.975  1.0131e-16 
     7978.5  9.9413e-17 
   7980.025  1.1292e-16 
    7981.55   1.108e-16 
   7983.075  9.8504e-17 
     7984.6  9.7595e-17 
   7986.125  1.0091e-16 
    7987.65  9.9527e-17 
   7989.175  9.8381e-17 
     7990.7  9.9934e-17 
   7992.225  1.0649e-16 
    7993.75  1.0228e-16 
   7995.275  9.8182e-17 
     7996.8  9.3757e-17 
   7998.325  9.1656e-17 
    7999.85  9.7424e-17 
   8001.375  1.0707e-16 
     8002.9  1.1035e-16 
   8004.425  9.9366e-17 
    8005.95  9.3099e-17 
   8007.475   8.937e-17 
     8009.0  8.9876e-17 
   8010.525  9.5643e-17 
    8012.05   1.012e-16 
   8013.575  1.0439e-16 
     8015.1  1.0388e-16 
   8016.625  1.0286e-16 
    8018.15  9.7291e-17 
   8019.675   9.606e-17 
     8021.2    1.01e-16 
   8022.725  1.0644e-16 
    8024.25  1.0347e-16 
   8025.775  1.0202e-16 
     8027.3  1.0464e-16 
   8028.825  9.9338e-17 
    8030.35  1.0266e-16 
   8031.875  1.0856e-16 
     8033.4  1.0594e-16 
   8034.925  1.0415e-16 
    8036.45  1.0213e-16 
   8037.975  9.5302e-17 
     8039.5  9.3413e-17 
   8041.025  9.5264e-17 
    8042.55  9.2263e-17 
   8044.075  9.3113e-17 
     8045.6  9.6969e-17 
   8047.125  1.0292e-16 
    8048.65  1.0208e-16 
   8050.175  9.3926e-17 
     8051.7   9.481e-17 
   8053.225  1.0151e-16 
    8054.75   9.767e-17 
   8056.275  9.8078e-17 
     8057.8  9.9773e-17 
   8059.325  1.0076e-16 
    8060.85    9.48e-17 
   8062.375  9.1073e-17 
     8063.9  9.1749e-17 
   8065.425  9.3045e-17 
    8066.95   9.266e-17 
   8068.475  9.2831e-17 
     8070.0  9.4039e-17 
   8071.525  9.3962e-17 
    8073.05  8.9219e-17 
   8074.575  8.9973e-17 
     8076.1  9.6022e-17 
   8077.625   9.499e-17 
    8079.15  9.0953e-17 
   8080.675  9.3117e-17 
     8082.2  1.0002e-16 
   8083.725  1.0238e-16 
    8085.25  1.0043e-16 
   8086.775  9.5321e-17 
     8088.3  9.2698e-17 
   8089.825  9.7812e-17 
    8091.35  1.0044e-16 
   8092.875  9.1464e-17 
     8094.4  8.4236e-17 
   8095.925  9.1098e-17 
    8097.45  9.2695e-17 
   8098.975  9.1126e-17 
     8100.5  9.7756e-17 
   8102.025  9.8854e-17 
    8103.55  9.5009e-17 
   8105.075  9.5009e-17 
     8106.6  9.6259e-17 
   8108.125  9.2876e-17 
    8109.65  8.3279e-17 
   8111.175  8.7687e-17 
     8112.7  9.2825e-17 
   8114.225  8.7902e-17 
    8115.75  8.4197e-17 
   8117.275  8.4987e-17 
     8118.8  9.2484e-17 
   8120.325  8.9841e-17 
    8121.85  8.0504e-17 
   8123.375  8.6494e-17 
     8124.9  9.2344e-17 
   8126.425   8.518e-17 
    8127.95  8.5021e-17 
   8129.475  9.3358e-17 
     8131.0  9.8485e-17 
   8132.525  9.9877e-17 
    8134.05  9.0946e-17 
   8135.575  8.7218e-17 
     8137.1  9.1101e-17 
   8138.625  9.0432e-17 
    8140.15  9.1777e-17 
   8141.675  9.5141e-17 
     8143.2  9.3445e-17 
   8144.725  8.3645e-17 
    8146.25  7.8318e-17 
   8147.775  8.5204e-17 
     8149.3  8.6534e-17 
   8150.825  8.5898e-17 
    8152.35  9.1499e-17 
   8153.875  9.3037e-17 
     8155.4  9.1631e-17 
   8156.925   8.928e-17 
    8158.45  8.6255e-17 
   8159.975  8.1839e-17 
     8161.5  8.0669e-17 
   8163.025  8.3392e-17 
    8164.55  8.2742e-17 
   8166.075  8.7081e-17 
     8167.6  9.1436e-17 
   8169.125  9.3084e-17 
    8170.65  9.3337e-17 
   8172.175   8.887e-17 
     8173.7  8.3781e-17 
   8175.225  8.5983e-17 
    8176.75  9.2452e-17 
   8178.275  9.8201e-17 
     8179.8  9.2882e-17 
   8181.325  8.8394e-17 
    8182.85   9.767e-17 
   8184.375  1.0039e-16 
     8185.9  9.2425e-17 
   8187.425  8.5989e-17 
    8188.95  8.3782e-17 
   8190.475  8.4889e-17 
     8192.0  9.0216e-17 
   8193.525  9.1013e-17 
    8195.05  8.8642e-17 
   8196.575  8.5993e-17 
     8198.1  8.4509e-17 
   8199.625  9.2757e-17 
    8201.15   9.244e-17 
   8202.675  8.8388e-17 
     8204.2   8.684e-17 
   8205.725  8.3634e-17 
    8207.25  9.0009e-17 
   8208.775  8.8292e-17 
     8210.3  8.7536e-17 
   8211.825  9.1342e-17 
    8213.35  1.0238e-16 
   8214.875  1.0318e-16 
     8216.4   9.066e-17 
   8217.925  8.4143e-17 
    8219.45  8.3223e-17 
   8220.975  8.3903e-17 
     8222.5  9.1476e-17 
   8224.025  8.8408e-17 
    8225.55  8.1717e-17 
   8227.075  9.0395e-17 
     8228.6  9.6524e-17 
   8230.125  8.9514e-17 
    8231.65   9.308e-17 
   8233.175  1.0099e-16 
     8234.7  9.5975e-17 
   8236.225  9.1013e-17 
    8237.75  9.1718e-17 
   8239.275  9.1955e-17 
     8240.8  9.6041e-17 
   8242.325   9.767e-17 
    8243.85  9.3981e-17 
   8245.375  9.3876e-17 
     8246.9  9.7955e-17 
   8248.425  1.0203e-16 
    8249.95  1.0402e-16 
   8251.475  1.0352e-16 
     8253.0  1.0422e-16 
   8254.525  9.9451e-17 
    8256.05  9.2928e-17 
   8257.575  9.4315e-17 
     8259.1  9.8674e-17 
   8260.625   1.023e-16 
    8262.15  9.9233e-17 
   8263.675  9.2867e-17 
     8265.2  9.0608e-17 
   8266.725  9.0299e-17 
    8268.25  9.0536e-17 
   8269.775  9.0892e-17 
     8271.3  9.1729e-17 
   8272.825  9.6932e-17 
    8274.35    1.02e-16 
   8275.875  9.9404e-17 
     8277.4  9.7557e-17 
   8278.925  9.9868e-17 
    8280.45  1.0028e-16 
   8281.975  9.7983e-17 
     8283.5  9.4272e-17 
   8285.025  9.2929e-17 
    8286.55       1e-16 
   8288.075  1.0688e-16 
     8289.6   1.047e-16 
   8291.125  1.0038e-16 
    8292.65  1.0062e-16 
   8294.175  1.0402e-16 
     8295.7  1.0281e-16 
   8297.225  1.0064e-16 
    8298.75  1.0357e-16 
   8300.275  1.0631e-16 
     8301.8  1.0589e-16 
   8303.325  9.7708e-17 
    8304.85  8.8042e-17 
   8306.375  9.5871e-17 
     8307.9  1.0239e-16 
   8309.425  1.0499e-16 
    8310.95  1.0675e-16 
   8312.475  1.0466e-16 
     8314.0  1.0445e-16 
   8315.525  1.0399e-16 
    8317.05  9.4024e-17 
   8318.575  8.7983e-17 
     8320.1   9.912e-17 
   8321.625  1.0115e-16 
    8323.15  9.7235e-17 
   8324.675  1.0476e-16 
     8326.2  1.1601e-16 
   8327.725  1.0921e-16 
    8329.25  9.9944e-17 
   8330.775  9.9868e-17 
     8332.3  1.0039e-16 
   8333.825  1.0259e-16 
    8335.35   9.731e-17 
   8336.875  9.2321e-17 
     8338.4  9.7955e-17 
   8339.925  1.1229e-16 
    8341.45  1.2062e-16 
   8342.975  1.1558e-16 
     8344.5  1.1008e-16 
   8346.025  1.0967e-16 
    8347.55  9.6193e-17 
   8349.075  9.5103e-17 
     8350.6  1.0098e-16 
   8352.125  1.0315e-16 
    8353.65  1.0357e-16 
   8355.175   1.045e-16 
     8356.7  1.0784e-16 
   8358.225  1.0282e-16 
    8359.75  1.0066e-16 
   8361.275  1.0966e-16 
     8362.8  1.1727e-16 
   8364.325   1.101e-16 
    8365.85  1.0171e-16 
   8367.375  9.9053e-17 
     8368.9   1.017e-16 
   8370.425  1.0277e-16 
    8371.95  1.0196e-16 
   8373.475  1.0461e-16 
     8375.0   1.049e-16 
   8376.525  1.0019e-16 
    8378.05   9.607e-17 
   8379.575  1.0234e-16 
     8381.1  1.0865e-16 
   8382.625  9.9697e-17 
    8384.15  9.9356e-17 
   8385.675  1.0692e-16 
     8387.2  1.0379e-16 
   8388.725  1.0402e-16 
    8390.25  1.0867e-16 
   8391.775  1.0627e-16 
     8393.3  9.9707e-17 
   8394.825  1.0404e-16 
    8396.35  1.0933e-16 
   8397.875  1.0296e-16 
     8399.4  1.0642e-16 
   8400.925  1.1337e-16 
    8402.45  1.0665e-16 
   8403.975  1.0267e-16 
     8405.5  1.0119e-16 
   8407.025  1.0049e-16 
    8408.55  1.0455e-16 
   8410.075  1.0746e-16 
     8411.6  1.0478e-16 
   8413.125   1.025e-16 
    8414.65  1.0005e-16 
   8416.175  1.0121e-16 
     8417.7  1.0338e-16 
   8419.225   1.061e-16 
    8420.75  1.0684e-16 
   8422.275  1.0938e-16 
     8423.8  1.0566e-16 
   8425.325  9.9366e-17 
    8426.85  1.1013e-16 
   8428.375  1.1019e-16 
     8429.9  1.0545e-16 
   8431.425  1.0784e-16 
    8432.95  1.0721e-16 
   8434.475  1.0149e-16 
     8436.0  1.0044e-16 
   8437.525  1.0574e-16 
    8439.05  1.0575e-16 
   8440.575  1.0496e-16 
     8442.1   1.019e-16 
   8443.625  9.9451e-17 
    8445.15  9.8551e-17 
   8446.675  1.0121e-16 
     8448.2  1.0305e-16 
   8449.725  1.0518e-16 
    8451.25  9.9877e-17 
   8452.775  1.0191e-16 
     8454.3  1.0318e-16 
   8455.825   9.352e-17 
    8457.35  9.4571e-17 
   8458.875  1.0852e-16 
     8460.4  1.0424e-16 
   8461.925  9.7159e-17 
    8463.45  1.0108e-16 
   8464.975  1.1188e-16 
     8466.5  1.0948e-16 
   8468.025  9.5776e-17 
    8469.55  9.3781e-17 
   8471.075  9.5454e-17 
     8472.6  1.0477e-16 
   8474.125  1.1046e-16 
    8475.65  1.0326e-16 
   8477.175  1.0709e-16 
     8478.7  1.1047e-16 
   8480.225  9.8798e-17 
    8481.75  8.9969e-17 
   8483.275  9.3326e-17 
     8484.8   1.001e-16 
   8486.325  1.0128e-16 
    8487.85  9.8258e-17 
   8489.375  1.0387e-16 
     8490.9  1.0383e-16 
   8492.425  9.9536e-17 
    8493.95  1.0544e-16 
   8495.475  1.0206e-16 
     8497.0  1.0012e-16 
   8498.525  1.0501e-16 
    8500.05  9.7348e-17 
   8501.575  9.3503e-17 
     8503.1  9.7055e-17 
   8504.625  1.0078e-16 
    8506.15  1.0218e-16 
   8507.675   9.767e-17 
     8509.2  9.2852e-17 
   8510.725   9.225e-17 
    8512.25  1.0102e-16 
   8513.775  1.0404e-16 
     8515.3  1.0049e-16 
   8516.825  1.0195e-16 
    8518.35  1.0018e-16 
   8519.875  9.7017e-17 
     8521.4  9.6411e-17 
   8522.925  9.7926e-17 
    8524.45  9.8097e-17 
   8525.975   9.966e-17 
     8527.5  1.0061e-16 
   8529.025  1.0058e-16 
    8530.55  1.0226e-16 
   8532.075  9.7907e-17 
     8533.6  9.4432e-17 
   8535.125   9.499e-17 
    8536.65  9.4422e-17 
   8538.175  9.6638e-17 
     8539.7  9.6865e-17 
   8541.225  9.9347e-17 
    8542.75  9.6022e-17 
   8544.275  9.5245e-17 
     8545.8  9.9082e-17 
   8547.325  9.5056e-17 
    8548.85  9.6117e-17 
   8550.375   1.012e-16 
     8551.9  1.0409e-16 
   8553.425   9.516e-17 
    8554.95  8.8077e-17 
   8556.475  9.2165e-17 
     8558.0  9.8949e-17 
   8559.525  9.4838e-17 
    8561.05  8.7855e-17 
   8562.575  9.2934e-17 
     8564.1   9.767e-17 
   8565.625  8.6349e-17 
    8567.15  9.0613e-17 
   8568.675  1.0141e-16 
     8570.2  9.9148e-17 
   8571.725  9.9101e-17 
    8573.25  1.0141e-16 
   8574.775  9.7538e-17 
     8576.3  9.4187e-17 
   8577.825  9.3732e-17 
    8579.35   9.164e-17 
   8580.875  9.0325e-17 
     8582.4  9.3816e-17 
   8583.925  9.1343e-17 
    8585.45   8.741e-17 
   8586.975  9.0756e-17 
     8588.5  9.6619e-17 
   8590.025  9.5037e-17 
    8591.55  9.0804e-17 
   8593.075   8.887e-17 
     8594.6  9.2278e-17 
   8596.125  9.8267e-17 
    8597.65  9.7424e-17 
   8599.175  9.3206e-17 
     8600.7  9.3018e-17 
   8602.225   9.125e-17 
    8603.75  9.2489e-17 
   8605.275   9.786e-17 
     8606.8  9.8949e-17 
   8608.325  9.7983e-17 
    8609.85  9.5283e-17 
   8611.375  9.1472e-17 
     8612.9  9.0231e-17 
   8614.425  8.8354e-17 
    8615.95  8.8278e-17 
   8617.475  9.8267e-17 
     8619.0  1.0675e-16 
   8620.525  1.0425e-16 
    8622.05  9.3959e-17 
   8623.575   8.771e-17 
     8625.1  8.8907e-17 
   8626.625  9.2097e-17 
    8628.15   9.966e-17 
   8629.675  1.0006e-16 
     8631.2  9.9224e-17 
   8632.725  9.5028e-17 
    8634.25  9.6278e-17 
   8635.775   9.804e-17 
     8637.3  9.6619e-17 
   8638.825  9.6003e-17 
    8640.35  8.5156e-17 
   8641.875  7.5106e-17 
     8643.4   7.778e-17 
   8644.925  8.3274e-17 
    8646.45  9.3946e-17 
   8647.975  9.9499e-17 
     8649.5  9.3196e-17 
   8651.025  8.9664e-17 
    8652.55  9.6174e-17 
   8654.075  9.3459e-17 
     8655.6  9.3417e-17 
   8657.125  9.4055e-17 
    8658.65  9.7168e-17 
   8660.175  9.5028e-17 
     8661.7  1.0127e-16 
   8663.225  9.9536e-17 
    8664.75    9.75e-17 
   8666.275  9.5909e-17 
     8667.8  9.3859e-17 
   8669.325  9.8087e-17 
    8670.85  9.3252e-17 
   8672.375  8.6478e-17 
     8673.9  8.0135e-17 
   8675.425  8.5854e-17 
    8676.95  9.1358e-17 
   8678.475  8.3606e-17 
     8680.0  8.6722e-17 
   8681.525   8.668e-17 
    8683.05  8.3019e-17 
   8684.575  8.9268e-17 
     8686.1  9.8381e-17 
   8687.625  9.6666e-17 
    8689.15  9.3972e-17 
   8690.675  9.4117e-17 
     8692.2  9.4562e-17 
   8693.725  9.4942e-17 
    8695.25  8.7215e-17 
   8696.775  8.3028e-17 
     8698.3  9.1758e-17 
   8699.825  9.6382e-17 
    8701.35  9.4914e-17 
   8702.875   9.275e-17 
     8704.4  9.5425e-17 
   8705.925  9.5691e-17 
    8707.45  9.4772e-17 
   8708.975  9.4772e-17 
     8710.5  8.8487e-17 
   8712.025  9.2018e-17 
    8713.55  9.5918e-17 
   8715.075  8.3459e-17 
     8716.6  8.2022e-17 
   8718.125  9.2583e-17 
    8719.65  9.1721e-17 
   8721.175  8.9841e-17 
     8722.7  9.6041e-17 
   8724.225   9.459e-17 
    8725.75  9.0161e-17 
   8727.275  9.3885e-17 
     8728.8  8.9964e-17 
   8730.325  8.6255e-17 
    8731.85  9.3945e-17 
   8733.375  9.3036e-17 
     8734.9  8.8242e-17 
   8736.425  8.5293e-17 
    8737.95  7.8172e-17 
   8739.475  8.3153e-17 
     8741.0  9.3866e-17 
   8742.525  9.2547e-17 
    8744.05  9.0196e-17 
   8745.575  9.1313e-17 
     8747.1  9.0701e-17 
   8748.625  8.4905e-17 
    8750.15  8.5243e-17 
   8751.675  8.6514e-17 
     8753.2  8.1536e-17 
   8754.725  8.7252e-17 
    8756.25  9.3969e-17 
   8757.775  9.6051e-17 
     8759.3  9.9584e-17 
   8760.825   9.965e-17 
    8762.35  9.3885e-17 
   8763.875  9.0701e-17 
     8765.4  9.3691e-17 
   8766.925  9.3071e-17 
    8768.45  8.8146e-17 
   8769.975  8.2611e-17 
     8771.5  7.6934e-17 
   8773.025  8.1454e-17 
    8774.55  9.1614e-17 
   8776.075  1.0052e-16 
     8777.6  1.0549e-16 
   8779.125  1.0066e-16 
    8780.65  9.2276e-17 
   8782.175  8.6668e-17 
     8783.7  8.9802e-17 
   8785.225  8.5728e-17 
    8786.75   8.724e-17 
   8788.275  8.9099e-17 
     8789.8  8.9408e-17 
   8791.325  9.0169e-17 
    8792.85  9.4504e-17 
   8794.375  8.9765e-17 
     8795.9  8.4353e-17 
   8797.425  8.8172e-17 
    8798.95  8.7236e-17 
   8800.475  8.8813e-17 
     8802.0  8.5791e-17 
   8803.525  8.1947e-17 
    8805.05  9.0634e-17 
   8806.575  9.2604e-17 
     8808.1  8.6178e-17 
   8809.625  8.9803e-17 
    8811.15  8.9589e-17 
   8812.675  8.1954e-17 
     8814.2  8.1091e-17 
   8815.725  9.0117e-17 
    8817.25  8.9287e-17 
   8818.775  8.1314e-17 
     8820.3  8.3605e-17 
   8821.825  8.5972e-17 
    8823.35  9.3459e-17 
   8824.875  1.0052e-16 
     8826.4  9.3597e-17 
   8827.925  8.6854e-17 
    8829.45  8.2039e-17 
   8830.975  7.8028e-17 
     8832.5   8.768e-17 
   8834.025  1.0772e-16 
    8835.55  1.0742e-16 
   8837.075  8.8121e-17 
     8838.6  8.2948e-17 
   8840.125  8.5371e-17 
    8841.65  7.9814e-17 
   8843.175  8.0413e-17 
     8844.7     8.6e-17 
   8846.225  8.7531e-17 
    8847.75  9.3208e-17 
   8849.275  9.1953e-17 
     8850.8  8.8602e-17 
   8852.325  8.8701e-17 
    8853.85  8.8904e-17 
   8855.375  8.7192e-17 
     8856.9  8.4765e-17 
   8858.425  8.7176e-17 
    8859.95  8.7089e-17 
   8861.475  8.8078e-17 
     8863.0  8.8219e-17 
   8864.525  8.6907e-17 
    8866.05  8.4311e-17 
   8867.575  8.5156e-17 
     8869.1  8.7156e-17 
   8870.625  8.4374e-17 
    8872.15  8.5114e-17 
   8873.675  8.9108e-17 
     8875.2  8.0559e-17 
   8876.725  8.1298e-17 
    8878.25  8.4283e-17 
   8879.775  8.3921e-17 
     8881.3  9.8589e-17 
   8882.825  1.0075e-16 
    8884.35  9.0417e-17 
   8885.875   9.607e-17 
     8887.4  1.0269e-16 
   8888.925  8.6823e-17 
    8890.45  7.7165e-17 
   8891.975  8.5333e-17 
     8893.5  8.9859e-17 
   8895.025  9.3143e-17 
    8896.55  9.4781e-17 
   8898.075   9.095e-17 
     8899.6  9.3215e-17 
   8901.125  9.1002e-17 
    8902.65  9.1393e-17 
   8904.175   9.696e-17 
     8905.7   9.049e-17 
   8907.225  7.7381e-17 
    8908.75  7.4192e-17 
   8910.275  8.0518e-17 
     8911.8   8.339e-17 
   8913.325  8.0432e-17 
    8914.85  8.6409e-17 
   8916.375   9.481e-17 
     8917.9  9.7689e-17 
   8919.425  1.0793e-16 
    8920.95  1.0912e-16 
   8922.475  8.7618e-17 
     8924.0  7.7451e-17 
   8925.525  8.5557e-17 
    8927.05  9.1361e-17 
   8928.575  9.2711e-17 
     8930.1  8.9955e-17 
   8931.625  8.8922e-17 
    8933.15  8.9364e-17 
   8934.675  8.3816e-17 
     8936.2  8.4143e-17 
   8937.725  8.6953e-17 
    8939.25  8.8776e-17 
   8940.775  9.7121e-17 
     8942.3  1.0303e-16 
   8943.825   9.426e-17 
    8945.35  8.0106e-17 
   8946.875  8.0818e-17 
     8948.4  8.8013e-17 
   8949.925  8.9455e-17 
    8951.45  8.6924e-17 
   8952.975  7.8167e-17 
     8954.5   8.233e-17 
   8956.025  9.6306e-17 
    8957.55  9.3951e-17 
   8959.075  9.1015e-17 
     8960.6  8.6079e-17 
   8962.125  8.2525e-17 
    8963.65  8.1162e-17 
   8965.175  8.8346e-17 
     8966.7  8.9757e-17 
   8968.225  8.2553e-17 
    8969.75  7.9284e-17 
   8971.275  8.6459e-17 
     8972.8    9.23e-17 
   8974.325  8.7277e-17 
    8975.85  8.2598e-17 
   8977.375  7.9591e-17 
     8978.9  7.8875e-17 
   8980.425  8.4013e-17 
    8981.95  8.9226e-17 
   8983.475  9.1451e-17 
     8985.0   9.342e-17 
   8986.525  9.3238e-17 
    8988.05  8.5189e-17 
   8989.575  8.4479e-17 
     8991.1  8.7003e-17 
   8992.625  8.5315e-17 
    8994.15  8.0898e-17 
   8995.675  7.4868e-17 
     8997.2  8.6175e-17 
   8998.725  9.0287e-17 
    9000.25  8.3906e-17 
   9001.775  8.6558e-17 
     9003.3   8.243e-17 
   9004.825  8.5693e-17 
    9006.35  9.2448e-17 
   9007.875  9.8163e-17 
     9009.4  9.4942e-17 
   9010.925  9.9224e-17 
    9012.45  9.5586e-17 
   9013.975  9.0205e-17 
     9015.5  9.1449e-17 
   9017.025  9.0383e-17 
    9018.55  8.5814e-17 
   9020.075  9.0855e-17 
     9021.6   9.517e-17 
   9023.125  8.9981e-17 
    9024.65  8.5953e-17 
   9026.175  8.8353e-17 
     9027.7  8.9547e-17 
   9029.225   8.977e-17 
    9030.75  9.4166e-17 
   9032.275  9.5208e-17 
     9033.8  8.8479e-17 
   9035.325  8.9996e-17 
    9036.85   9.221e-17 
   9038.375  8.6146e-17 
     9039.9  8.9616e-17 
   9041.425  9.7017e-17 
    9042.95  9.1833e-17 
   9044.475  8.4315e-17 
     9046.0  9.0807e-17 
   9047.525  9.8476e-17 
    9049.05  9.7614e-17 
   9050.575  9.0169e-17 
     9052.1  8.1423e-17 
   9053.625  8.4081e-17 
    9055.15  8.9258e-17 
   9056.675  8.8667e-17 
     9058.2   8.975e-17 
   9059.725   9.214e-17 
    9061.25  8.8438e-17 
   9062.775  8.8193e-17 
     9064.3  8.9892e-17 
   9065.825  8.6964e-17 
    9067.35  8.5248e-17 
   9068.875  9.3036e-17 
     9070.4  9.0289e-17 
   9071.925  8.7752e-17 
    9073.45  9.1707e-17 
   9074.975  8.6345e-17 
     9076.5  8.8974e-17 
   9078.025  9.6969e-17 
    9079.55  9.8892e-17 
   9081.075  9.8343e-17 
     9082.6  9.9584e-17 
   9084.125  9.3296e-17 
    9085.65  9.3004e-17 
   9087.175  9.3459e-17 
     9088.7  9.3852e-17 
   9090.225  9.4185e-17 
    9091.75  9.6335e-17 
   9093.275  9.4548e-17 
     9094.8  9.0372e-17 
   9096.325  9.5852e-17 
    9097.85  9.4306e-17 
   9099.375  9.2533e-17 
     9100.9  9.7121e-17 
   9102.425  9.7756e-17 
    9103.95  9.1959e-17 
   9105.475  9.1513e-17 
     9107.0  9.4022e-17 
   9108.525  9.5302e-17 
    9110.05  9.3772e-17 
   9111.575   9.115e-17 
     9113.1   8.961e-17 
   9114.625  9.1199e-17 
    9116.15  9.2561e-17 
   9117.675   9.625e-17 
     9119.2  9.8201e-17 
   9120.725  9.6297e-17 
    9122.25  8.9123e-17 
   9123.775  8.9642e-17 
     9125.3  1.0028e-16 
   9126.825  9.7453e-17 
    9128.35  1.0008e-16 
   9129.875   9.804e-17 
     9131.4  8.8671e-17 
   9132.925  8.7384e-17 
    9134.45  9.6392e-17 
   9135.975  1.0234e-16 
     9137.5  1.0001e-16 
   9139.025  9.1439e-17 
    9140.55  8.5711e-17 
   9142.075  8.8203e-17 
     9143.6  9.8741e-17 
   9145.125   1.026e-16 
    9146.65  9.9849e-17 
   9148.175  9.9385e-17 
     9149.7  9.6505e-17 
   9151.225  9.3612e-17 
    9152.75   9.552e-17 
   9154.275  1.0124e-16 
     9155.8  9.4829e-17 
   9157.325  8.6672e-17 
    9158.85  8.7959e-17 
   9160.375  9.1697e-17 
     9161.9  9.9233e-17 
   9163.425  9.9679e-17 
    9164.95  9.4012e-17 
   9166.475  9.0972e-17 
     9168.0  9.5558e-17 
   9169.525  9.5388e-17 
    9171.05  9.7557e-17 
   9172.575  1.0169e-16 
     9174.1  9.8172e-17 
   9175.625  1.0175e-16 
    9177.15  1.0333e-16 
   9178.675  9.6022e-17 
     9180.2  1.0127e-16 
   9181.725  1.0471e-16 
    9183.25  1.1033e-16 
   9184.775  1.1483e-16 
     9186.3  9.9896e-17 
   9187.825  9.0464e-17 
    9189.35  9.8618e-17 
   9190.875  1.0157e-16 
     9192.4  9.5369e-17 
   9193.925  9.8153e-17 
    9195.45  1.0014e-16 
   9196.975   1.022e-16 
     9198.5  1.0558e-16 
   9200.025  1.1137e-16 
    9201.55  1.0344e-16 
   9203.075  1.0202e-16 
     9204.6  1.0385e-16 
   9206.125   9.695e-17 
    9207.65  9.6486e-17 
   9209.175  1.0588e-16 
     9210.7  1.0455e-16 
   9212.225  1.0008e-16 
    9213.75   9.535e-17 
   9215.275  1.0168e-16 
     9216.8  1.0613e-16 
   9218.325  1.0628e-16 
    9219.85  1.0668e-16 
   9221.375  1.0288e-16 
     9222.9  1.0626e-16 
   9224.425  1.0027e-16 
    9225.95  9.9385e-17 
   9227.475  1.0028e-16 
     9229.0  1.0462e-16 
   9230.525  1.0311e-16 
    9232.05  9.6846e-17 
   9233.575  9.3681e-17 
     9235.1  1.0023e-16 
   9236.625  1.1072e-16 
    9238.15   1.069e-16 
   9239.675  1.0081e-16 
     9241.2  1.0631e-16 
   9242.725  1.0413e-16 
    9244.25  9.6894e-17 
   9245.775  9.7254e-17 
     9247.3  1.0473e-16 
   9248.825  1.0657e-16 
    9250.35   1.044e-16 
   9251.875  1.0269e-16 
     9253.4  1.0296e-16 
   9254.925  1.0232e-16 
    9256.45  9.9735e-17 
   9257.975  1.0508e-16 
     9259.5  1.0796e-16 
   9261.025  1.0605e-16 
    9262.55  1.0581e-16 
   9264.075  1.0638e-16 
     9265.6  1.0664e-16 
   9267.125  1.0343e-16 
    9268.65   1.048e-16 
   9270.175  1.1467e-16 
     9271.7  1.1264e-16 
   9273.225  1.0235e-16 
    9274.75  1.0387e-16 
   9276.275  1.0368e-16 
     9277.8  1.0458e-16 
   9279.325  1.0702e-16 
    9280.85  1.0585e-16 
   9282.375  1.1029e-16 
     9283.9  1.0495e-16 
   9285.425  9.2345e-17 
    9286.95  9.6714e-17 
   9288.475  1.0546e-16 
     9290.0   9.303e-17 
   9291.525  8.4992e-17 
    9293.05  9.1728e-17 
   9294.575  9.2168e-17 
     9296.1  9.4109e-17 
   9297.625  9.6411e-17 
    9299.15  9.6742e-17 
   9300.675  1.0098e-16 
     9302.2   1.065e-16 
   9303.725  1.0688e-16 
    9305.25  1.0407e-16 
   9306.775  1.2401e-16 
     9308.3  1.2252e-16 
   9309.825  1.1102e-16 
    9311.35  1.0911e-16 
   9312.875  1.1772e-16 
     9314.4  1.2933e-16 
   9315.925  1.0963e-16 
    9317.45  1.0289e-16 
   9318.975  1.1105e-16 
     9320.5  1.1425e-16 
   9322.025   1.178e-16 
    9323.55  1.2997e-16 
   9325.075  1.3185e-16 
     9326.6  1.0224e-16 
   9328.125  9.3731e-17 
    9329.65  1.0199e-16 
   9331.175  1.1024e-16 
     9332.7  1.1984e-16 
   9334.225  1.1294e-16 
    9335.75   1.069e-16 
   9337.275   1.211e-16 
     9338.8  1.1357e-16 
   9340.325  1.1859e-16 
    9341.85  1.2164e-16 
   9343.375  1.3332e-16 
     9344.9  1.3297e-16 
   9346.425  1.0211e-16 
    9347.95  9.6477e-17 
   9349.475  8.9527e-17 
     9351.0  8.3185e-17 
   9352.525  1.0839e-16 
    9354.05  1.2183e-16 
   9355.575  1.0336e-16 
     9357.1   1.018e-16 
   9358.625  1.0843e-16 
    9360.15  9.4607e-17 
   9361.675  9.2638e-17 
     9363.2  9.8494e-17 
   9364.725  9.8542e-17 
    9366.25  9.1251e-17 
   9367.775  8.8267e-17 
     9369.3  9.0271e-17 
   9370.825  9.2999e-17 
    9372.35  1.2187e-16 
   9373.875  1.2011e-16 
     9375.4  1.0439e-16 
   9376.925  1.3309e-16 
    9378.45  1.1243e-16 
   9379.975  6.8998e-17 
     9381.5  8.2884e-17 
   9383.025  8.2816e-17 
    9384.55  9.9773e-17 
   9386.075  1.1184e-16 
     9387.6   9.383e-17 
   9389.125  8.4017e-17 
    9390.65  9.0084e-17 
   9392.175  9.1649e-17 
     9393.7  9.2289e-17 
   9395.225  8.9858e-17 
    9396.75  8.3403e-17 
   9398.275  9.3236e-17 
     9399.8  1.0298e-16 
   9401.325  9.0125e-17 
    9402.85  8.3305e-17 
   9404.375  8.7205e-17 
     9405.9  9.2578e-17 
   9407.425  9.5274e-17 
    9408.95  1.0205e-16 
   9410.475  9.8106e-17 
     9412.0   8.912e-17 
   9413.525  8.5915e-17 
    9415.05  9.0265e-17 
   9416.575  1.0884e-16 
     9418.1  1.0782e-16 
   9419.625  9.2292e-17 
    9421.15  8.7071e-17 
   9422.675  8.2685e-17 
     9424.2  8.8169e-17 
   9425.725   9.912e-17 
    9427.25  1.1226e-16 
   9428.775    9.75e-17 
     9430.3  8.1887e-17 
   9431.825  8.1141e-17 
    9433.35  8.0057e-17 
   9434.875   8.453e-17 
     9436.4  1.0316e-16 
   9437.925  1.0131e-16 
    9439.45  1.1193e-16 
   9440.975  9.9432e-17 
     9442.5    7.28e-17 
   9444.025  7.5332e-17 
    9445.55  8.3686e-17 
   9447.075  9.2583e-17 
     9448.6  9.1048e-17 
   9450.125  8.2994e-17 
    9451.65  8.7923e-17 
   9453.175  8.7466e-17 
     9454.7  7.7328e-17 
   9456.225  7.6484e-17 
    9457.75  8.8194e-17 
   9459.275  1.0231e-16 
     9460.8  1.0697e-16 
   9462.325  9.1169e-17 
    9463.85  7.9103e-17 
   9465.375  8.5424e-17 
     9466.9  9.2246e-17 
   9468.425  9.2134e-17 
    9469.95   7.997e-17 
   9471.475  7.4215e-17 
     9473.0  1.1242e-16 
   9474.525  1.3325e-16 
    9476.05  1.0666e-16 
   9477.575  8.0822e-17 
     9479.1  6.6182e-17 
   9480.625  7.4102e-17 
    9482.15  8.3131e-17 
   9483.675  8.6688e-17 
     9485.2  9.0882e-17 
   9486.725  8.5739e-17 
    9488.25  8.6639e-17 
   9489.775   9.087e-17 
     9491.3  9.0066e-17 
   9492.825  9.0963e-17 
    9494.35  8.5619e-17 
   9495.875  7.7782e-17 
     9497.4  8.4375e-17 
   9498.925  9.9375e-17 
    9500.45  1.0249e-16 
   9501.975  8.4734e-17 
     9503.5  7.8022e-17 
   9505.025  8.4456e-17 
    9506.55  8.1306e-17 
   9508.075   7.884e-17 
     9509.6  8.0548e-17 
   9511.125  8.6139e-17 
    9512.65  9.2596e-17 
   9514.175  9.5766e-17 
     9515.7  9.7443e-17 
   9517.225  9.7225e-17 
    9518.75  9.1323e-17 
   9520.275  7.9565e-17 
     9521.8   7.582e-17 
   9523.325  7.0697e-17 
    9524.85  8.3988e-17 
   9526.375  9.5482e-17 
     9527.9  9.5122e-17 
   9529.425  8.4914e-17 
    9530.95   8.575e-17 
   9532.475  8.2564e-17 
     9534.0  8.5693e-17 
   9535.525  9.1571e-17 
    9537.05  9.3443e-17 
   9538.575  9.1825e-17 
     9540.1  9.3496e-17 
   9541.625  9.9328e-17 
    9543.15  9.8409e-17 
   9544.675  8.7379e-17 
     9546.2   7.934e-17 
   9547.725  8.1009e-17 
    9549.25  9.9328e-17 
   9550.775  1.1033e-16 
     9552.3  1.1012e-16 
   9553.825  9.7765e-17 
    9555.35  8.2987e-17 
   9556.875   8.106e-17 
     9558.4   8.486e-17 
   9559.925  9.4444e-17 
    9561.45  8.3435e-17 
   9562.975  8.3282e-17 
     9564.5  1.0445e-16 
   9566.025  9.8845e-17 
    9567.55  8.5637e-17 
   9569.075  8.1599e-17 
     9570.6   7.227e-17 
   9572.125  7.3595e-17 
    9573.65  8.6385e-17 
   9575.175  9.0376e-17 
     9576.7  9.0177e-17 
   9578.225  9.4452e-17 
    9579.75   9.714e-17 
   9581.275  9.0563e-17 
     9582.8    9.04e-17 
   9584.325  8.9325e-17 
    9585.85  8.3584e-17 
   9587.375  8.1663e-17 
     9588.9   7.818e-17 
   9590.425  8.2393e-17 
    9591.95  8.9575e-17 
   9593.475  8.2876e-17 
     9595.0  7.4793e-17 
   9596.525  8.6926e-17 
    9598.05  9.6685e-17 
   9599.575  9.1918e-17 
     9601.1  9.2756e-17 
   9602.625  9.6202e-17 
    9604.15  9.7367e-17 
   9605.675  8.9223e-17 
     9607.2  7.8095e-17 
   9608.725  8.0476e-17 
    9610.25  8.5692e-17 
   9611.775   8.863e-17 
     9613.3  9.0897e-17 
   9614.825  8.9704e-17 
    9616.35  8.4244e-17 
   9617.875  8.4773e-17 
     9619.4  9.8656e-17 
   9620.925  1.1135e-16 
    9622.45  9.5283e-17 
   9623.975  8.6878e-17 
     9625.5  9.4857e-17 
   9627.025  8.6216e-17 
    9628.55  9.0152e-17 
   9630.075  9.7348e-17 
     9631.6  8.9072e-17 
   9633.125   8.686e-17 
    9634.65  9.1637e-17 
   9636.175  8.7208e-17 
     9637.7  8.1394e-17 
   9639.225  8.4856e-17 
    9640.75   7.536e-17 
   9642.275  7.5646e-17 
     9643.8  9.6733e-17 
   9645.325  9.6401e-17 
    9646.85  8.1066e-17 
   9648.375  8.7063e-17 
     9649.9  8.7081e-17 
   9651.425  8.3891e-17 
    9652.95  8.6291e-17 
   9654.475  8.4761e-17 
     9656.0   8.122e-17 
   9657.525   8.152e-17 
    9659.05   9.141e-17 
   9660.575  1.0293e-16 
     9662.1  1.0143e-16 
   9663.625  9.5984e-17 
    9665.15  9.1488e-17 
   9666.675  8.8443e-17 
     9668.2  8.2077e-17 
   9669.725  8.1011e-17 
    9671.25  8.7022e-17 
   9672.775  8.1394e-17 
     9674.3  8.3533e-17 
   9675.825  8.8677e-17 
    9677.35  8.4096e-17 
   9678.875  8.9048e-17 
     9680.4  9.4675e-17 
   9681.925  9.3936e-17 
    9683.45  9.1978e-17 
   9684.975  9.5473e-17 
     9686.5  9.5009e-17 
   9688.025  8.7856e-17 
    9689.55  7.9124e-17 
   9691.075  7.2156e-17 
     9692.6  7.1982e-17 
   9694.125  7.9977e-17 
    9695.65   7.764e-17 
   9697.175  8.0128e-17 
     9698.7  9.0684e-17 
   9700.225  8.9298e-17 
    9701.75  8.9022e-17 
   9703.275   9.768e-17 
     9704.8  9.2042e-17 
   9706.325  7.7022e-17 
    9707.85   7.618e-17 
   9709.375  8.5451e-17 
     9710.9  8.7834e-17 
   9712.425  8.0485e-17 
    9713.95  8.2205e-17 
   9715.475  9.2218e-17 
     9717.0  9.6401e-17 
   9718.525  9.1875e-17 
    9720.05  7.9469e-17 
   9721.575  7.8998e-17 
     9723.1  8.7289e-17 
   9724.625  8.7393e-17 
    9726.15  8.7142e-17 
   9727.675  8.9761e-17 
     9729.2  9.8087e-17 
   9730.725  9.9205e-17 
    9732.25  9.2174e-17 
   9733.775  9.1149e-17 
     9735.3  9.2511e-17 
   9736.825  9.7509e-17 
    9738.35  9.0351e-17 
   9739.875  7.2049e-17 
     9741.4  7.2424e-17 
   9742.925  8.8028e-17 
    9744.45   9.226e-17 
   9745.975  9.4697e-17 
     9747.5    9.75e-17 
   9749.025  7.8536e-17 
    9750.55  8.6244e-17 
   9752.075  1.0792e-16 
     9753.6  1.0008e-16 
   9755.125  8.5676e-17 
    9756.65  7.6843e-17 
   9758.175  8.2135e-17 
     9759.7  1.0149e-16 
   9761.225  1.0796e-16 
    9762.75  1.0296e-16 
   9764.275  9.9754e-17 
     9765.8  9.9442e-17 
   9767.325  9.7235e-17 
    9768.85  9.8892e-17 
   9770.375  8.9619e-17 
     9771.9  9.1724e-17 
   9773.425  1.0106e-16 
    9774.95  1.0703e-16 
   9776.475  9.0067e-17 
     9778.0   8.477e-17 
   9779.525   1.005e-16 
    9781.05  9.5113e-17 
   9782.575  8.4275e-17 
     9784.1  7.4229e-17 
   9785.625  7.5787e-17 
    9787.15  8.0064e-17 
   9788.675  8.7198e-17 
     9790.2  8.9579e-17 
   9791.725  8.3099e-17 
    9793.25  8.7718e-17 
   9794.775  8.1748e-17 
     9796.3  9.5388e-17 
   9797.825  1.1008e-16 
    9799.35  1.0623e-16 
   9800.875  9.8712e-17 
     9802.4  8.5312e-17 
   9803.925  9.0933e-17 
    9805.45  1.0043e-16 
   9806.975  9.6136e-17 
     9808.5  1.0007e-16 
   9810.025  1.0356e-16 
    9811.55  1.0147e-16 
   9813.075  1.0235e-16 
     9814.6  1.0415e-16 
   9816.125  1.0427e-16 
    9817.65  9.4361e-17 
   9819.175  8.1191e-17 
     9820.7  8.8229e-17 
   9822.225  9.7737e-17 
    9823.75   9.535e-17 
   9825.275  9.4289e-17 
     9826.8  9.1268e-17 
   9828.325  9.1227e-17 
    9829.85  9.8779e-17 
   9831.375  9.9243e-17 
     9832.9  8.9824e-17 
   9834.425  8.9122e-17 
    9835.95  9.2056e-17 
   9837.475  8.8451e-17 
     9839.0  9.8693e-17 
   9840.525  1.0263e-16 
    9842.05   9.244e-17 
   9843.575  8.9925e-17 
     9845.1  9.6174e-17 
   9846.625  1.0369e-16 
    9848.15  1.0231e-16 
   9849.675  1.0149e-16 
     9851.2  9.3392e-17 
   9852.725  9.5331e-17 
    9854.25  9.8835e-17 
   9855.775  9.5956e-17 
     9857.3  1.0206e-16 
   9858.825    1.02e-16 
    9860.35  8.8864e-17 
   9861.875  8.5502e-17 
     9863.4  9.5624e-17 
   9864.925  9.3365e-17 
    9866.45  8.9523e-17 
   9867.975  9.5113e-17 
     9869.5  1.0133e-16 
   9871.025   1.029e-16 
    9872.55   1.159e-16 
   9874.075  9.6941e-17 
     9875.6  7.2349e-17 
   9877.125    8.09e-17 
    9878.65  9.4743e-17 
   9880.175  8.5746e-17 
     9881.7  1.0093e-16 
   9883.225  1.0557e-16 
    9884.75  8.8305e-17 
   9886.275  8.9647e-17 
     9887.8  9.0261e-17 
   9889.325   7.395e-17 
    9890.85   7.882e-17 
   9892.375  1.0136e-16 
     9893.9  1.0488e-16 
   9895.425  1.0376e-16 
    9896.95  9.8873e-17 
   9898.475  8.7768e-17 
     9900.0  9.8315e-17 
   9901.525   1.039e-16 
    9903.05  9.1436e-17 
   9904.575  8.7752e-17 
     9906.1  8.9175e-17 
   9907.625  9.0694e-17 
    9909.15  9.7917e-17 
   9910.675  1.0567e-16 
     9912.2  9.6117e-17 
   9913.725  8.8348e-17 
    9915.25  1.0414e-16 
   9916.775  1.1056e-16 
     9918.3  9.1163e-17 
   9919.825  9.3735e-17 
    9921.35  9.8703e-17 
   9922.875  8.8261e-17 
     9924.4  9.0381e-17 
   9925.925   9.929e-17 
    9927.45  9.8684e-17 
   9928.975   1.001e-16 
     9930.5  9.2296e-17 
   9932.025  9.1473e-17 
    9933.55  1.0041e-16 
   9935.075  9.5094e-17 
     9936.6  7.9453e-17 
   9938.125  9.0702e-17 
    9939.65  1.0703e-16 
   9941.175  1.0069e-16 
     9942.7  1.0144e-16 
   9944.225  1.0044e-16 
    9945.75  1.0155e-16 
   9947.275  1.2273e-16 
     9948.8   1.226e-16 
   9950.325  9.9536e-17 
    9951.85  9.2698e-17 
   9953.375  9.9442e-17 
     9954.9  9.6411e-17 
   9956.425   9.098e-17 
    9957.95  1.0592e-16 
   9959.475  1.1503e-16 
     9961.0  1.1212e-16 
   9962.525  1.1131e-16 
    9964.05  1.0169e-16 
   9965.575  9.3332e-17 
     9967.1  1.0217e-16 
   9968.625  1.0287e-16 
    9970.15  1.0634e-16 
   9971.675  1.0787e-16 
     9973.2  1.0369e-16 
   9974.725  1.0476e-16 
    9976.25  9.2521e-17 
   9977.775  8.6718e-17 
     9979.3  1.0307e-16 
   9980.825  1.1589e-16 
    9982.35  9.6704e-17 
   9983.875  1.0018e-16 
     9985.4  1.0428e-16 
   9986.925   9.822e-17 
    9988.45   9.857e-17 
   9989.975  9.7481e-17 
     9991.5  1.1156e-16 
   9993.025  1.1764e-16 
    9994.55  1.0316e-16 
   9996.075  9.0163e-17 
     9997.6  9.8239e-17 
   9999.125  1.0593e-16 
   10000.65  9.9319e-17 
