# STATUS =
# OBJECT = 2018don
# TELESCOPE = P200
# INSTRUMENT = DBSP
# DATE-OBS = 2018-07-17 00:00:00.00
# MJD = 58316.0
# EXPTIME = --
# AIRMASS = --
# SLIT = --
# DISPERSER = --
# SOURCE = 2020ApJ...901...61L
# FILTER =
# RESOLUTION =
# FLUX_STANDARD =
# EXTINCTION_CORRECTED = --
# PHOTOMETRY_CALIBRATED =
# TELLURIC_CORRECTED =
# FLUX_UNITS = erg cm(-2) sec(-1) Ang(-1)
# WAVE_UNITS = Angstrom
# QUALITY = Medium
# MIN_WAVE = 3500.0
# MAX_WAVE = 8999.15
# COMMENT = --
 Wavelength         Flux 
   3501.525  -7.6306e-18 
    3503.05   2.1031e-17 
   3504.575   4.3114e-17 
     3506.1   4.2096e-17 
   3507.625   1.5209e-17 
    3509.15   2.1429e-17 
   3510.675    2.528e-17 
     3512.2   2.3378e-17 
   3513.725   1.3351e-17 
    3515.25   1.0035e-17 
   3516.775   2.2869e-17 
     3518.3   3.0224e-17 
   3519.825   3.5976e-17 
    3521.35   1.3287e-17 
   3522.875   3.2944e-18 
     3524.4   2.3112e-17 
   3525.925    3.785e-17 
    3527.45   3.6898e-18 
   3528.975   3.8643e-17 
     3530.5   3.2543e-17 
   3532.025   2.9547e-17 
    3533.55    3.573e-17 
   3535.075   2.5479e-17 
     3536.6   5.4797e-17 
   3538.125   2.6775e-17 
    3539.65   1.1026e-17 
   3541.175   1.0772e-17 
     3542.7   2.2585e-17 
   3544.225   6.3302e-17 
    3545.75   1.0794e-17 
   3547.275   3.1677e-17 
     3548.8    3.917e-17 
   3550.325   3.4835e-17 
    3551.85   3.0327e-17 
   3553.375   4.7879e-17 
     3554.9   3.4763e-17 
   3556.425   4.0603e-17 
    3557.95   2.1559e-17 
   3559.475    1.756e-17 
     3561.0   9.4636e-18 
   3562.525   2.9108e-17 
    3564.05  -7.9211e-18 
   3565.575   1.8266e-17 
     3567.1   1.9972e-17 
   3568.625   1.1634e-17 
    3570.15   3.0004e-17 
   3571.675   1.1544e-17 
     3573.2  -4.2858e-18 
   3574.725   3.2225e-17 
    3576.25   4.4998e-17 
   3577.775   2.4125e-17 
     3579.3    3.832e-17 
   3580.825   4.8313e-17 
    3582.35   3.0161e-17 
   3583.875   1.7526e-18 
     3585.4   7.2714e-18 
   3586.925  -9.1565e-19 
    3588.45   1.1565e-17 
   3589.975   3.3073e-17 
     3591.5   3.1273e-17 
   3593.025   2.6035e-17 
    3594.55   2.7295e-17 
   3596.075   3.1457e-17 
     3597.6  -2.7988e-18 
   3599.125   8.2042e-18 
    3600.65   9.5301e-18 
   3602.175   7.3176e-20 
     3603.7   2.1797e-17 
   3605.225   1.9515e-17 
    3606.75   2.4468e-17 
   3608.275   7.6002e-18 
     3609.8  -5.6173e-18 
   3611.325   4.4486e-17 
    3612.85   3.8718e-17 
   3614.375   1.8688e-17 
     3615.9   3.7547e-18 
   3617.425   4.1852e-18 
    3618.95   1.7201e-17 
   3620.475   1.8495e-17 
     3622.0   7.9938e-18 
   3623.525   1.0204e-17 
    3625.05   3.1777e-17 
   3626.575    2.908e-18 
     3628.1  -1.5302e-17 
   3629.625   3.5676e-17 
    3631.15   3.0751e-17 
   3632.675   7.8111e-18 
     3634.2  -8.1502e-18 
   3635.725  -1.2066e-18 
    3637.25   3.6059e-17 
   3638.775   1.7368e-17 
     3640.3   8.1999e-18 
   3641.825   9.7903e-18 
    3643.35   1.7439e-17 
   3644.875   7.3291e-18 
     3646.4  -5.8027e-18 
   3647.925   2.3199e-18 
    3649.45  -3.2298e-18 
   3650.975   1.7309e-17 
     3652.5   2.2647e-17 
   3654.025   2.5688e-18 
    3655.55     3.76e-17 
   3657.075    7.608e-18 
     3658.6  -3.5989e-18 
   3660.125    2.392e-17 
    3661.65   4.8942e-17 
   3663.175   1.0465e-17 
     3664.7  -1.9914e-17 
   3666.225  -3.2577e-18 
    3667.75   2.1785e-17 
   3669.275   2.2437e-17 
     3670.8   4.2435e-17 
   3672.325   3.3734e-17 
    3673.85   1.3967e-17 
   3675.375   5.9501e-18 
     3676.9   2.5662e-17 
   3678.425   3.5445e-17 
    3679.95   4.3459e-17 
   3681.475   1.7771e-17 
     3683.0    1.108e-17 
   3684.525   2.9817e-17 
    3686.05   8.4412e-18 
   3687.575     1.39e-17 
     3689.1   1.8051e-17 
   3690.625   1.5319e-17 
    3692.15   2.0378e-17 
   3693.675   2.3753e-18 
     3695.2   1.7816e-17 
   3696.725   4.1115e-17 
    3698.25   3.7929e-18 
   3699.775   1.1261e-17 
     3701.3   2.6964e-17 
   3702.825   2.2976e-17 
    3704.35   1.6177e-17 
   3705.875   3.3622e-17 
     3707.4   2.2087e-18 
   3708.925    1.661e-17 
    3710.45   1.4736e-17 
   3711.975   2.8278e-17 
     3713.5   2.3225e-17 
   3715.025   1.4213e-17 
    3716.55    1.177e-17 
   3718.075   2.5575e-17 
     3719.6   2.0176e-17 
   3721.125    1.288e-17 
    3722.65   7.2082e-18 
   3724.175  -1.3511e-17 
     3725.7    1.226e-17 
   3727.225   9.0982e-18 
    3728.75   9.4249e-18 
   3730.275   1.1898e-17 
     3731.8   1.7079e-17 
   3733.325   4.4199e-17 
    3734.85   1.6746e-17 
   3736.375   7.2923e-18 
     3737.9   7.8871e-18 
   3739.425   1.8569e-17 
    3740.95   3.2031e-17 
   3742.475   4.2097e-17 
     3744.0   2.6344e-17 
   3745.525   2.2871e-17 
    3747.05    3.749e-17 
   3748.575   1.7788e-17 
     3750.1   2.0709e-17 
   3751.625     1.47e-17 
    3753.15    2.593e-17 
   3754.675   2.6396e-17 
     3756.2   1.6827e-17 
   3757.725   1.2091e-17 
    3759.25     3.32e-17 
   3760.775   2.7438e-17 
     3762.3   3.5691e-17 
   3763.825    2.918e-17 
    3765.35   2.0539e-17 
   3766.875   2.3123e-17 
     3768.4   1.6812e-17 
   3769.925   1.3606e-17 
    3771.45   1.5142e-17 
   3772.975   2.3266e-17 
     3774.5   1.6306e-17 
   3776.025   4.0495e-17 
    3777.55   2.5645e-17 
   3779.075   1.7023e-17 
     3780.6   1.7269e-17 
   3782.125   2.0362e-17 
    3783.65   4.3317e-17 
   3785.175   2.8273e-17 
     3786.7   1.2862e-17 
   3788.225   2.7029e-17 
    3789.75   2.1586e-17 
   3791.275    3.592e-17 
     3792.8  -1.4654e-18 
   3794.325   1.2757e-17 
    3795.85    9.657e-18 
   3797.375   8.8561e-18 
     3798.9   1.2292e-17 
   3800.425   1.3221e-17 
    3801.95   2.8152e-17 
   3803.475   2.5616e-17 
     3805.0   1.8572e-17 
   3806.525   2.5353e-17 
    3808.05   1.0735e-17 
   3809.575   1.5452e-17 
     3811.1   3.1563e-17 
   3812.625   2.9011e-17 
    3814.15   3.0116e-17 
   3815.675   2.1653e-17 
     3817.2   2.8783e-17 
   3818.725   4.4228e-17 
    3820.25    1.797e-17 
   3821.775   1.4061e-17 
     3823.3   1.3216e-17 
   3824.825   3.3823e-17 
    3826.35   3.3704e-17 
   3827.875   7.4251e-18 
     3829.4  -3.7097e-18 
   3830.925   1.5977e-17 
    3832.45   2.2901e-17 
   3833.975   1.8736e-17 
     3835.5   1.1735e-17 
   3837.025   1.7022e-17 
    3838.55   2.2193e-17 
   3840.075   1.2081e-17 
     3841.6  -1.0864e-18 
   3843.125   2.0028e-17 
    3844.65   3.0499e-17 
   3846.175   3.2996e-17 
     3847.7   2.7214e-17 
   3849.225   3.1391e-17 
    3850.75   3.2939e-17 
   3852.275   2.7176e-17 
     3853.8   2.4644e-17 
   3855.325    1.788e-17 
    3856.85    4.236e-17 
   3858.375   4.1253e-17 
     3859.9   1.9569e-17 
   3861.425   2.2344e-17 
    3862.95   3.8609e-17 
   3864.475   1.7543e-17 
     3866.0   1.2041e-17 
   3867.525   2.4197e-17 
    3869.05   1.7856e-17 
   3870.575   2.8772e-17 
     3872.1   1.7625e-17 
   3873.625   1.1532e-17 
    3875.15   1.3367e-17 
   3876.675    1.565e-17 
     3878.2   7.0851e-18 
   3879.725   2.0653e-17 
    3881.25   1.7758e-17 
   3882.775   1.2525e-17 
     3884.3   1.4544e-17 
   3885.825   2.8845e-17 
    3887.35   2.4412e-17 
   3888.875    1.739e-17 
     3890.4    2.182e-17 
   3891.925   3.0304e-17 
    3893.45   3.5708e-17 
   3894.975   1.6908e-17 
     3896.5   3.9963e-17 
   3898.025   4.5043e-17 
    3899.55   1.2978e-17 
   3901.075   1.0727e-17 
     3902.6   2.0662e-17 
   3904.125   3.0626e-17 
    3905.65   2.7799e-17 
   3907.175   2.0238e-17 
     3908.7   2.6633e-17 
   3910.225   1.8346e-17 
    3911.75   2.1268e-17 
   3913.275   2.4759e-17 
     3914.8   1.5703e-17 
   3916.325   2.8934e-17 
    3917.85   1.5331e-17 
   3919.375   2.0984e-17 
     3920.9    2.145e-17 
   3922.425   1.4225e-17 
    3923.95   1.6315e-17 
   3925.475   1.7402e-17 
     3927.0   3.3465e-17 
   3928.525    3.295e-17 
    3930.05   3.4612e-17 
   3931.575   2.8455e-17 
     3933.1   3.3542e-17 
   3934.625   2.8007e-17 
    3936.15   2.0484e-17 
   3937.675   3.2241e-17 
     3939.2   3.6085e-17 
   3940.725   2.2328e-17 
    3942.25   1.7139e-17 
   3943.775   1.8357e-17 
     3945.3   3.1913e-17 
   3946.825   3.2614e-17 
    3948.35   2.6779e-17 
   3949.875   3.1397e-17 
     3951.4   1.8001e-17 
   3952.925   2.3816e-17 
    3954.45    3.246e-17 
   3955.975   2.6113e-17 
     3957.5   2.2709e-17 
   3959.025   2.2456e-17 
    3960.55   1.8067e-17 
   3962.075   1.8412e-17 
     3963.6   2.1457e-17 
   3965.125   2.9412e-17 
    3966.65   2.6247e-17 
   3968.175   2.0449e-17 
     3969.7   2.9513e-17 
   3971.225   3.1979e-17 
    3972.75   3.1029e-17 
   3974.275   2.9525e-17 
     3975.8   2.1875e-17 
   3977.325   1.4411e-17 
    3978.85   2.7901e-17 
   3980.375   2.3484e-17 
     3981.9   2.6492e-17 
   3983.425   3.5273e-17 
    3984.95   3.9454e-17 
   3986.475   3.4094e-17 
     3988.0   3.0322e-17 
   3989.525   2.8291e-17 
    3991.05   1.8601e-17 
   3992.575   3.0024e-17 
     3994.1   3.7552e-17 
   3995.625   2.4248e-17 
    3997.15   2.7546e-17 
   3998.675   2.9672e-17 
     4000.2   5.3329e-17 
   4001.725   6.0089e-17 
    4003.25   4.9797e-17 
   4004.775   2.1256e-17 
     4006.3   3.2621e-17 
   4007.825    2.133e-17 
    4009.35   2.5871e-17 
   4010.875   2.9022e-17 
     4012.4   2.5984e-17 
   4013.925   2.1519e-17 
    4015.45   4.0929e-18 
   4016.975   2.5794e-17 
     4018.5   3.9849e-17 
   4020.025   2.5619e-17 
    4021.55   3.0858e-17 
   4023.075   3.1747e-17 
     4024.6   1.6037e-17 
   4026.125   2.8777e-17 
    4027.65   3.1261e-17 
   4029.175   2.7866e-17 
     4030.7   2.5623e-17 
   4032.225   2.4835e-17 
    4033.75    2.539e-17 
   4035.275   2.2015e-17 
     4036.8   2.4403e-17 
   4038.325   2.7514e-17 
    4039.85   3.7847e-17 
   4041.375   2.6465e-17 
     4042.9   3.2402e-17 
   4044.425   2.8547e-17 
    4045.95   3.5489e-17 
   4047.475   4.1623e-17 
     4049.0   1.4505e-17 
   4050.525   1.7695e-17 
    4052.05   3.7048e-17 
   4053.575   2.2541e-17 
     4055.1   2.4779e-17 
   4056.625   3.5213e-17 
    4058.15   2.4321e-17 
   4059.675   1.7644e-17 
     4061.2   2.4597e-17 
   4062.725   5.8513e-17 
    4064.25   3.8109e-17 
   4065.775   2.6049e-17 
     4067.3   2.6889e-17 
   4068.825   1.9767e-17 
    4070.35   1.3327e-17 
   4071.875   2.7074e-17 
     4073.4   2.8432e-17 
   4074.925   6.3857e-18 
    4076.45   1.8953e-17 
   4077.975   2.0474e-17 
     4079.5   3.1947e-17 
   4081.025   2.9577e-17 
    4082.55    9.427e-18 
   4084.075   1.9727e-17 
     4085.6   2.8381e-17 
   4087.125   3.4495e-17 
    4088.65   2.0434e-17 
   4090.175   2.3289e-17 
     4091.7   3.0874e-17 
   4093.225   4.0475e-17 
    4094.75   2.5289e-17 
   4096.275   1.3571e-17 
     4097.8   1.5936e-17 
   4099.325   2.3879e-17 
    4100.85   2.7333e-17 
   4102.375   2.2896e-17 
     4103.9   8.8502e-18 
   4105.425  -3.5973e-18 
    4106.95  -5.1314e-18 
   4108.475   8.4197e-18 
     4110.0   1.9691e-17 
   4111.525   3.0146e-17 
    4113.05    1.635e-17 
   4114.575   2.9366e-17 
     4116.1   2.8789e-17 
   4117.625    2.142e-17 
    4119.15   1.9488e-17 
   4120.675   3.2422e-17 
     4122.2   1.9405e-17 
   4123.725   1.9635e-17 
    4125.25   3.1785e-17 
   4126.775   3.1516e-17 
     4128.3   2.7268e-17 
   4129.825   3.7981e-17 
    4131.35   3.0875e-17 
   4132.875   3.1862e-17 
     4134.4   3.1647e-17 
   4135.925    3.143e-17 
    4137.45   1.9925e-17 
   4138.975   2.5735e-17 
     4140.5   3.0042e-17 
   4142.025   2.4703e-17 
    4143.55   3.0664e-17 
   4145.075   3.7305e-17 
     4146.6   2.4864e-17 
   4148.125   1.7511e-17 
    4149.65   9.8557e-18 
   4151.175   1.9501e-17 
     4152.7   2.0844e-17 
   4154.225   2.7947e-17 
    4155.75   2.8481e-17 
   4157.275    3.392e-17 
     4158.8   2.5048e-17 
   4160.325     1.54e-17 
    4161.85   1.8289e-18 
   4163.375   1.8652e-17 
     4164.9   2.6903e-17 
   4166.425   2.7127e-17 
    4167.95   3.1676e-17 
   4169.475   1.9299e-17 
     4171.0   4.2197e-17 
   4172.525    2.165e-17 
    4174.05   1.2319e-17 
   4175.575   3.4781e-17 
     4177.1   3.4796e-17 
   4178.625   3.2679e-17 
    4180.15   2.9387e-17 
   4181.675   1.6262e-17 
     4183.2   1.3284e-17 
   4184.725   3.6452e-17 
    4186.25   3.0213e-17 
   4187.775   2.7589e-17 
     4189.3   2.4941e-17 
   4190.825   3.0831e-17 
    4192.35    2.815e-17 
   4193.875   3.7857e-17 
     4195.4   3.5649e-17 
   4196.925    3.238e-17 
    4198.45   4.9212e-17 
   4199.975   3.3548e-17 
     4201.5   5.0036e-17 
   4203.025   4.9066e-17 
    4204.55   4.6538e-17 
   4206.075   6.3815e-17 
     4207.6   4.3687e-17 
   4209.125   3.3366e-17 
    4210.65   3.0502e-17 
   4212.175   4.5004e-17 
     4213.7   3.8873e-17 
   4215.225   3.6209e-17 
    4216.75   4.9612e-17 
   4218.275   3.9483e-17 
     4219.8   1.0826e-17 
   4221.325   2.7381e-17 
    4222.85   3.2267e-17 
   4224.375   3.5376e-17 
     4225.9   3.4481e-17 
   4227.425   2.9972e-17 
    4228.95   2.7748e-17 
   4230.475   3.6487e-17 
     4232.0   4.1459e-17 
   4233.525   4.7266e-17 
    4235.05   4.3085e-17 
   4236.575   5.8767e-17 
     4238.1   4.4677e-17 
   4239.625    4.699e-17 
    4241.15   5.5711e-17 
   4242.675   6.1617e-17 
     4244.2   4.6522e-17 
   4245.725   4.8801e-17 
    4247.25   5.8043e-17 
   4248.775   3.9836e-17 
     4250.3   3.2913e-17 
   4251.825   3.7264e-17 
    4253.35   4.8835e-17 
   4254.875   3.8224e-17 
     4256.4   4.4116e-17 
   4257.925   4.4791e-17 
    4259.45   4.6135e-17 
   4260.975   3.3711e-17 
     4262.5   3.9156e-17 
   4264.025   4.5896e-17 
    4265.55   4.0319e-17 
   4267.075   1.9158e-17 
     4268.6   3.7755e-17 
   4270.125   4.9682e-17 
    4271.65   3.2166e-17 
   4273.175   6.2306e-17 
     4274.7   4.7538e-17 
   4276.225   4.5816e-17 
    4277.75   3.8483e-17 
   4279.275    4.046e-17 
     4280.8   4.1647e-17 
   4282.325   3.8498e-17 
    4283.85   3.5688e-17 
   4285.375   3.9742e-17 
     4286.9   5.3671e-17 
   4288.425   4.1225e-17 
    4289.95   4.2312e-17 
   4291.475   4.8501e-17 
     4293.0   4.8718e-17 
   4294.525   4.3533e-17 
    4296.05   3.9403e-17 
   4297.575   5.4641e-17 
     4299.1   5.5128e-17 
   4300.625   3.8319e-17 
    4302.15   4.7956e-17 
   4303.675   4.5921e-17 
     4305.2   6.6615e-17 
   4306.725   5.6928e-17 
    4308.25   4.6209e-17 
   4309.775   5.1363e-17 
     4311.3   5.0677e-17 
   4312.825   4.1122e-17 
    4314.35   4.5054e-17 
   4315.875   3.7419e-17 
     4317.4   5.2324e-17 
   4318.925   5.5201e-17 
    4320.45   4.2814e-17 
   4321.975   3.9503e-17 
     4323.5   4.7395e-17 
   4325.025   4.4255e-17 
    4326.55   4.4189e-17 
   4328.075   5.2668e-17 
     4329.6   3.1702e-17 
   4331.125   4.6532e-17 
    4332.65   5.5572e-17 
   4334.175   3.9366e-17 
     4335.7   4.3031e-17 
   4337.225   3.0014e-17 
    4338.75   4.7668e-17 
   4340.275   4.6968e-17 
     4341.8   3.3758e-17 
   4343.325   4.6347e-17 
    4344.85   5.2255e-17 
   4346.375   3.8828e-17 
     4347.9   2.3952e-17 
   4349.425   2.8066e-17 
    4350.95   2.8133e-17 
   4352.475   3.7401e-17 
     4354.0   5.5161e-17 
   4355.525   2.4849e-17 
    4357.05   4.5302e-17 
   4358.575   1.0027e-16 
     4360.1   7.9734e-17 
   4361.625   2.3268e-17 
    4363.15   2.8333e-17 
   4364.675   4.1557e-17 
     4366.2   3.7175e-17 
   4367.725   2.1739e-17 
    4369.25   2.9317e-17 
   4370.775   4.4347e-17 
     4372.3    4.755e-17 
   4373.825   4.4514e-17 
    4375.35   5.3007e-17 
   4376.875   6.4621e-17 
     4378.4   3.9498e-17 
   4379.925   3.8551e-17 
    4381.45    3.551e-17 
   4382.975   4.3176e-17 
     4384.5   4.8194e-17 
   4386.025    4.368e-17 
    4387.55   4.5198e-17 
   4389.075   5.1338e-17 
     4390.6   5.2305e-17 
   4392.125   4.7054e-17 
    4393.65   4.2071e-17 
   4395.175   4.1717e-17 
     4396.7   4.4217e-17 
   4398.225   4.4792e-17 
    4399.75   2.4235e-17 
   4401.275   3.4747e-17 
     4402.8   5.0176e-17 
   4404.325   3.4216e-17 
    4405.85   4.4121e-17 
   4407.375    4.253e-17 
     4408.9   3.4951e-17 
   4410.425   3.7846e-17 
    4411.95   3.5375e-17 
   4413.475   4.3278e-17 
     4415.0   3.6309e-17 
   4416.525   5.9864e-17 
    4418.05   6.6225e-17 
   4419.575   3.9185e-17 
     4421.1    3.922e-17 
   4422.625   3.7235e-17 
    4424.15   4.7083e-17 
   4425.675    3.628e-17 
     4427.2   4.6325e-17 
   4428.725   3.9733e-17 
    4430.25   4.6101e-17 
   4431.775   4.2769e-17 
     4433.3    5.945e-17 
   4434.825   6.3661e-17 
    4436.35   4.4458e-17 
   4437.875   5.1517e-17 
     4439.4   4.4192e-17 
   4440.925   4.1702e-17 
    4442.45   4.7752e-17 
   4443.975   5.9438e-17 
     4445.5   3.5189e-17 
   4447.025   2.8692e-17 
    4448.55   3.1834e-17 
   4450.075   4.0636e-17 
     4451.6   5.0417e-17 
   4453.125   4.9808e-17 
    4454.65   5.2909e-17 
   4456.175   4.8361e-17 
     4457.7   5.5936e-17 
   4459.225    4.905e-17 
    4460.75   5.5028e-17 
   4462.275   5.3683e-17 
     4463.8   4.8148e-17 
   4465.325    5.114e-17 
    4466.85    4.741e-17 
   4468.375   4.1175e-17 
     4469.9   4.1634e-17 
   4471.425   5.6449e-17 
    4472.95   5.8797e-17 
   4474.475   5.4059e-17 
     4476.0   4.4925e-17 
   4477.525   3.7753e-17 
    4479.05   3.6042e-17 
   4480.575   3.9541e-17 
     4482.1   3.4339e-17 
   4483.625   4.6388e-17 
    4485.15   5.9889e-17 
   4486.675   5.7297e-17 
     4488.2   4.6607e-17 
   4489.725   4.6192e-17 
    4491.25   4.7784e-17 
   4492.775   4.4979e-17 
     4494.3   3.4894e-17 
   4495.825   3.9529e-17 
    4497.35   5.5176e-17 
   4498.875    4.522e-17 
     4500.4   3.4139e-17 
   4501.925   5.2209e-17 
    4503.45   4.1202e-17 
   4504.975   2.8751e-17 
     4506.5   4.3613e-17 
   4508.025   4.5675e-17 
    4509.55   4.3652e-17 
   4511.075   3.9953e-17 
     4512.6    5.621e-17 
   4514.125   6.3567e-17 
    4515.65   5.3725e-17 
   4517.175   3.8469e-17 
     4518.7   3.8095e-17 
   4520.225   3.3665e-17 
    4521.75   4.4887e-17 
   4523.275   4.4339e-17 
     4524.8   4.7213e-17 
   4526.325   3.9635e-17 
    4527.85   3.9062e-17 
   4529.375   5.2445e-17 
     4530.9   5.7672e-17 
   4532.425   6.6497e-17 
    4533.95   5.1792e-17 
   4535.475   4.6757e-17 
     4537.0   4.7485e-17 
   4538.525   3.9854e-17 
    4540.05   4.6173e-17 
   4541.575   3.5945e-17 
     4543.1   4.7818e-17 
   4544.625   6.4465e-17 
    4546.15    3.872e-17 
   4547.675   4.7472e-17 
     4549.2    3.753e-17 
   4550.725   3.9482e-17 
    4552.25   5.0429e-17 
   4553.775   5.3263e-17 
     4555.3   5.2913e-17 
   4556.825   4.0418e-17 
    4558.35   4.5966e-17 
   4559.875   5.5763e-17 
     4561.4   4.9412e-17 
   4562.925   4.5059e-17 
    4564.45   4.1767e-17 
   4565.975   5.0327e-17 
     4567.5   4.5573e-17 
   4569.025   4.6322e-17 
    4570.55    5.379e-17 
   4572.075   4.9126e-17 
     4573.6   5.0056e-17 
   4575.125   4.2484e-17 
    4576.65   3.3427e-17 
   4578.175   3.5416e-17 
     4579.7   3.6159e-17 
   4581.225   3.6438e-17 
    4582.75   2.8989e-17 
   4584.275    2.447e-17 
     4585.8   4.5998e-17 
   4587.325   4.5518e-17 
    4588.85   5.9073e-17 
   4590.375    5.782e-17 
     4591.9   5.1955e-17 
   4593.425   5.9335e-17 
    4594.95    4.258e-17 
   4596.475   4.2003e-17 
     4598.0   4.9575e-17 
   4599.525   3.6771e-17 
    4601.05   4.1355e-17 
   4602.575   4.5894e-17 
     4604.1   4.2471e-17 
   4605.625   4.7164e-17 
    4607.15   4.4766e-17 
   4608.675   3.9861e-17 
     4610.2   4.0332e-17 
   4611.725   3.9849e-17 
    4613.25   6.1017e-17 
   4614.775   4.0759e-17 
     4616.3   2.9953e-17 
   4617.825   5.2507e-17 
    4619.35   4.4144e-17 
   4620.875   3.8239e-17 
     4622.4   5.2947e-17 
   4623.925   3.7663e-17 
    4625.45   5.3701e-17 
   4626.975    5.753e-17 
     4628.5   4.5997e-17 
   4630.025   4.0879e-17 
    4631.55   3.8577e-17 
   4633.075   3.7525e-17 
     4634.6   5.0224e-17 
   4636.125   4.4283e-17 
    4637.65   5.4104e-17 
   4639.175   5.6477e-17 
     4640.7   5.5287e-17 
   4642.225   4.7589e-17 
    4643.75   3.9358e-17 
   4645.275   4.2423e-17 
     4646.8   4.3314e-17 
   4648.325   3.3487e-17 
    4649.85   4.7784e-17 
   4651.375   5.4186e-17 
     4652.9   2.7214e-17 
   4654.425    4.829e-17 
    4655.95   5.0946e-17 
   4657.475   5.0187e-17 
     4659.0   4.2407e-17 
   4660.525   4.3596e-17 
    4662.05   4.1976e-17 
   4663.575   3.7896e-17 
     4665.1   2.9608e-17 
   4666.625   4.4198e-17 
    4668.15   6.0289e-17 
   4669.675   3.2467e-17 
     4671.2   4.1565e-17 
   4672.725   6.1103e-17 
    4674.25   3.7362e-17 
   4675.775     5.92e-17 
     4677.3   5.6615e-17 
   4678.825   4.3643e-17 
    4680.35   5.1654e-17 
   4681.875   5.5992e-17 
     4683.4   3.2187e-17 
   4684.925   4.0284e-17 
    4686.45   4.7865e-17 
   4687.975   4.9147e-17 
     4689.5   5.1679e-17 
   4691.025   4.3826e-17 
    4692.55   4.4413e-17 
   4694.075    6.041e-17 
     4695.6   4.7663e-17 
   4697.125   5.4677e-17 
    4698.65   5.9107e-17 
   4700.175   5.6887e-17 
     4701.7   4.5144e-17 
   4703.225    3.857e-17 
    4704.75   4.5064e-17 
   4706.275   4.8392e-17 
     4707.8   5.1661e-17 
   4709.325   4.9948e-17 
    4710.85   5.0594e-17 
   4712.375   5.1567e-17 
     4713.9   4.6086e-17 
   4715.425    5.172e-17 
    4716.95   5.1609e-17 
   4718.475   4.4872e-17 
     4720.0   5.1464e-17 
   4721.525   4.2935e-17 
    4723.05   5.1086e-17 
   4724.575   5.3155e-17 
     4726.1   6.8489e-17 
   4727.625   7.3285e-17 
    4729.15   5.4671e-17 
   4730.675   4.2656e-17 
     4732.2   4.0043e-17 
   4733.725   4.5758e-17 
    4735.25   4.6237e-17 
   4736.775   4.2475e-17 
     4738.3   5.1746e-17 
   4739.825   5.4999e-17 
    4741.35   6.0232e-17 
   4742.875   4.1279e-17 
     4744.4   4.6496e-17 
   4745.925   6.0271e-17 
    4747.45   5.9889e-17 
   4748.975   5.3569e-17 
     4750.5   5.7966e-17 
   4752.025   6.4747e-17 
    4753.55   5.2373e-17 
   4755.075    4.614e-17 
     4756.6   6.3313e-17 
   4758.125   5.4048e-17 
    4759.65   3.3207e-17 
   4761.175   4.6228e-17 
     4762.7   4.5494e-17 
   4764.225   4.4676e-17 
    4765.75   4.5589e-17 
   4767.275   4.9899e-17 
     4768.8   4.3653e-17 
   4770.325   5.3573e-17 
    4771.85   4.2356e-17 
   4773.375   4.4322e-17 
     4774.9   5.4538e-17 
   4776.425   4.7265e-17 
    4777.95   5.6283e-17 
   4779.475   6.1035e-17 
     4781.0   4.7342e-17 
   4782.525   5.7279e-17 
    4784.05   5.5116e-17 
   4785.575   4.8334e-17 
     4787.1   4.5804e-17 
   4788.625   4.9558e-17 
    4790.15   3.7351e-17 
   4791.675   3.9884e-17 
     4793.2   4.7006e-17 
   4794.725   5.2774e-17 
    4796.25    6.087e-17 
   4797.775   4.9862e-17 
     4799.3   5.1021e-17 
   4800.825   4.3803e-17 
    4802.35   6.1351e-17 
   4803.875   5.2197e-17 
     4805.4    5.895e-17 
   4806.925   7.0338e-17 
    4808.45   4.0549e-17 
   4809.975   2.1381e-17 
     4811.5   4.2955e-17 
   4813.025   6.6508e-17 
    4814.55   7.0175e-17 
   4816.075   5.3924e-17 
     4817.6   5.7109e-17 
   4819.125   6.1942e-17 
    4820.65   7.4127e-17 
   4822.175   5.1549e-17 
     4823.7   4.3881e-17 
   4825.225    5.004e-17 
    4826.75    5.436e-17 
   4828.275   4.7863e-17 
     4829.8   5.2523e-17 
   4831.325   5.5837e-17 
    4832.85   6.4821e-17 
   4834.375   5.8866e-17 
     4835.9    6.544e-17 
   4837.425   6.0529e-17 
    4838.95   5.4935e-17 
   4840.475   4.8043e-17 
     4842.0   5.6373e-17 
   4843.525   6.3153e-17 
    4845.05   4.7323e-17 
   4846.575   4.7684e-17 
     4848.1   6.0218e-17 
   4849.625   6.0706e-17 
    4851.15   7.4574e-17 
   4852.675    6.063e-17 
     4854.2   6.0502e-17 
   4855.725   7.1496e-17 
    4857.25   6.3143e-17 
   4858.775   6.7541e-17 
     4860.3   7.0733e-17 
   4861.825   5.9004e-17 
    4863.35   5.4292e-17 
   4864.875   5.7644e-17 
     4866.4   4.5615e-17 
   4867.925   6.6576e-17 
    4869.45   5.8768e-17 
   4870.975   7.7151e-17 
     4872.5   6.3396e-17 
   4874.025   7.1849e-17 
    4875.55   6.2943e-17 
   4877.075   4.1096e-17 
     4878.6   6.5186e-17 
   4880.125   7.0681e-17 
    4881.65   6.1697e-17 
   4883.175   6.0671e-17 
     4884.7   5.5314e-17 
   4886.225   5.6248e-17 
    4887.75   7.1614e-17 
   4889.275   7.0258e-17 
     4890.8   7.0777e-17 
   4892.325   6.7142e-17 
    4893.85   7.3535e-17 
   4895.375   6.7873e-17 
     4896.9   7.4546e-17 
   4898.425    5.751e-17 
    4899.95    6.715e-17 
   4901.475   7.8375e-17 
     4903.0   6.1485e-17 
   4904.525   6.9187e-17 
    4906.05    6.771e-17 
   4907.575   6.8549e-17 
     4909.1   7.3831e-17 
   4910.625   6.7692e-17 
    4912.15   6.7201e-17 
   4913.675   5.3112e-17 
     4915.2   8.1126e-17 
   4916.725   8.1876e-17 
    4918.25    8.297e-17 
   4919.775    6.983e-17 
     4921.3   7.0751e-17 
   4922.825   7.2977e-17 
    4924.35   7.5339e-17 
   4925.875   7.7342e-17 
     4927.4   6.9847e-17 
   4928.925   7.2528e-17 
    4930.45   6.9607e-17 
   4931.975   8.0332e-17 
     4933.5   8.6487e-17 
   4935.025   8.4917e-17 
    4936.55   9.6211e-17 
   4938.075   7.8338e-17 
     4939.6   8.0048e-17 
   4941.125   8.3091e-17 
    4942.65   7.5518e-17 
   4944.175   7.1154e-17 
     4945.7   6.3651e-17 
   4947.225   7.4106e-17 
    4948.75   6.9031e-17 
   4950.275   6.9915e-17 
     4951.8   8.1164e-17 
   4953.325   9.2195e-17 
    4954.85   8.6575e-17 
   4956.375   9.3563e-17 
     4957.9   7.5698e-17 
   4959.425    7.858e-17 
    4960.95   7.1772e-17 
   4962.475   7.0545e-17 
     4964.0   6.8759e-17 
   4965.525   6.0101e-17 
    4967.05   7.0394e-17 
   4968.575    7.301e-17 
     4970.1    8.806e-17 
   4971.625   5.5141e-17 
    4973.15   6.9735e-17 
   4974.675   7.4779e-17 
     4976.2    7.324e-17 
   4977.725   7.1446e-17 
    4979.25   6.6111e-17 
   4980.775   5.0287e-17 
     4982.3   5.9063e-17 
   4983.825   4.9565e-17 
    4985.35   7.7379e-17 
   4986.875   7.0216e-17 
     4988.4   7.3443e-17 
   4989.925   8.0867e-17 
    4991.45   5.3816e-17 
   4992.975   8.6617e-17 
     4994.5   8.9812e-17 
   4996.025   8.0526e-17 
    4997.55   7.4603e-17 
   4999.075   7.5768e-17 
     5000.6   7.5298e-17 
   5002.125   7.8047e-17 
    5003.65   8.1454e-17 
   5005.175   8.0611e-17 
     5006.7   7.9268e-17 
   5008.225   7.5757e-17 
    5009.75   7.6394e-17 
   5011.275   8.0827e-17 
     5012.8   7.3671e-17 
   5014.325   6.2749e-17 
    5015.85   5.5438e-17 
   5017.375   6.5984e-17 
     5018.9   7.6161e-17 
   5020.425   6.7718e-17 
    5021.95    6.103e-17 
   5023.475   6.2577e-17 
     5025.0   9.1475e-17 
   5026.525   7.9739e-17 
    5028.05   7.1586e-17 
   5029.575   6.0055e-17 
     5031.1   7.0865e-17 
   5032.625   8.4556e-17 
    5034.15   6.7525e-17 
   5035.675    5.864e-17 
     5037.2   7.1246e-17 
   5038.725   7.8587e-17 
    5040.25   7.5318e-17 
   5041.775   5.5312e-17 
     5043.3   6.9051e-17 
   5044.825   7.1297e-17 
    5046.35   7.6781e-17 
   5047.875   6.3824e-17 
     5049.4   7.6547e-17 
   5050.925   5.9828e-17 
    5052.45   7.9172e-17 
   5053.975   7.7398e-17 
     5055.5   5.8208e-17 
   5057.025   6.5776e-17 
    5058.55   6.7186e-17 
   5060.075   7.4141e-17 
     5061.6   6.7836e-17 
   5063.125   5.9052e-17 
    5064.65   7.8621e-17 
   5066.175   7.6453e-17 
     5067.7   7.7857e-17 
   5069.225   5.7734e-17 
    5070.75   6.4452e-17 
   5072.275   6.4704e-17 
     5073.8   6.3953e-17 
   5075.325   5.7395e-17 
    5076.85      6.6e-17 
   5078.375   7.6307e-17 
     5079.9   8.5219e-17 
   5081.425   7.4463e-17 
    5082.95   7.1921e-17 
   5084.475   7.2933e-17 
     5086.0   6.7146e-17 
   5087.525   7.9207e-17 
    5089.05   7.1808e-17 
   5090.575   6.0527e-17 
     5092.1   6.5102e-17 
   5093.625   6.3346e-17 
    5095.15   6.3432e-17 
   5096.675   6.5058e-17 
     5098.2   5.8841e-17 
   5099.725   5.0291e-17 
    5101.25   5.2564e-17 
   5102.775   3.7364e-17 
     5104.3   5.1171e-17 
   5105.825   6.8326e-17 
    5107.35   7.4035e-17 
   5108.875   6.4699e-17 
     5110.4   6.0638e-17 
   5111.925   6.1541e-17 
    5113.45   5.9437e-17 
   5114.975   4.7367e-17 
     5116.5   4.6225e-17 
   5118.025   5.7691e-17 
    5119.55   5.8501e-17 
   5121.075   5.7788e-17 
     5122.6   7.4423e-17 
   5124.125   6.2145e-17 
    5125.65   5.9282e-17 
   5127.175   4.9604e-17 
     5128.7   6.3837e-17 
   5130.225   7.7011e-17 
    5131.75    6.184e-17 
   5133.275   5.7332e-17 
     5134.8   6.3414e-17 
   5136.325   6.4366e-17 
    5137.85    4.883e-17 
   5139.375   4.6949e-17 
     5140.9   6.1684e-17 
   5142.425   5.3725e-17 
    5143.95   5.6897e-17 
   5145.475   6.3162e-17 
     5147.0   7.2402e-17 
   5148.525   6.8725e-17 
    5150.05   4.7634e-17 
   5151.575   5.3459e-17 
     5153.1   6.2262e-17 
   5154.625   6.8489e-17 
    5156.15   5.2715e-17 
   5157.675   5.9556e-17 
     5159.2   6.2864e-17 
   5160.725   5.4459e-17 
    5162.25   6.5861e-17 
   5163.775   7.1419e-17 
     5165.3   6.3534e-17 
   5166.825   6.3458e-17 
    5168.35   5.9512e-17 
   5169.875   6.0051e-17 
     5171.4   7.0711e-17 
   5172.925   6.7901e-17 
    5174.45   5.3688e-17 
   5175.975   4.0129e-17 
     5177.5   5.5932e-17 
   5179.025   5.9758e-17 
    5180.55   7.2626e-17 
   5182.075   5.8106e-17 
     5183.6   5.5577e-17 
   5185.125   5.6449e-17 
    5186.65   7.0568e-17 
   5188.175   6.9914e-17 
     5189.7   7.4474e-17 
   5191.225   5.8533e-17 
    5192.75   7.1793e-17 
   5194.275    6.681e-17 
     5195.8   5.7689e-17 
   5197.325   5.1563e-17 
    5198.85    5.575e-17 
   5200.375   6.1272e-17 
     5201.9   5.0445e-17 
   5203.425   4.9302e-17 
    5204.95   6.1547e-17 
   5206.475   6.6521e-17 
     5208.0   6.3554e-17 
   5209.525   5.3846e-17 
    5211.05   5.2083e-17 
   5212.575   5.2689e-17 
     5214.1   5.9387e-17 
   5215.625    7.032e-17 
    5217.15    7.032e-17 
   5218.675   6.7958e-17 
     5220.2   6.9247e-17 
   5221.725   6.7941e-17 
    5223.25   6.3867e-17 
   5224.775   5.4672e-17 
     5226.3   6.5713e-17 
   5227.825   6.9675e-17 
    5229.35   5.3223e-17 
   5230.875   5.0472e-17 
     5232.4   6.3729e-17 
   5233.925   6.9224e-17 
    5235.45   8.1974e-17 
   5236.975   5.9991e-17 
     5238.5   6.1828e-17 
   5240.025   5.0386e-17 
    5241.55   5.8966e-17 
   5243.075   7.5916e-17 
     5244.6   8.6538e-17 
   5246.125   7.0722e-17 
    5247.65   6.2414e-17 
   5249.175   7.1804e-17 
     5250.7   6.2394e-17 
   5252.225   6.4017e-17 
    5253.75   7.4371e-17 
   5255.275   7.7895e-17 
     5256.8   7.5959e-17 
   5258.325    5.703e-17 
    5259.85   7.0257e-17 
   5261.375   6.2901e-17 
     5262.9   4.6125e-17 
   5264.425   4.4949e-17 
    5265.95   5.1561e-17 
   5267.475   4.2609e-17 
     5269.0   5.1052e-17 
   5270.525   7.1092e-17 
    5272.05   6.2226e-17 
   5273.575   5.1777e-17 
     5275.1   7.4089e-17 
   5276.625   6.4404e-17 
    5278.15   6.1448e-17 
   5279.675   6.2737e-17 
     5281.2   5.6715e-17 
   5282.725   6.4741e-17 
    5284.25    6.987e-17 
   5285.775   7.3541e-17 
     5287.3    7.536e-17 
   5288.825   6.5318e-17 
    5290.35   7.0343e-17 
   5291.875    7.019e-17 
     5293.4   6.4769e-17 
   5294.925   5.9288e-17 
    5296.45   8.0806e-17 
   5297.975   7.4884e-17 
     5299.5   5.1231e-17 
   5301.025   7.7483e-17 
    5302.55   7.0429e-17 
   5304.075   6.3976e-17 
     5305.6    5.931e-17 
   5307.125   6.3147e-17 
    5308.65    6.509e-17 
   5310.175   7.0954e-17 
     5311.7   7.2557e-17 
   5313.225   8.7423e-17 
    5314.75   7.5548e-17 
   5316.275    7.358e-17 
     5317.8    7.199e-17 
   5319.325   7.0649e-17 
    5320.85   6.2196e-17 
   5322.375   6.1883e-17 
     5323.9   6.6452e-17 
   5325.425   5.8603e-17 
    5326.95   6.4997e-17 
   5328.475   7.8845e-17 
     5330.0    7.461e-17 
   5331.525   5.5786e-17 
    5333.05    7.001e-17 
   5334.575   5.8521e-17 
     5336.1   7.0857e-17 
   5337.625   9.1142e-17 
    5339.15   8.6675e-17 
   5340.675   6.6851e-17 
     5342.2   6.1033e-17 
   5343.725   7.3245e-17 
    5345.25   9.5806e-17 
   5346.775   8.8245e-17 
     5348.3   6.0862e-17 
   5349.825   7.2067e-17 
    5351.35   7.1464e-17 
   5352.875   6.0256e-17 
     5354.4   7.6393e-17 
   5355.925   8.0146e-17 
    5357.45   5.8284e-17 
   5358.975   5.7598e-17 
     5360.5    6.796e-17 
   5362.025    8.051e-17 
    5363.55   7.0167e-17 
   5365.075   6.7782e-17 
     5366.6   9.2554e-17 
   5368.125    7.627e-17 
    5369.65   5.7618e-17 
   5371.175   7.6168e-17 
     5372.7   7.7128e-17 
   5374.225   7.4801e-17 
    5375.75    6.584e-17 
   5377.275   6.9054e-17 
     5378.8   5.9804e-17 
   5380.325   7.0801e-17 
    5381.85     6.54e-17 
   5383.375   7.2214e-17 
     5384.9   6.7298e-17 
   5386.425   7.2651e-17 
    5387.95   6.7722e-17 
   5389.475   6.2822e-17 
     5391.0   6.6108e-17 
   5392.525   6.2031e-17 
    5394.05   7.8596e-17 
   5395.575   6.6571e-17 
     5397.1   6.6402e-17 
   5398.625   5.7702e-17 
    5400.15   6.1545e-17 
   5401.675   6.5666e-17 
     5403.2   7.3703e-17 
   5404.725     8.68e-17 
    5406.25     8.44e-17 
   5407.775   6.4858e-17 
     5409.3    6.126e-17 
   5410.825   6.0377e-17 
    5412.35   6.6208e-17 
   5413.875   7.0961e-17 
     5415.4   4.9653e-17 
   5416.925   6.6557e-17 
    5418.45   7.4951e-17 
   5419.975    6.435e-17 
     5421.5   7.1329e-17 
   5423.025   5.8005e-17 
    5424.55   5.4506e-17 
   5426.075   4.9926e-17 
     5427.6    6.553e-17 
   5429.125   7.5954e-17 
    5430.65   7.6966e-17 
   5432.175   6.2486e-17 
     5433.7     6.55e-17 
   5435.225   9.0095e-17 
    5436.75    8.233e-17 
   5438.275   6.3057e-17 
     5439.8   5.4734e-17 
   5441.325    4.218e-17 
    5442.85   3.4721e-17 
   5444.375   5.9997e-17 
     5445.9   8.0501e-17 
   5447.425   6.0666e-17 
    5448.95   6.1706e-17 
   5450.475   6.8648e-17 
     5452.0   7.9718e-17 
   5453.525   8.6695e-17 
    5455.05   5.8296e-17 
   5456.575   2.7624e-17 
     5458.1   6.0143e-17 
   5459.625   5.7334e-17 
    5461.15   4.4516e-17 
   5462.675   7.2733e-17 
     5464.2   5.0685e-17 
   5465.725   8.5592e-17 
    5467.25   8.6047e-17 
   5468.775   5.6675e-17 
     5470.3   5.7543e-17 
   5471.825   6.1709e-17 
    5473.35   7.6775e-17 
   5474.875    9.277e-17 
     5476.4   7.1052e-17 
   5477.925   6.2886e-17 
    5479.45   7.4772e-17 
   5480.975   6.1251e-17 
     5482.5   2.5739e-17 
   5484.025   5.1345e-17 
    5485.55   6.1358e-17 
   5487.075   3.5618e-17 
     5488.6   4.8864e-17 
   5490.125   5.9829e-17 
    5491.65   6.6607e-17 
   5493.175   7.9818e-17 
     5494.7   7.7476e-17 
   5496.225   4.7409e-17 
    5497.75   5.8454e-17 
   5499.275   8.2597e-17 
     5500.8    6.701e-17 
   5502.325   5.9453e-17 
    5503.85   5.2445e-17 
   5505.375   4.8121e-17 
     5506.9   6.0957e-17 
   5508.425   7.2585e-17 
    5509.95   6.2309e-17 
   5511.475   6.8147e-17 
     5513.0    7.566e-17 
   5514.525   7.1104e-17 
    5516.05   7.0198e-17 
   5517.575    6.808e-17 
     5519.1   6.4252e-17 
   5520.625   7.6249e-17 
    5522.15    7.532e-17 
   5523.675    5.344e-17 
     5525.2   5.4931e-17 
   5526.725   7.6865e-17 
    5528.25   7.4637e-17 
   5529.775   5.6452e-17 
     5531.3    6.412e-17 
   5532.825   6.9858e-17 
    5534.35   6.7606e-17 
   5535.875    7.639e-17 
     5537.4   7.3915e-17 
   5538.925   7.8973e-17 
    5540.45    7.928e-17 
   5541.975   6.7126e-17 
     5543.5   6.1841e-17 
   5545.025   6.1493e-17 
    5546.55   6.7091e-17 
   5548.075   6.8222e-17 
     5549.6   6.2474e-17 
   5551.125   6.9884e-17 
    5552.65    6.474e-17 
   5554.175   6.3372e-17 
     5555.7    7.844e-17 
   5557.225   7.7689e-17 
    5558.75   7.0245e-17 
   5560.275   6.7491e-17 
     5561.8   6.8759e-17 
   5563.325   6.6447e-17 
    5564.85   6.1318e-17 
   5566.375   6.3689e-17 
     5567.9   6.6844e-17 
   5569.425   6.6959e-17 
    5570.95   7.6011e-17 
   5572.475   8.1113e-17 
     5574.0   9.2231e-17 
   5575.525   1.1821e-16 
    5577.05   1.1293e-16 
   5578.575    7.776e-17 
     5580.1   7.5552e-17 
   5581.625   8.2084e-17 
    5583.15   7.4147e-17 
   5584.675   8.4516e-17 
     5586.2   9.4607e-17 
   5587.725   9.0566e-17 
    5589.25   7.0597e-17 
   5590.775   5.4078e-17 
     5592.3   6.0448e-17 
   5593.825   8.1506e-17 
    5595.35   7.7753e-17 
   5596.875   7.4801e-17 
     5598.4   7.9261e-17 
   5599.925   9.9265e-17 
    5601.45   1.0311e-16 
   5602.975   7.4258e-17 
     5604.5   7.4376e-17 
   5606.025   8.7766e-17 
    5607.55   8.7128e-17 
   5609.075   8.4204e-17 
     5610.6   8.1647e-17 
   5612.125   7.3807e-17 
    5613.65   8.0133e-17 
   5615.175   8.3204e-17 
     5616.7   6.8897e-17 
   5618.225   8.2445e-17 
    5619.75   8.4904e-17 
   5621.275   8.7083e-17 
     5622.8   7.7526e-17 
   5624.325   7.9257e-17 
    5625.85   8.7113e-17 
   5627.375    8.933e-17 
     5628.9   8.5332e-17 
   5630.425   8.6071e-17 
    5631.95   9.7542e-17 
   5633.475   9.7257e-17 
     5635.0   8.0149e-17 
   5636.525   7.9013e-17 
    5638.05   8.9819e-17 
   5639.575   8.0751e-17 
     5641.1   8.1553e-17 
   5642.625   9.1921e-17 
    5644.15   8.3303e-17 
   5645.675   8.4867e-17 
     5647.2   7.7684e-17 
   5648.725   8.7519e-17 
    5650.25   8.6145e-17 
   5651.775   8.4604e-17 
     5653.3   8.5836e-17 
   5654.825   7.4133e-17 
    5656.35   7.9528e-17 
   5657.875   8.6612e-17 
     5659.4   8.5248e-17 
   5660.925    7.984e-17 
    5662.45   7.3349e-17 
   5663.975   8.2879e-17 
     5665.5   8.4883e-17 
   5667.025   7.1368e-17 
    5668.55   7.8773e-17 
   5670.075   8.5532e-17 
     5671.6   9.3871e-17 
   5673.125   8.7663e-17 
    5674.65   8.3247e-17 
   5676.175   8.9387e-17 
     5677.7   1.0211e-16 
   5679.225   1.2186e-16 
    5680.75   1.1381e-16 
   5682.275    9.344e-17 
     5683.8   8.4114e-17 
   5685.325   8.8285e-17 
    5686.85   1.0807e-16 
   5688.375   9.3526e-17 
     5689.9   7.1953e-17 
   5691.425    7.331e-17 
    5692.95   7.9142e-17 
   5694.475   7.9449e-17 
     5696.0   8.5414e-17 
   5697.525   9.8361e-17 
    5699.05   9.5495e-17 
   5700.575   9.0456e-17 
     5702.1   9.2951e-17 
   5703.625   8.7478e-17 
    5705.15   1.0408e-16 
   5706.675   1.0197e-16 
     5708.2   8.3307e-17 
   5709.725   8.6819e-17 
    5711.25   8.8525e-17 
   5712.775   9.1657e-17 
     5714.3   9.6912e-17 
   5715.825   9.2045e-17 
    5717.35   8.7636e-17 
   5718.875   9.0256e-17 
     5720.4   9.6688e-17 
   5721.925   1.0545e-16 
    5723.45   9.3062e-17 
   5724.975   8.2955e-17 
     5726.5   8.7617e-17 
   5728.025   9.3435e-17 
    5729.55   9.7958e-17 
   5731.075   9.5698e-17 
     5732.6   9.3169e-17 
   5734.125   8.6594e-17 
    5735.65   8.7047e-17 
   5737.175   9.5112e-17 
     5738.7   9.4183e-17 
   5740.225   9.7683e-17 
    5741.75   9.5591e-17 
   5743.275   8.2023e-17 
     5744.8   9.3273e-17 
   5746.325   1.0758e-16 
    5747.85   9.6242e-17 
   5749.375   9.0454e-17 
     5750.9   8.8919e-17 
   5752.425   8.4346e-17 
    5753.95   9.1621e-17 
   5755.475   9.3724e-17 
     5757.0   8.8832e-17 
   5758.525   9.3898e-17 
    5760.05   8.5233e-17 
   5761.575   7.3769e-17 
     5763.1   8.7441e-17 
   5764.625   1.0519e-16 
    5766.15   1.0105e-16 
   5767.675   1.0521e-16 
     5769.2   1.0752e-16 
   5770.725   9.5886e-17 
    5772.25   8.3936e-17 
   5773.775   8.7741e-17 
     5775.3   9.6337e-17 
   5776.825    8.911e-17 
    5778.35   8.7765e-17 
   5779.875   8.2864e-17 
     5781.4    7.822e-17 
   5782.925   8.4735e-17 
    5784.45   9.4202e-17 
   5785.975   1.0582e-16 
     5787.5   1.0677e-16 
   5789.025   9.6425e-17 
    5790.55   9.3647e-17 
   5792.075   9.5606e-17 
     5793.6    8.833e-17 
   5795.125    7.364e-17 
    5796.65   7.2032e-17 
   5798.175   7.6439e-17 
     5799.7   9.1087e-17 
   5801.225   1.0022e-16 
    5802.75   8.3462e-17 
   5804.275   7.9209e-17 
     5805.8   9.4124e-17 
   5807.325   9.5548e-17 
    5808.85   8.7904e-17 
   5810.375   8.9029e-17 
     5811.9   9.3547e-17 
   5813.425   9.0702e-17 
    5814.95   8.4186e-17 
   5816.475   8.9029e-17 
     5818.0    8.437e-17 
   5819.525   8.0492e-17 
    5821.05   9.0571e-17 
   5822.575   8.6134e-17 
     5824.1   8.9312e-17 
   5825.625   9.7402e-17 
    5827.15   8.9503e-17 
   5828.675    7.817e-17 
     5830.2    6.992e-17 
   5831.725   8.0586e-17 
    5833.25   9.6063e-17 
   5834.775   9.5629e-17 
     5836.3   8.3507e-17 
   5837.825   7.3897e-17 
    5839.35   8.4012e-17 
   5840.875   9.8789e-17 
     5842.4   9.2561e-17 
   5843.925   8.2049e-17 
    5845.45   8.7551e-17 
   5846.975    9.283e-17 
     5848.5   9.6606e-17 
   5850.025   8.1223e-17 
    5851.55   7.1257e-17 
   5853.075   9.4328e-17 
     5854.6   9.9196e-17 
   5856.125   9.2664e-17 
    5857.65   9.0607e-17 
   5859.175   8.4227e-17 
     5860.7   8.5616e-17 
   5862.225   8.6511e-17 
    5863.75   8.5208e-17 
   5865.275   8.3424e-17 
     5866.8   7.6662e-17 
   5868.325   8.3983e-17 
    5869.85   9.5287e-17 
   5871.375   8.9574e-17 
     5872.9   9.0893e-17 
   5874.425   1.0018e-16 
    5875.95   1.0368e-16 
   5877.475   1.0289e-16 
     5879.0   9.4162e-17 
   5880.525   8.6881e-17 
    5882.05   8.3555e-17 
   5883.575   8.4317e-17 
     5885.1   1.0702e-16 
   5886.625   1.2319e-16 
    5888.15   9.3837e-17 
   5889.675   7.5204e-17 
     5891.2   7.5099e-17 
   5892.725   7.0598e-17 
    5894.25   1.1549e-16 
   5895.775   1.3665e-16 
     5897.3   8.8251e-17 
   5898.825   6.1168e-17 
    5900.35    7.982e-17 
   5901.875   9.5426e-17 
     5903.4   8.5475e-17 
   5904.925   8.5294e-17 
    5906.45   8.3161e-17 
   5907.975   8.2654e-17 
     5909.5   1.0136e-16 
   5911.025   1.0479e-16 
    5912.55   1.0732e-16 
   5914.075   1.0506e-16 
     5915.6   8.7734e-17 
   5917.125    8.602e-17 
    5918.65   8.5392e-17 
   5920.175   8.4785e-17 
     5921.7   9.8492e-17 
   5923.225   1.0748e-16 
    5924.75   1.0486e-16 
   5926.275   9.6986e-17 
     5927.8   8.3176e-17 
   5929.325   7.7854e-17 
    5930.85   8.3685e-17 
   5932.375   9.0968e-17 
     5933.9   9.6102e-17 
   5935.425   9.7737e-17 
    5936.95   1.0059e-16 
   5938.475   9.1088e-17 
     5940.0   8.6838e-17 
   5941.525   9.4785e-17 
    5943.05   9.3611e-17 
   5944.575    9.289e-17 
     5946.1   8.5186e-17 
   5947.625   7.4153e-17 
    5949.15   8.2449e-17 
   5950.675   9.4123e-17 
     5952.2   9.5296e-17 
   5953.725   9.3679e-17 
    5955.25   9.2012e-17 
   5956.775   9.2584e-17 
     5958.3   9.6117e-17 
   5959.825   9.2529e-17 
    5961.35   8.4613e-17 
   5962.875   7.9214e-17 
     5964.4   8.2712e-17 
   5965.925   9.0402e-17 
    5967.45   8.5607e-17 
   5968.975   8.2533e-17 
     5970.5   8.9818e-17 
   5972.025   8.5275e-17 
    5973.55   7.7544e-17 
   5975.075   8.3387e-17 
     5976.6   9.1037e-17 
   5978.125   8.7303e-17 
    5979.65   9.2598e-17 
   5981.175   1.0941e-16 
     5982.7   1.0266e-16 
   5984.225   8.0894e-17 
    5985.75   8.2458e-17 
   5987.275   9.5676e-17 
     5988.8   9.3048e-17 
   5990.325   8.9305e-17 
    5991.85   8.4261e-17 
   5993.375   8.1104e-17 
     5994.9   7.2734e-17 
   5996.425   6.9768e-17 
    5997.95   8.7409e-17 
   5999.475   9.0794e-17 
     6001.0   8.4299e-17 
   6002.525   8.5835e-17 
    6004.05    8.392e-17 
   6005.575   7.1005e-17 
     6007.1   6.9753e-17 
   6008.625   8.6721e-17 
    6010.15   8.5796e-17 
   6011.675   7.3383e-17 
     6013.2   7.6009e-17 
   6014.725   7.6157e-17 
    6016.25   8.1916e-17 
   6017.775   9.0874e-17 
     6019.3   7.7739e-17 
   6020.825   7.8817e-17 
    6022.35   9.2035e-17 
   6023.875   8.1533e-17 
     6025.4    7.619e-17 
   6026.925   8.3272e-17 
    6028.45   8.4431e-17 
   6029.975   9.1766e-17 
     6031.5   1.0224e-16 
   6033.025   9.5247e-17 
    6034.55   8.3802e-17 
   6036.075   8.2422e-17 
     6037.6   8.3871e-17 
   6039.125   7.7495e-17 
    6040.65   8.0424e-17 
   6042.175    9.415e-17 
     6043.7   9.8554e-17 
   6045.225     9.99e-17 
    6046.75   9.9327e-17 
   6048.275   9.2187e-17 
     6049.8   9.3896e-17 
   6051.325    9.308e-17 
    6052.85   9.2865e-17 
   6054.375   1.0636e-16 
     6055.9   8.7872e-17 
   6057.425   6.7588e-17 
    6058.95   8.3467e-17 
   6060.475   9.3676e-17 
     6062.0    9.179e-17 
   6063.525   8.3786e-17 
    6065.05   7.8882e-17 
   6066.575   8.8901e-17 
     6068.1   8.0984e-17 
   6069.625   7.8149e-17 
    6071.15   7.6921e-17 
   6072.675   6.2309e-17 
     6074.2   7.6088e-17 
   6075.725   8.5437e-17 
    6077.25   8.6303e-17 
   6078.775   9.6389e-17 
     6080.3    9.228e-17 
   6081.825   8.1009e-17 
    6083.35   8.7826e-17 
   6084.875   9.4708e-17 
     6086.4   8.2755e-17 
   6087.925   7.7063e-17 
    6089.45   7.1331e-17 
   6090.975   7.2298e-17 
     6092.5   8.8192e-17 
   6094.025   8.9962e-17 
    6095.55   9.1425e-17 
   6097.075   8.4441e-17 
     6098.6   6.5855e-17 
   6100.125   6.1699e-17 
    6101.65   7.0949e-17 
   6103.175   8.1843e-17 
     6104.7    8.339e-17 
   6106.225   7.8233e-17 
    6107.75   7.3891e-17 
   6109.275   7.6447e-17 
     6110.8   8.4712e-17 
   6112.325   8.5044e-17 
    6113.85   7.3598e-17 
   6115.375   7.2546e-17 
     6116.9   8.1365e-17 
   6118.425   7.5282e-17 
    6119.95    7.368e-17 
   6121.475   7.9333e-17 
     6123.0   7.3489e-17 
   6124.525   7.8127e-17 
    6126.05   8.5534e-17 
   6127.575   7.3481e-17 
     6129.1   7.1018e-17 
   6130.625   7.8685e-17 
    6132.15   7.3615e-17 
   6133.675   6.8113e-17 
     6135.2   7.7365e-17 
   6136.725   8.0481e-17 
    6138.25   7.7279e-17 
   6139.775   7.5996e-17 
     6141.3   6.4346e-17 
   6142.825   6.0957e-17 
    6144.35    7.071e-17 
   6145.875   7.7581e-17 
     6147.4   7.2585e-17 
   6148.925   7.4653e-17 
    6150.45   8.0255e-17 
   6151.975   8.0042e-17 
     6153.5   8.2422e-17 
   6155.025   7.2136e-17 
    6156.55    7.162e-17 
   6158.075   8.6947e-17 
     6159.6   8.4722e-17 
   6161.125   7.2592e-17 
    6162.65   7.1398e-17 
   6164.175   7.5725e-17 
     6165.7   8.0301e-17 
   6167.225   7.4376e-17 
    6168.75   6.2464e-17 
   6170.275   6.6642e-17 
     6171.8   8.0286e-17 
   6173.325   8.5079e-17 
    6174.85   8.1481e-17 
   6176.375   8.2405e-17 
     6177.9   8.1249e-17 
   6179.425   7.9381e-17 
    6180.95   7.9626e-17 
   6182.475    7.161e-17 
     6184.0   7.4344e-17 
   6185.525   8.5226e-17 
    6187.05   8.5547e-17 
   6188.575   8.3898e-17 
     6190.1   8.1393e-17 
   6191.625   7.5314e-17 
    6193.15   6.7321e-17 
   6194.675   7.0153e-17 
     6196.2    7.763e-17 
   6197.725   7.6276e-17 
    6199.25   8.1727e-17 
   6200.775   8.4799e-17 
     6202.3   8.3523e-17 
   6203.825   8.3232e-17 
    6205.35   8.3636e-17 
   6206.875   8.1572e-17 
     6208.4   7.0151e-17 
   6209.925    6.765e-17 
    6211.45   7.7564e-17 
   6212.975   8.7109e-17 
     6214.5   9.0262e-17 
   6216.025    8.133e-17 
    6217.55   8.0042e-17 
   6219.075   7.7441e-17 
     6220.6   6.8188e-17 
   6222.125    6.985e-17 
    6223.65   7.5467e-17 
   6225.175   7.9991e-17 
     6226.7   7.9195e-17 
   6228.225   7.0314e-17 
    6229.75   6.8455e-17 
   6231.275   7.8267e-17 
     6232.8   7.6443e-17 
   6234.325   7.0965e-17 
    6235.85   7.4686e-17 
   6237.375   8.0877e-17 
     6238.9   8.6374e-17 
   6240.425   8.4888e-17 
    6241.95   7.8867e-17 
   6243.475   7.6381e-17 
     6245.0   8.0695e-17 
   6246.525   8.3626e-17 
    6248.05   9.1847e-17 
   6249.575   9.5609e-17 
     6251.1   8.2414e-17 
   6252.625   8.2888e-17 
    6254.15   8.7894e-17 
   6255.675   8.3434e-17 
     6257.2   8.3523e-17 
   6258.725   9.1205e-17 
    6260.25    9.159e-17 
   6261.775   8.4611e-17 
     6263.3   8.6963e-17 
   6264.825   9.4437e-17 
    6266.35   9.1811e-17 
   6267.875    8.203e-17 
     6269.4   7.9049e-17 
   6270.925   7.9943e-17 
    6272.45   8.3089e-17 
   6273.975    8.299e-17 
     6275.5   7.8428e-17 
   6277.025   7.9155e-17 
    6278.55   8.0991e-17 
   6280.075   8.0397e-17 
     6281.6    6.871e-17 
   6283.125   6.8224e-17 
    6284.65   9.1684e-17 
   6286.175   9.4598e-17 
     6287.7   8.3343e-17 
   6289.225    8.298e-17 
    6290.75   8.4119e-17 
   6292.275   8.2564e-17 
     6293.8   7.7441e-17 
   6295.325   9.3164e-17 
    6296.85    1.065e-16 
   6298.375   9.5691e-17 
     6299.9   1.0279e-16 
   6301.425   9.7041e-17 
    6302.95   7.6413e-17 
   6304.475   8.4227e-17 
     6306.0   9.0813e-17 
   6307.525   7.6903e-17 
    6309.05   6.8935e-17 
   6310.575   8.3989e-17 
     6312.1   8.7749e-17 
   6313.625    7.386e-17 
    6315.15   7.4636e-17 
   6316.675   7.5225e-17 
     6318.2   7.3589e-17 
   6319.725   7.5211e-17 
    6321.25   7.7977e-17 
   6322.775   7.9731e-17 
     6324.3   7.3963e-17 
   6325.825   7.6166e-17 
    6327.35   8.5221e-17 
   6328.875   8.5696e-17 
     6330.4    8.475e-17 
   6331.925   8.9592e-17 
    6333.45   8.4295e-17 
   6334.975   7.8284e-17 
     6336.5   8.3177e-17 
   6338.025   9.2155e-17 
    6339.55   9.9178e-17 
   6341.075   8.8919e-17 
     6342.6   7.3256e-17 
   6344.125   7.5746e-17 
    6345.65   8.5748e-17 
   6347.175   8.5979e-17 
     6348.7   8.4066e-17 
   6350.225   9.0515e-17 
    6351.75   9.0963e-17 
   6353.275   8.6225e-17 
     6354.8   8.8085e-17 
   6356.325   7.8925e-17 
    6357.85   7.7709e-17 
   6359.375   9.0666e-17 
     6360.9   9.6653e-17 
   6362.425   9.4267e-17 
    6363.95   8.8262e-17 
   6365.475   9.1249e-17 
     6367.0   8.6529e-17 
   6368.525   8.4112e-17 
    6370.05   9.0627e-17 
   6371.575   9.2843e-17 
     6373.1   9.5749e-17 
   6374.625   9.1179e-17 
    6376.15   8.2708e-17 
   6377.675   9.0748e-17 
     6379.2   9.8147e-17 
   6380.725   8.8524e-17 
    6382.25   8.4635e-17 
   6383.775   9.3647e-17 
     6385.3   9.6774e-17 
   6386.825   8.1515e-17 
    6388.35   7.7588e-17 
   6389.875   9.1003e-17 
     6391.4   9.1362e-17 
   6392.925   8.7052e-17 
    6394.45   8.6781e-17 
   6395.975   8.3719e-17 
     6397.5   8.3427e-17 
   6399.025   8.8548e-17 
    6400.55   9.6941e-17 
   6402.075   9.9029e-17 
     6403.6   8.8915e-17 
   6405.125   8.5085e-17 
    6406.65   8.0015e-17 
   6408.175   7.3549e-17 
     6409.7   8.6264e-17 
   6411.225   9.7129e-17 
    6412.75   8.9847e-17 
   6414.275   8.1405e-17 
     6415.8   9.0063e-17 
   6417.325   9.3815e-17 
    6418.85   8.7821e-17 
   6420.375   9.4094e-17 
     6421.9   9.5005e-17 
   6423.425    8.712e-17 
    6424.95   8.5101e-17 
   6426.475    8.466e-17 
     6428.0    8.577e-17 
   6429.525   8.7065e-17 
    6431.05   8.5446e-17 
   6432.575   8.8527e-17 
     6434.1    8.202e-17 
   6435.625   7.2666e-17 
    6437.15   8.4765e-17 
   6438.675   9.4941e-17 
     6440.2   9.0868e-17 
   6441.725   8.8043e-17 
    6443.25   8.8511e-17 
   6444.775   9.2419e-17 
     6446.3   8.7511e-17 
   6447.825   8.3812e-17 
    6449.35   8.8788e-17 
   6450.875   8.5526e-17 
     6452.4   8.3106e-17 
   6453.925   8.0461e-17 
    6455.45   7.8141e-17 
   6456.975    7.968e-17 
     6458.5   7.8551e-17 
   6460.025   7.3997e-17 
    6461.55   7.9984e-17 
   6463.075   9.2076e-17 
     6464.6   9.6622e-17 
   6466.125   9.1438e-17 
    6467.65    8.597e-17 
   6469.175   9.2848e-17 
     6470.7   9.7467e-17 
   6472.225   8.4569e-17 
    6473.75   7.8545e-17 
   6475.275   8.4876e-17 
     6476.8   7.6709e-17 
   6478.325   7.2189e-17 
    6479.85   7.8624e-17 
   6481.375   7.7071e-17 
     6482.9   7.1684e-17 
   6484.425   7.9412e-17 
    6485.95   8.4002e-17 
   6487.475   8.0286e-17 
     6489.0   7.7557e-17 
   6490.525   7.4758e-17 
    6492.05   7.8182e-17 
   6493.575   8.0378e-17 
     6495.1   8.6324e-17 
   6496.625     8.38e-17 
    6498.15   8.2352e-17 
   6499.675   8.3973e-17 
     6501.2   7.8068e-17 
   6502.725   7.6982e-17 
    6504.25   7.0647e-17 
   6505.775   7.3617e-17 
     6507.3   9.0894e-17 
   6508.825   9.2796e-17 
    6510.35   8.6371e-17 
   6511.875   8.6408e-17 
     6513.4   7.8856e-17 
   6514.925   7.5142e-17 
    6516.45   7.0936e-17 
   6517.975   7.1511e-17 
     6519.5   8.0874e-17 
   6521.025   8.2244e-17 
    6522.55   8.0049e-17 
   6524.075   8.2139e-17 
     6525.6   8.4511e-17 
   6527.125   8.4776e-17 
    6528.65   9.1485e-17 
   6530.175   9.0505e-17 
     6531.7   8.6059e-17 
   6533.225   9.6894e-17 
    6534.75   8.9691e-17 
   6536.275   8.3037e-17 
     6537.8   8.0899e-17 
   6539.325   8.3608e-17 
    6540.85   8.7143e-17 
   6542.375   7.2802e-17 
     6543.9   7.5406e-17 
   6545.425   7.4077e-17 
    6546.95   6.8498e-17 
   6548.475   8.0429e-17 
     6550.0   8.9454e-17 
   6551.525   9.0056e-17 
    6553.05   9.0445e-17 
   6554.575    9.092e-17 
     6556.1   8.7616e-17 
   6557.625   8.1465e-17 
    6559.15   8.3156e-17 
   6560.675   9.0294e-17 
     6562.2   9.1648e-17 
   6563.725   8.7645e-17 
    6565.25   8.8799e-17 
   6566.775   8.7846e-17 
     6568.3   8.6684e-17 
   6569.825    8.585e-17 
    6571.35   8.8786e-17 
   6572.875   9.4195e-17 
     6574.4   8.7893e-17 
   6575.925   7.7573e-17 
    6577.45   7.6531e-17 
   6578.975   8.2774e-17 
     6580.5   8.1391e-17 
   6582.025   8.0015e-17 
    6583.55   8.5286e-17 
   6585.075   8.7934e-17 
     6586.6   7.9507e-17 
   6588.125   7.9492e-17 
    6589.65   8.6243e-17 
   6591.175   9.0653e-17 
     6592.7   9.5924e-17 
   6594.225   8.7473e-17 
    6595.75    7.417e-17 
   6597.275    8.311e-17 
     6598.8   9.1621e-17 
   6600.325   8.6569e-17 
    6601.85   8.3761e-17 
   6603.375   8.0214e-17 
     6604.9   8.7125e-17 
   6606.425   9.4688e-17 
    6607.95   8.6292e-17 
   6609.475   8.4834e-17 
     6611.0   8.4493e-17 
   6612.525   8.0741e-17 
    6614.05   9.0473e-17 
   6615.575   8.5638e-17 
     6617.1     7.61e-17 
   6618.625   8.0718e-17 
    6620.15   8.7838e-17 
   6621.675   9.0074e-17 
     6623.2   8.5415e-17 
   6624.725    9.086e-17 
    6626.25   9.4466e-17 
   6627.775   8.3309e-17 
     6629.3    8.309e-17 
   6630.825   9.5066e-17 
    6632.35   9.8053e-17 
   6633.875   9.0756e-17 
     6635.4   8.8251e-17 
   6636.925   8.9511e-17 
    6638.45   8.8308e-17 
   6639.975   9.1663e-17 
     6641.5   9.3224e-17 
   6643.025   8.8149e-17 
    6644.55   8.8165e-17 
   6646.075   8.7572e-17 
     6647.6   7.6629e-17 
   6649.125   8.0405e-17 
    6650.65   9.1906e-17 
   6652.175   8.8551e-17 
     6653.7   8.1313e-17 
   6655.225   8.3913e-17 
    6656.75   8.8999e-17 
   6658.275   8.6286e-17 
     6659.8    9.297e-17 
   6661.325   9.7112e-17 
    6662.85   8.5446e-17 
   6664.375   7.8714e-17 
     6665.9   7.8811e-17 
   6667.425   8.4412e-17 
    6668.95   8.3216e-17 
   6670.475   7.8436e-17 
     6672.0    8.154e-17 
   6673.525    8.088e-17 
    6675.05    7.827e-17 
   6676.575   8.0154e-17 
     6678.1   7.9859e-17 
   6679.625   7.2195e-17 
    6681.15   6.8783e-17 
   6682.675   7.8776e-17 
     6684.2    8.108e-17 
   6685.725    7.479e-17 
    6687.25   7.4188e-17 
   6688.775   7.1243e-17 
     6690.3    6.562e-17 
   6691.825   6.8645e-17 
    6693.35    7.724e-17 
   6694.875   7.9504e-17 
     6696.4   7.8441e-17 
   6697.925   7.8917e-17 
    6699.45   7.9787e-17 
   6700.975   7.9739e-17 
     6702.5   7.8108e-17 
   6704.025   8.0798e-17 
    6705.55   7.5999e-17 
   6707.075   6.7243e-17 
     6708.6   7.6573e-17 
   6710.125   8.4411e-17 
    6711.65   8.1083e-17 
   6713.175   7.7944e-17 
     6714.7   8.0503e-17 
   6716.225   8.0136e-17 
    6717.75   7.4918e-17 
   6719.275   7.8207e-17 
     6720.8   7.8777e-17 
   6722.325   7.7299e-17 
    6723.85   8.2336e-17 
   6725.375    8.592e-17 
     6726.9   8.4681e-17 
   6728.425   8.1361e-17 
    6729.95    7.755e-17 
   6731.475   7.7492e-17 
     6733.0   8.2307e-17 
   6734.525   7.8725e-17 
    6736.05   7.6046e-17 
   6737.575   8.4607e-17 
     6739.1    8.793e-17 
   6740.625    8.519e-17 
    6742.15   8.5013e-17 
   6743.675   8.3508e-17 
     6745.2   8.4155e-17 
   6746.725   8.7297e-17 
    6748.25   8.5018e-17 
   6749.775   8.3191e-17 
     6751.3   8.8997e-17 
   6752.825   9.8062e-17 
    6754.35   9.1233e-17 
   6755.875   7.8936e-17 
     6757.4   8.2796e-17 
   6758.925   8.7247e-17 
    6760.45   8.7071e-17 
   6761.975   8.9704e-17 
     6763.5    8.228e-17 
   6765.025   7.3212e-17 
    6766.55   7.7912e-17 
   6768.075   8.3923e-17 
     6769.6   7.9002e-17 
   6771.125   7.3988e-17 
    6772.65   8.3255e-17 
   6774.175   9.0254e-17 
     6775.7   9.0776e-17 
   6777.225   9.0382e-17 
    6778.75    7.878e-17 
   6780.275   8.4304e-17 
     6781.8   9.8986e-17 
   6783.325   9.1759e-17 
    6784.85   9.0472e-17 
   6786.375    9.383e-17 
     6787.9   8.6841e-17 
   6789.425   8.4647e-17 
    6790.95   8.5236e-17 
   6792.475   9.3081e-17 
     6794.0   1.0131e-16 
   6795.525   9.1602e-17 
    6797.05   8.7181e-17 
   6798.575   9.6277e-17 
     6800.1   1.0279e-16 
   6801.625   1.0114e-16 
    6803.15   9.5835e-17 
   6804.675   9.4786e-17 
     6806.2   9.5379e-17 
   6807.725   9.6272e-17 
    6809.25   1.0225e-16 
   6810.775   9.4832e-17 
     6812.3   9.0591e-17 
   6813.825   1.0328e-16 
    6815.35   9.9908e-17 
   6816.875   9.0034e-17 
     6818.4   9.6145e-17 
   6819.925   9.8317e-17 
    6821.45   9.4846e-17 
   6822.975   9.7848e-17 
     6824.5   1.0132e-16 
   6826.025   9.7587e-17 
    6827.55   8.8079e-17 
   6829.075    9.731e-17 
     6830.6    1.085e-16 
   6832.125   9.3805e-17 
    6833.65    9.115e-17 
   6835.175   1.0982e-16 
     6836.7   1.0773e-16 
   6838.225    9.741e-17 
    6839.75   9.9763e-17 
   6841.275   1.0639e-16 
     6842.8   1.1253e-16 
   6844.325   1.0956e-16 
    6845.85   1.0158e-16 
   6847.375   9.8088e-17 
     6848.9   1.0321e-16 
   6850.425   1.1042e-16 
    6851.95   1.0946e-16 
   6853.475   1.0785e-16 
     6855.0   1.0649e-16 
   6856.525   1.1042e-16 
    6858.05   1.1024e-16 
   6859.575   1.0405e-16 
     6861.1   1.1269e-16 
   6862.625   1.2213e-16 
    6864.15   1.2004e-16 
   6865.675   1.1017e-16 
     6867.2    1.063e-16 
   6868.725   1.0926e-16 
    6870.25   1.1145e-16 
   6871.775   1.1668e-16 
     6873.3   1.1717e-16 
   6874.825   1.1765e-16 
    6876.35   1.1825e-16 
   6877.875   1.2119e-16 
     6879.4    1.229e-16 
   6880.925   1.1244e-16 
    6882.45   9.9537e-17 
   6883.975    1.042e-16 
     6885.5    1.095e-16 
   6887.025   1.0266e-16 
    6888.55   1.0596e-16 
   6890.075   1.1891e-16 
     6891.6   1.1328e-16 
   6893.125   1.0871e-16 
    6894.65   1.1755e-16 
   6896.175   1.1753e-16 
     6897.7   1.1752e-16 
   6899.225   1.1485e-16 
    6900.75   1.1301e-16 
   6902.275    1.158e-16 
     6903.8   1.1183e-16 
   6905.325   1.1364e-16 
    6906.85    1.175e-16 
   6908.375   9.9848e-17 
     6909.9        9e-17 
   6911.425   1.0412e-16 
    6912.95   1.1335e-16 
   6914.475   1.0834e-16 
     6916.0   1.0405e-16 
   6917.525    1.072e-16 
    6919.05    1.089e-16 
   6920.575   1.0934e-16 
     6922.1   1.1225e-16 
   6923.625   1.0597e-16 
    6925.15   9.4398e-17 
   6926.675   1.0168e-16 
     6928.2   1.1051e-16 
   6929.725    1.078e-16 
    6931.25   1.1012e-16 
   6932.775   1.0975e-16 
     6934.3   1.0961e-16 
   6935.825   1.0595e-16 
    6937.35   9.3576e-17 
   6938.875   9.5521e-17 
     6940.4   1.0629e-16 
   6941.925   1.0698e-16 
    6943.45   1.0687e-16 
   6944.975   1.0793e-16 
     6946.5   1.0086e-16 
   6948.025   1.0555e-16 
    6949.55   1.1115e-16 
   6951.075   1.0323e-16 
     6952.6   1.0001e-16 
   6954.125   9.8648e-17 
    6955.65   9.6412e-17 
   6957.175   1.0316e-16 
     6958.7   1.0705e-16 
   6960.225   1.0758e-16 
    6961.75   1.1474e-16 
   6963.275   1.0944e-16 
     6964.8   1.0131e-16 
   6966.325   1.0438e-16 
    6967.85   1.0116e-16 
   6969.375   9.9745e-17 
     6970.9   1.0549e-16 
   6972.425   9.7386e-17 
    6973.95   9.2935e-17 
   6975.475   1.0079e-16 
     6977.0   1.0117e-16 
   6978.525   9.9243e-17 
    6980.05   9.7125e-17 
   6981.575   9.5098e-17 
     6983.1   8.9365e-17 
   6984.625   8.8657e-17 
    6986.15   9.9981e-17 
   6987.675   9.9173e-17 
     6989.2   9.4986e-17 
   6990.725   1.0058e-16 
    6992.25   1.0099e-16 
   6993.775    9.538e-17 
     6995.3   8.9322e-17 
   6996.825   9.1482e-17 
    6998.35   9.9914e-17 
   6999.875   9.8861e-17 
     7001.4   9.2797e-17 
   7002.925   8.9744e-17 
    7004.45   9.6281e-17 
   7005.975   9.7561e-17 
     7007.5   8.6526e-17 
   7009.025    8.541e-17 
    7010.55   9.5104e-17 
   7012.075   1.0177e-16 
     7013.6   9.4466e-17 
   7015.125   8.9921e-17 
    7016.65   9.2709e-17 
   7018.175    9.225e-17 
     7019.7   9.9689e-17 
   7021.225   9.8657e-17 
    7022.75     9.29e-17 
   7024.275   9.9727e-17 
     7025.8   9.9974e-17 
   7027.325   9.4134e-17 
    7028.85   9.1096e-17 
   7030.375   9.1981e-17 
     7031.9   9.6317e-17 
   7033.425   9.3033e-17 
    7034.95    8.438e-17 
   7036.475   9.0987e-17 
     7038.0   1.0081e-16 
   7039.525   1.0257e-16 
    7041.05   1.1106e-16 
   7042.575   1.2159e-16 
     7044.1   1.2076e-16 
   7045.625   1.0482e-16 
    7047.15   9.2256e-17 
   7048.675   9.2097e-17 
     7050.2   9.6759e-17 
   7051.725   9.5064e-17 
    7053.25   8.2232e-17 
   7054.775   8.4847e-17 
     7056.3   9.3341e-17 
   7057.825    9.057e-17 
    7059.35   9.1437e-17 
   7060.875   9.8408e-17 
     7062.4   1.0469e-16 
   7063.925   1.1027e-16 
    7065.45   1.1736e-16 
   7066.975   1.1295e-16 
     7068.5   9.8814e-17 
   7070.025   9.0007e-17 
    7071.55    8.402e-17 
   7073.075   8.4293e-17 
     7074.6   9.1445e-17 
   7076.125   8.7198e-17 
    7077.65   8.8251e-17 
   7079.175   9.7087e-17 
     7080.7    9.547e-17 
   7082.225   9.0158e-17 
    7083.75   9.2009e-17 
   7085.275   9.3181e-17 
     7086.8   1.0263e-16 
   7088.325   1.0273e-16 
    7089.85   8.3427e-17 
   7091.375   8.6837e-17 
     7092.9   9.5741e-17 
   7094.425    9.396e-17 
    7095.95   9.1419e-17 
   7097.475   9.1769e-17 
     7099.0   9.8487e-17 
   7100.525   9.9355e-17 
    7102.05   9.5872e-17 
   7103.575   9.0978e-17 
     7105.1   9.1244e-17 
   7106.625   9.2991e-17 
    7108.15   9.1469e-17 
   7109.675   8.9063e-17 
     7111.2   8.5294e-17 
   7112.725   8.6469e-17 
    7114.25   9.1926e-17 
   7115.775   9.1448e-17 
     7117.3   9.1498e-17 
   7118.825   9.9439e-17 
    7120.35   9.7222e-17 
   7121.875   8.9742e-17 
     7123.4   9.0055e-17 
   7124.925   9.0672e-17 
    7126.45   8.7357e-17 
   7127.975    9.429e-17 
     7129.5   9.9841e-17 
   7131.025   9.4194e-17 
    7132.55   9.1732e-17 
   7134.075   8.6745e-17 
     7135.6   8.3573e-17 
   7137.125   9.3026e-17 
    7138.65   9.4891e-17 
   7140.175   8.7253e-17 
     7141.7    8.838e-17 
   7143.225   8.7044e-17 
    7144.75    8.697e-17 
   7146.275   9.4431e-17 
     7147.8   9.5317e-17 
   7149.325   8.8896e-17 
    7150.85   8.4325e-17 
   7152.375   8.5691e-17 
     7153.9   9.0054e-17 
   7155.425   9.3933e-17 
    7156.95   9.0071e-17 
   7158.475    8.235e-17 
     7160.0   8.7084e-17 
   7161.525   9.1223e-17 
    7163.05    8.441e-17 
   7164.575   8.6094e-17 
     7166.1    9.212e-17 
   7167.625   8.9324e-17 
    7169.15   9.1495e-17 
   7170.675   1.0768e-16 
     7172.2    1.169e-16 
   7173.725   1.1022e-16 
    7175.25   1.1008e-16 
   7176.775   1.0832e-16 
     7178.3   9.4371e-17 
   7179.825   9.0366e-17 
    7181.35   8.6213e-17 
   7182.875   8.4827e-17 
     7184.4   1.0531e-16 
   7185.925   1.0793e-16 
    7187.45   9.5016e-17 
   7188.975    9.561e-17 
     7190.5   9.5147e-17 
   7192.025    9.752e-17 
    7193.55   9.4663e-17 
   7195.075   8.6893e-17 
     7196.6    8.405e-17 
   7198.125    8.875e-17 
    7199.65   9.9964e-17 
   7201.175   9.4919e-17 
     7202.7   8.5599e-17 
   7204.225   9.2934e-17 
    7205.75   9.3987e-17 
   7207.275   8.8361e-17 
     7208.8    9.888e-17 
   7210.325   9.9826e-17 
    7211.85   9.2142e-17 
   7213.375   9.7587e-17 
     7214.9   9.1002e-17 
   7216.425   8.2416e-17 
    7217.95   9.1285e-17 
   7219.475   9.8783e-17 
     7221.0   1.0029e-16 
   7222.525   1.0219e-16 
    7224.05   1.0187e-16 
   7225.575   1.0172e-16 
     7227.1   8.9828e-17 
   7228.625   8.3563e-17 
    7230.15   8.2207e-17 
   7231.675   7.9389e-17 
     7233.2   8.6711e-17 
   7234.725   8.8741e-17 
    7236.25   1.0287e-16 
   7237.775   1.0041e-16 
     7239.3   9.5672e-17 
   7240.825   1.0317e-16 
    7242.35   1.0757e-16 
   7243.875   9.4391e-17 
     7245.4   7.3486e-17 
   7246.925   7.1038e-17 
    7248.45   6.5019e-17 
   7249.975    7.206e-17 
     7251.5   8.5649e-17 
   7253.025   9.3629e-17 
    7254.55   1.0026e-16 
   7256.075   9.9081e-17 
     7257.6   9.2119e-17 
   7259.125   8.3876e-17 
    7260.65   7.9323e-17 
   7262.175   8.8444e-17 
     7263.7   1.0442e-16 
   7265.225   1.0082e-16 
    7266.75   8.5652e-17 
   7268.275   8.5851e-17 
     7269.8   9.0183e-17 
   7271.325   8.5512e-17 
    7272.85   8.7622e-17 
   7274.375   8.0202e-17 
     7275.9   8.4359e-17 
   7277.425    1.053e-16 
    7278.95     1.04e-16 
   7280.475   8.7335e-17 
     7282.0   7.0063e-17 
   7283.525   7.1164e-17 
    7285.05   8.1997e-17 
   7286.575   8.0712e-17 
     7288.1   7.8506e-17 
   7289.625   8.4814e-17 
    7291.15   9.2836e-17 
   7292.675   1.0074e-16 
     7294.2   9.7471e-17 
   7295.725   8.1851e-17 
    7297.25   7.2787e-17 
   7298.775   7.0852e-17 
     7300.3   8.6492e-17 
   7301.825   9.6293e-17 
    7303.35   9.2228e-17 
   7304.875    8.945e-17 
     7306.4   8.4159e-17 
   7307.925   8.9187e-17 
    7309.45    8.752e-17 
   7310.975   8.3681e-17 
     7312.5   8.8316e-17 
   7314.025   9.1095e-17 
    7315.55   8.9217e-17 
   7317.075   8.3245e-17 
     7318.6   7.8038e-17 
   7320.125   7.8614e-17 
    7321.65   8.1811e-17 
   7323.175   8.2019e-17 
     7324.7   8.1637e-17 
   7326.225   9.1052e-17 
    7327.75   9.2727e-17 
   7329.275   8.2169e-17 
     7330.8   8.5738e-17 
   7332.325   8.6252e-17 
    7333.85   8.2405e-17 
   7335.375   9.0929e-17 
     7336.9   1.0031e-16 
   7338.425   9.8629e-17 
    7339.95   8.7063e-17 
   7341.475   7.9997e-17 
     7343.0   7.7275e-17 
   7344.525   7.7627e-17 
    7346.05    8.044e-17 
   7347.575   8.0846e-17 
     7349.1   8.3525e-17 
   7350.625   8.4983e-17 
    7352.15   8.5193e-17 
   7353.675   8.5997e-17 
     7355.2     8.68e-17 
   7356.725   9.0341e-17 
    7358.25   9.7784e-17 
   7359.775   9.1595e-17 
     7361.3   7.6673e-17 
   7362.825   7.2939e-17 
    7364.35   7.4742e-17 
   7365.875    7.766e-17 
     7367.4   8.0698e-17 
   7368.925   8.7902e-17 
    7370.45   9.0743e-17 
   7371.975   8.4757e-17 
     7373.5    8.437e-17 
   7375.025   8.5463e-17 
    7376.55   8.8575e-17 
   7378.075   8.4149e-17 
     7379.6   7.5051e-17 
   7381.125   7.8561e-17 
    7382.65   8.2999e-17 
   7384.175   7.8412e-17 
     7385.7   7.6977e-17 
   7387.225   8.3985e-17 
    7388.75   8.8425e-17 
   7390.275   9.2966e-17 
     7391.8    9.306e-17 
   7393.325   8.1706e-17 
    7394.85   7.7381e-17 
   7396.375   9.2606e-17 
     7397.9   9.5146e-17 
   7399.425   8.3816e-17 
    7400.95   9.0097e-17 
   7402.475   9.2294e-17 
     7404.0   8.5364e-17 
   7405.525   8.1048e-17 
    7407.05   7.5896e-17 
   7408.575   7.7242e-17 
     7410.1   7.9328e-17 
   7411.625   7.6071e-17 
    7413.15   8.2892e-17 
   7414.675   8.6725e-17 
     7416.2     7.81e-17 
   7417.725   8.1756e-17 
    7419.25   8.3264e-17 
   7420.775   7.2999e-17 
     7422.3    8.247e-17 
   7423.825   9.0572e-17 
    7425.35   8.7359e-17 
   7426.875   8.4756e-17 
     7428.4   8.2631e-17 
   7429.925   8.5818e-17 
    7431.45   8.4204e-17 
   7432.975   9.1392e-17 
     7434.5   8.8746e-17 
   7436.025   7.1719e-17 
    7437.55   7.6752e-17 
   7439.075   8.2275e-17 
     7440.6   7.5877e-17 
   7442.125    7.657e-17 
    7443.65   8.0755e-17 
   7445.175   8.6655e-17 
     7446.7   8.8015e-17 
   7448.225   8.8304e-17 
    7449.75   9.2574e-17 
   7451.275    8.697e-17 
     7452.8   8.6572e-17 
   7454.325   9.2517e-17 
    7455.85   8.3838e-17 
   7457.375   7.6763e-17 
     7458.9   7.9269e-17 
   7460.425    7.936e-17 
    7461.95   8.5257e-17 
   7463.475   9.4832e-17 
     7465.0    9.131e-17 
   7466.525   8.4979e-17 
    7468.05   8.4579e-17 
   7469.575   8.8109e-17 
     7471.1   8.6361e-17 
   7472.625   7.8936e-17 
    7474.15   8.3941e-17 
   7475.675   8.9056e-17 
     7477.2   8.9636e-17 
   7478.725   9.0793e-17 
    7480.25   8.8937e-17 
   7481.775   8.2711e-17 
     7483.3   7.9151e-17 
   7484.825   8.1791e-17 
    7486.35   8.0891e-17 
   7487.875   7.9292e-17 
     7489.4   8.1496e-17 
   7490.925   8.8863e-17 
    7492.45   9.6148e-17 
   7493.975   9.1995e-17 
     7495.5   8.9945e-17 
   7497.025   9.4269e-17 
    7498.55   9.0062e-17 
   7500.075   8.5754e-17 
     7501.6   8.6864e-17 
   7503.125   9.2498e-17 
    7504.65   9.5583e-17 
   7506.175   8.8336e-17 
     7507.7   8.9208e-17 
   7509.225   9.6088e-17 
    7510.75   9.1118e-17 
   7512.275   8.9011e-17 
     7513.8    8.888e-17 
   7515.325    8.542e-17 
    7516.85   8.8248e-17 
   7518.375   8.7852e-17 
     7519.9   9.6875e-17 
   7521.425    1.089e-16 
    7522.95   9.0146e-17 
   7524.475   8.1872e-17 
     7526.0   9.2898e-17 
   7527.525   8.9732e-17 
    7529.05    8.655e-17 
   7530.575   8.3438e-17 
     7532.1    7.993e-17 
   7533.625   8.5596e-17 
    7535.15   9.1985e-17 
   7536.675   8.8529e-17 
     7538.2   8.6155e-17 
   7539.725   9.0355e-17 
    7541.25   9.2282e-17 
   7542.775   8.8365e-17 
     7544.3   8.3619e-17 
   7545.825     8.25e-17 
    7547.35   8.6608e-17 
   7548.875    9.605e-17 
     7550.4   9.8172e-17 
   7551.925   9.6434e-17 
    7553.45   9.5533e-17 
   7554.975   9.6296e-17 
     7556.5   9.2153e-17 
   7558.025   9.0453e-17 
    7559.55   9.1726e-17 
   7561.075   8.4676e-17 
     7562.6   8.5195e-17 
   7564.125   9.4512e-17 
    7565.65   9.6812e-17 
   7567.175    9.584e-17 
     7568.7   9.7758e-17 
   7570.225   8.8853e-17 
    7571.75   8.8625e-17 
   7573.275   9.4046e-17 
     7574.8   9.2883e-17 
   7576.325   9.3203e-17 
    7577.85   8.8437e-17 
   7579.375   9.7121e-17 
     7580.9   9.8942e-17 
   7582.425    8.878e-17 
    7583.95   8.8548e-17 
   7585.475   8.8571e-17 
     7587.0   8.8338e-17 
   7588.525   9.0383e-17 
    7590.05   9.0309e-17 
   7591.575    9.349e-17 
     7593.1   8.3284e-17 
   7594.625   8.3616e-17 
    7596.15   1.0094e-16 
   7597.675    8.427e-17 
     7599.2   9.9499e-17 
   7600.725   1.3212e-16 
    7602.25   1.0716e-16 
   7603.775   8.3016e-17 
     7605.3   6.3452e-17 
   7606.825   7.3716e-17 
    7608.35    1.021e-16 
   7609.875   8.5995e-17 
     7611.4   7.5992e-17 
   7612.925   8.9619e-17 
    7614.45    1.007e-16 
   7615.975   9.9788e-17 
     7617.5   9.0601e-17 
   7619.025   8.3882e-17 
    7620.55    8.682e-17 
   7622.075   9.3117e-17 
     7623.6   8.0025e-17 
   7625.125   9.2055e-17 
    7626.65   1.0364e-16 
   7628.175   8.0604e-17 
     7629.7   8.7968e-17 
   7631.225   9.1019e-17 
    7632.75   8.3956e-17 
   7634.275   9.7663e-17 
     7635.8   1.0062e-16 
   7637.325   9.1389e-17 
    7638.85   9.0218e-17 
   7640.375   8.6851e-17 
     7641.9   8.4105e-17 
   7643.425     1.01e-16 
    7644.95   9.6079e-17 
   7646.475   8.2724e-17 
     7648.0   8.6962e-17 
   7649.525   8.5378e-17 
    7651.05   9.4023e-17 
   7652.575   1.0416e-16 
     7654.1   9.2362e-17 
   7655.625    8.208e-17 
    7657.15   1.0192e-16 
   7658.675   1.1718e-16 
     7660.2   1.0129e-16 
   7661.725   8.4029e-17 
    7663.25   7.8771e-17 
   7664.775   8.0488e-17 
     7666.3   8.2969e-17 
   7667.825   8.3391e-17 
    7669.35   8.9135e-17 
   7670.875   9.4475e-17 
     7672.4   9.2539e-17 
   7673.925   9.1869e-17 
    7675.45    9.413e-17 
   7676.975   9.5357e-17 
     7678.5   9.1479e-17 
   7680.025   9.7172e-17 
    7681.55   1.0232e-16 
   7683.075   9.5089e-17 
     7684.6   9.2841e-17 
   7686.125   8.5504e-17 
    7687.65   8.2192e-17 
   7689.175   9.1463e-17 
     7690.7   8.9667e-17 
   7692.225   8.9826e-17 
    7693.75   9.9039e-17 
   7695.275   9.6356e-17 
     7696.8    9.147e-17 
   7698.325   8.7646e-17 
    7699.85   8.9514e-17 
   7701.375   9.4109e-17 
     7702.9   8.5371e-17 
   7704.425   8.2511e-17 
    7705.95   8.8269e-17 
   7707.475   8.3656e-17 
     7709.0   7.6023e-17 
   7710.525   8.0541e-17 
    7712.05   9.0397e-17 
   7713.575   9.1716e-17 
     7715.1   9.7604e-17 
   7716.625   1.0906e-16 
    7718.15   1.0541e-16 
   7719.675   9.1389e-17 
     7721.2   9.5185e-17 
   7722.725   1.0157e-16 
    7724.25   9.4249e-17 
   7725.775   8.3439e-17 
     7727.3    9.123e-17 
   7728.825   1.0676e-16 
    7730.35    1.069e-16 
   7731.875   1.0333e-16 
     7733.4   1.0195e-16 
   7734.925   9.3863e-17 
    7736.45   9.3533e-17 
   7737.975   9.9167e-17 
     7739.5   9.3229e-17 
   7741.025   9.3077e-17 
    7742.55   1.0024e-16 
   7744.075   1.0188e-16 
     7745.6   1.0448e-16 
   7747.125   1.1443e-16 
    7748.65   1.1224e-16 
   7750.175    1.058e-16 
     7751.7   1.0362e-16 
   7753.225   9.3319e-17 
    7754.75   9.0277e-17 
   7756.275   9.4982e-17 
     7757.8   9.9609e-17 
   7759.325   1.0381e-16 
    7760.85   1.0172e-16 
   7762.375   1.0718e-16 
     7763.9   1.1064e-16 
   7765.425   1.0781e-16 
    7766.95   1.1036e-16 
   7768.475     1.05e-16 
     7770.0   1.0076e-16 
   7771.525   1.0601e-16 
    7773.05   1.0633e-16 
   7774.575    1.024e-16 
     7776.1   1.0088e-16 
   7777.625   1.0129e-16 
    7779.15   9.9288e-17 
   7780.675   9.7319e-17 
     7782.2     1.02e-16 
   7783.725   1.0046e-16 
    7785.25   9.4192e-17 
   7786.775   9.6055e-17 
     7788.3   1.0909e-16 
   7789.825   1.1863e-16 
    7791.35   9.9744e-17 
   7792.875    9.008e-17 
     7794.4   1.1061e-16 
   7795.925   1.1145e-16 
    7797.45   9.6825e-17 
   7798.975   1.0089e-16 
     7800.5   1.0556e-16 
   7802.025   1.0122e-16 
    7803.55   9.6409e-17 
   7805.075   1.0743e-16 
     7806.6   1.1989e-16 
   7808.125   1.1083e-16 
    7809.65   1.1177e-16 
   7811.175   1.1543e-16 
     7812.7   1.1064e-16 
   7814.225   1.1229e-16 
    7815.75   1.1251e-16 
   7817.275   1.1058e-16 
     7818.8   1.0932e-16 
   7820.325   1.0535e-16 
    7821.85   1.1974e-16 
   7823.375   1.2791e-16 
     7824.9   1.1323e-16 
   7826.425   9.8704e-17 
    7827.95   9.6391e-17 
   7829.475   9.8247e-17 
     7831.0    9.192e-17 
   7832.525   9.3938e-17 
    7834.05   1.0686e-16 
   7835.575   1.1088e-16 
     7837.1   9.9135e-17 
   7838.625   9.9543e-17 
    7840.15   1.0619e-16 
   7841.675   1.0047e-16 
     7843.2   1.0368e-16 
   7844.725   1.0556e-16 
    7846.25   9.7952e-17 
   7847.775   1.0133e-16 
     7849.3    1.042e-16 
   7850.825   1.1042e-16 
    7852.35   1.1591e-16 
   7853.875   1.0536e-16 
     7855.4   1.0635e-16 
   7856.925   1.0647e-16 
    7858.45   1.0416e-16 
   7859.975   1.1545e-16 
     7861.5   1.1171e-16 
   7863.025    9.095e-17 
    7864.55   9.7087e-17 
   7866.075    1.156e-16 
     7867.6   1.1121e-16 
   7869.125     9.96e-17 
    7870.65   1.0475e-16 
   7872.175   1.1111e-16 
     7873.7    1.064e-16 
   7875.225   1.0436e-16 
    7876.75   9.4798e-17 
   7878.275   9.5263e-17 
     7879.8   1.0851e-16 
   7881.325   1.1095e-16 
    7882.85   9.8201e-17 
   7884.375   8.8979e-17 
     7885.9   1.0041e-16 
   7887.425   1.0398e-16 
    7888.95   9.7941e-17 
   7890.475   8.5746e-17 
     7892.0   9.3851e-17 
   7893.525   1.1214e-16 
    7895.05   1.0286e-16 
   7896.575   9.8978e-17 
     7898.1   1.0497e-16 
   7899.625   1.0452e-16 
    7901.15   1.0139e-16 
   7902.675   1.0076e-16 
     7904.2   1.0279e-16 
   7905.725    1.061e-16 
    7907.25   1.1164e-16 
   7908.775   1.1826e-16 
     7910.3     1.08e-16 
   7911.825   1.0038e-16 
    7913.35   1.0831e-16 
   7914.875    1.071e-16 
     7916.4   1.0138e-16 
   7917.925   1.0725e-16 
    7919.45   1.1811e-16 
   7920.975   1.1464e-16 
     7922.5   1.0491e-16 
   7924.025   9.7898e-17 
    7925.55   9.6663e-17 
   7927.075   9.8561e-17 
     7928.6   1.0761e-16 
   7930.125   1.1417e-16 
    7931.65   1.0184e-16 
   7933.175   9.1517e-17 
     7934.7   9.1461e-17 
   7936.225   9.6859e-17 
    7937.75   1.0391e-16 
   7939.275   1.1102e-16 
     7940.8   1.1062e-16 
   7942.325   1.0314e-16 
    7943.85    1.056e-16 
   7945.375   1.0361e-16 
     7946.9   9.1574e-17 
   7948.425   8.9339e-17 
    7949.95   1.0472e-16 
   7951.475   1.0129e-16 
     7953.0   8.8921e-17 
   7954.525   9.6473e-17 
    7956.05   9.9358e-17 
   7957.575   9.3785e-17 
     7959.1    9.955e-17 
   7960.625   1.1589e-16 
    7962.15   1.1467e-16 
   7963.675   1.3013e-16 
     7965.2    1.274e-16 
   7966.725   1.0323e-16 
    7968.25   9.8027e-17 
   7969.775   8.4204e-17 
     7971.3   8.4677e-17 
   7972.825   9.8881e-17 
    7974.35   1.0704e-16 
   7975.875   1.0562e-16 
     7977.4   1.0456e-16 
   7978.925   9.5885e-17 
    7980.45    9.587e-17 
   7981.975    1.068e-16 
     7983.5   9.7991e-17 
   7985.025   8.9233e-17 
    7986.55   9.0615e-17 
   7988.075   1.0565e-16 
     7989.6   1.0842e-16 
   7991.125   1.0007e-16 
    7992.65   1.0187e-16 
   7994.175   1.0565e-16 
     7995.7   9.2789e-17 
   7997.225   7.6306e-17 
    7998.75   9.0116e-17 
   8000.275   9.9623e-17 
     8001.8   1.0235e-16 
   8003.325   1.0818e-16 
    8004.85   1.0362e-16 
   8006.375   9.6734e-17 
     8007.9   9.3677e-17 
   8009.425   9.5563e-17 
    8010.95    1.065e-16 
   8012.475   1.1385e-16 
     8014.0   1.0912e-16 
   8015.525    1.076e-16 
    8017.05   1.0867e-16 
   8018.575   1.0048e-16 
     8020.1   9.5898e-17 
   8021.625   9.7275e-17 
    8023.15   9.1043e-17 
   8024.675   9.3394e-17 
     8026.2   1.0357e-16 
   8027.725   9.8281e-17 
    8029.25   8.9386e-17 
   8030.775   8.7806e-17 
     8032.3   9.0125e-17 
   8033.825   9.4177e-17 
    8035.35   9.7323e-17 
   8036.875    9.962e-17 
     8038.4   9.7741e-17 
   8039.925   1.0181e-16 
    8041.45   1.0492e-16 
   8042.975   8.9854e-17 
     8044.5   7.7401e-17 
   8046.025   9.1378e-17 
    8047.55   1.0144e-16 
   8049.075   9.0911e-17 
     8050.6    9.838e-17 
   8052.125   1.0733e-16 
    8053.65   8.7484e-17 
   8055.175   7.7569e-17 
     8056.7   9.7408e-17 
   8058.225   1.1094e-16 
    8059.75   1.0475e-16 
   8061.275   9.3982e-17 
     8062.8   9.3065e-17 
   8064.325   1.0551e-16 
    8065.85   1.0327e-16 
   8067.375   9.6927e-17 
     8068.9   1.0214e-16 
   8070.425   9.4581e-17 
    8071.95   8.4141e-17 
   8073.475   8.7489e-17 
     8075.0   9.2939e-17 
   8076.525   8.8038e-17 
    8078.05   8.7956e-17 
   8079.575   8.9762e-17 
     8081.1   8.6004e-17 
   8082.625   8.9608e-17 
    8084.15   9.9398e-17 
   8085.675   9.2161e-17 
     8087.2   8.9865e-17 
   8088.725   9.2779e-17 
    8090.25   9.0392e-17 
   8091.775   9.8209e-17 
     8093.3   9.4011e-17 
   8094.825   8.4311e-17 
    8096.35   8.0396e-17 
   8097.875   8.6814e-17 
     8099.4   8.6577e-17 
   8100.925   8.8566e-17 
    8102.45   1.0026e-16 
   8103.975   9.5587e-17 
     8105.5   9.0343e-17 
   8107.025   8.7869e-17 
    8108.55   8.5285e-17 
   8110.075   8.8262e-17 
     8111.6   9.5906e-17 
   8113.125   9.4441e-17 
    8114.65   9.2554e-17 
   8116.175    9.167e-17 
     8117.7   8.7741e-17 
   8119.225   8.2699e-17 
    8120.75   8.5185e-17 
   8122.275   9.0109e-17 
     8123.8   9.5191e-17 
   8125.325   8.8819e-17 
    8126.85   7.5963e-17 
   8128.375   7.8381e-17 
     8129.9   8.3287e-17 
   8131.425   8.4657e-17 
    8132.95   8.3005e-17 
   8134.475   8.5605e-17 
     8136.0   8.3109e-17 
   8137.525    8.696e-17 
    8139.05   9.9729e-17 
   8140.575   9.0896e-17 
     8142.1   7.4541e-17 
   8143.625   7.5465e-17 
    8145.15   8.7489e-17 
   8146.675   1.0201e-16 
     8148.2   9.6037e-17 
   8149.725   7.7578e-17 
    8151.25   8.5828e-17 
   8152.775   9.1927e-17 
     8154.3   8.7099e-17 
   8155.825   8.8948e-17 
    8157.35   7.5538e-17 
   8158.875    6.649e-17 
     8160.4    8.525e-17 
   8161.925   9.7311e-17 
    8163.45   8.4193e-17 
   8164.975   7.9221e-17 
     8166.5    9.177e-17 
   8168.025   9.1166e-17 
    8169.55   8.6039e-17 
   8171.075   8.4572e-17 
     8172.6   7.5634e-17 
   8174.125   7.3927e-17 
    8175.65   7.4249e-17 
   8177.175   7.3807e-17 
     8178.7   9.1169e-17 
   8180.225    1.117e-16 
    8181.75   9.8624e-17 
   8183.275   7.5894e-17 
     8184.8   7.0793e-17 
   8186.325   7.7293e-17 
    8187.85    8.523e-17 
   8189.375    7.577e-17 
     8190.9   6.6096e-17 
   8192.425   7.1629e-17 
    8193.95    7.774e-17 
   8195.475   8.3158e-17 
     8197.0   8.6462e-17 
   8198.525    8.169e-17 
    8200.05   8.4439e-17 
   8201.575   8.9067e-17 
     8203.1   8.4331e-17 
   8204.625    8.764e-17 
    8206.15   9.0079e-17 
   8207.675   8.3343e-17 
     8209.2   9.0801e-17 
   8210.725      9.6e-17 
    8212.25   8.7184e-17 
   8213.775   8.4637e-17 
     8215.3   8.1491e-17 
   8216.825   7.6317e-17 
    8218.35   7.5214e-17 
   8219.875   8.0405e-17 
     8221.4   8.1836e-17 
   8222.925   7.2971e-17 
    8224.45   7.1272e-17 
   8225.975   8.1932e-17 
     8227.5   8.8571e-17 
   8229.025   8.8621e-17 
    8230.55   8.7383e-17 
   8232.075   8.6822e-17 
     8233.6   9.0019e-17 
   8235.125   9.3508e-17 
    8236.65   8.9158e-17 
   8238.175   7.9123e-17 
     8239.7   8.1522e-17 
   8241.225   9.2799e-17 
    8242.75   9.1335e-17 
   8244.275   9.6828e-17 
     8245.8   1.0165e-16 
   8247.325   8.8295e-17 
    8248.85   8.3726e-17 
   8250.375     8.84e-17 
     8251.9   8.7682e-17 
   8253.425   8.3064e-17 
    8254.95   8.2006e-17 
   8256.475   8.9426e-17 
     8258.0   9.1706e-17 
   8259.525   8.6784e-17 
    8261.05   9.0616e-17 
   8262.575   9.4999e-17 
     8264.1   9.4364e-17 
   8265.625   9.8286e-17 
    8267.15   9.5653e-17 
   8268.675   8.8752e-17 
     8270.2   9.7419e-17 
   8271.725   9.7393e-17 
    8273.25    9.424e-17 
   8274.775   9.9452e-17 
     8276.3    1.026e-16 
   8277.825   1.0743e-16 
    8279.35   1.0991e-16 
   8280.875   1.1589e-16 
     8282.4   1.0845e-16 
   8283.925   9.0425e-17 
    8285.45   9.8258e-17 
   8286.975   1.3469e-16 
     8288.5   1.4317e-16 
   8290.025   1.1351e-16 
    8291.55   9.2161e-17 
   8293.075   8.5978e-17 
     8294.6   9.3378e-17 
   8296.125   9.3664e-17 
    8297.65   9.6358e-17 
   8299.175   1.0737e-16 
     8300.7    9.696e-17 
   8302.225   8.4098e-17 
    8303.75   8.0049e-17 
   8305.275   9.0901e-17 
     8306.8   1.0886e-16 
   8308.325   1.0307e-16 
    8309.85   9.7302e-17 
   8311.375   9.5072e-17 
     8312.9   9.4116e-17 
   8314.425   1.0103e-16 
    8315.95    9.843e-17 
   8317.475   1.0327e-16 
     8319.0   1.0663e-16 
   8320.525   9.8282e-17 
    8322.05   1.0344e-16 
   8323.575   1.1287e-16 
     8325.1   1.0944e-16 
   8326.625   1.0346e-16 
    8328.15   1.0627e-16 
   8329.675   1.0762e-16 
     8331.2   1.1109e-16 
   8332.725   1.1492e-16 
    8334.25   1.1086e-16 
   8335.775   1.0064e-16 
     8337.3   9.7324e-17 
   8338.825   1.1099e-16 
    8340.35    1.345e-16 
   8341.875   1.5696e-16 
     8343.4   1.6187e-16 
   8344.925   1.4193e-16 
    8346.45   9.3146e-17 
   8347.975   7.2937e-17 
     8349.5   1.0419e-16 
   8351.025   1.2446e-16 
    8352.55    9.376e-17 
   8354.075    8.053e-17 
     8355.6     9.43e-17 
   8357.125   9.2951e-17 
    8358.65   9.7903e-17 
   8360.175   1.0921e-16 
     8361.7   1.1804e-16 
   8363.225    1.159e-16 
    8364.75   1.0778e-16 
   8366.275   1.0111e-16 
     8367.8   1.0937e-16 
   8369.325   1.1092e-16 
    8370.85   1.0966e-16 
   8372.375   1.1438e-16 
     8373.9   1.0724e-16 
   8375.425   1.0235e-16 
    8376.95   1.0577e-16 
   8378.475   1.2279e-16 
     8380.0   1.2245e-16 
   8381.525   1.1205e-16 
    8383.05   1.1655e-16 
   8384.575   1.0484e-16 
     8386.1    9.573e-17 
   8387.625   1.0423e-16 
    8389.15   1.0536e-16 
   8390.675   1.0189e-16 
     8392.2   9.9883e-17 
   8393.725   1.0444e-16 
    8395.25   1.2356e-16 
   8396.775   1.3663e-16 
     8398.3    1.378e-16 
   8399.825   1.3516e-16 
    8401.35   1.1984e-16 
   8402.875   1.0429e-16 
     8404.4   9.9956e-17 
   8405.925   1.0262e-16 
    8407.45   1.1007e-16 
   8408.975   1.0511e-16 
     8410.5   1.0295e-16 
   8412.025   1.1309e-16 
    8413.55   1.0086e-16 
   8415.075   9.1043e-17 
     8416.6   9.8236e-17 
   8418.125   1.0243e-16 
    8419.65   1.1037e-16 
   8421.175   1.1308e-16 
     8422.7   1.0742e-16 
   8424.225   1.1404e-16 
    8425.75   1.3686e-16 
   8427.275   1.3837e-16 
     8428.8   1.2696e-16 
   8430.325   1.1627e-16 
    8431.85   1.0122e-16 
   8433.375   1.0367e-16 
     8434.9   1.0826e-16 
   8436.425   1.0002e-16 
    8437.95   9.2622e-17 
   8439.475   9.7767e-17 
     8441.0   1.0745e-16 
   8442.525   1.0332e-16 
    8444.05   1.0501e-16 
   8445.575   1.1204e-16 
     8447.1   1.0912e-16 
   8448.625   1.1056e-16 
    8450.15   1.2123e-16 
   8451.675   1.1836e-16 
     8453.2   1.0497e-16 
   8454.725   1.0485e-16 
    8456.25   1.0045e-16 
   8457.775   9.3173e-17 
     8459.3   9.8475e-17 
   8460.825   1.2532e-16 
    8462.35   1.2236e-16 
   8463.875   1.0139e-16 
     8465.4   1.1717e-16 
   8466.925   1.1176e-16 
    8468.45   9.0099e-17 
   8469.975   8.9898e-17 
     8471.5   1.0008e-16 
   8473.025    1.103e-16 
    8474.55   1.0684e-16 
   8476.075   1.0672e-16 
     8477.6   1.0526e-16 
   8479.125   1.0211e-16 
    8480.65   1.0755e-16 
   8482.175    1.086e-16 
     8483.7   1.1105e-16 
   8485.225   1.1385e-16 
    8486.75   1.0513e-16 
   8488.275   1.0527e-16 
     8489.8   1.0745e-16 
   8491.325   1.0058e-16 
    8492.85   1.0028e-16 
   8494.375   1.0282e-16 
     8495.9   9.9068e-17 
   8497.425   9.1664e-17 
    8498.95   1.0139e-16 
   8500.475   1.1641e-16 
     8502.0   1.1641e-16 
   8503.525   1.0661e-16 
    8505.05   1.0679e-16 
   8506.575   1.1278e-16 
     8508.1   9.8704e-17 
   8509.625   9.0227e-17 
    8511.15   9.6303e-17 
   8512.675   9.7595e-17 
     8514.2   9.9092e-17 
   8515.725   1.0088e-16 
    8517.25   9.9122e-17 
   8518.775   1.0032e-16 
     8520.3   1.0228e-16 
   8521.825   9.3768e-17 
    8523.35   8.7619e-17 
   8524.875   8.9389e-17 
     8526.4   9.5385e-17 
   8527.925    1.048e-16 
    8529.45   1.0953e-16 
   8530.975   1.0881e-16 
     8532.5   1.0492e-16 
   8534.025    1.035e-16 
    8535.55   1.0497e-16 
   8537.075   1.0086e-16 
     8538.6   8.8221e-17 
   8540.125   8.6478e-17 
    8541.65   9.0699e-17 
   8543.175   9.4138e-17 
     8544.7   1.0344e-16 
   8546.225   9.9303e-17 
    8547.75   9.0705e-17 
   8549.275   8.1781e-17 
     8550.8   8.2324e-17 
   8552.325   9.6861e-17 
    8553.85   1.0008e-16 
   8555.375   1.0648e-16 
     8556.9   1.0889e-16 
   8558.425    9.901e-17 
    8559.95   1.0077e-16 
   8561.475   1.0335e-16 
     8563.0   9.7666e-17 
   8564.525   9.3415e-17 
    8566.05   9.3574e-17 
   8567.575   9.7902e-17 
     8569.1   1.0129e-16 
   8570.625   9.7693e-17 
    8572.15   8.7547e-17 
   8573.675   8.7709e-17 
     8575.2     9.23e-17 
   8576.725   9.4459e-17 
    8578.25    9.987e-17 
   8579.775   9.7359e-17 
     8581.3   9.1716e-17 
   8582.825   9.5935e-17 
    8584.35   9.8745e-17 
   8585.875    9.378e-17 
     8587.4    8.972e-17 
   8588.925     8.94e-17 
    8590.45    8.825e-17 
   8591.975   9.0503e-17 
     8593.5   9.7038e-17 
   8595.025   9.4628e-17 
    8596.55   9.2404e-17 
   8598.075   9.2214e-17 
     8599.6   9.3347e-17 
   8601.125   9.6547e-17 
    8602.65   8.3919e-17 
   8604.175   7.9848e-17 
     8605.7   8.4993e-17 
   8607.225   8.4337e-17 
    8608.75   8.5741e-17 
   8610.275   9.2763e-17 
     8611.8   9.8154e-17 
   8613.325   9.8237e-17 
    8614.85   1.0026e-16 
   8616.375   9.1687e-17 
     8617.9   8.9775e-17 
   8619.425   9.8198e-17 
    8620.95   9.8762e-17 
   8622.475   9.4627e-17 
     8624.0   9.5278e-17 
   8625.525   9.4305e-17 
    8627.05    8.088e-17 
   8628.575    8.317e-17 
     8630.1   9.0028e-17 
   8631.625   8.5516e-17 
    8633.15    8.641e-17 
   8634.675   9.0913e-17 
     8636.2   9.6074e-17 
   8637.725    9.236e-17 
    8639.25   8.7033e-17 
   8640.775   8.4423e-17 
     8642.3   8.6347e-17 
   8643.825   9.0908e-17 
    8645.35   8.7699e-17 
   8646.875   8.7658e-17 
     8648.4   8.3302e-17 
   8649.925   7.7256e-17 
    8651.45   9.1482e-17 
   8652.975   9.4952e-17 
     8654.5    9.192e-17 
   8656.025   9.0293e-17 
    8657.55   8.7056e-17 
   8659.075   8.8642e-17 
     8660.6   8.4009e-17 
   8662.125   8.2705e-17 
    8663.65   7.2209e-17 
   8665.175   6.9749e-17 
     8666.7   8.2327e-17 
   8668.225   8.5995e-17 
    8669.75   8.2348e-17 
   8671.275   8.4021e-17 
     8672.8   9.1783e-17 
   8674.325   8.5944e-17 
    8675.85   9.2834e-17 
   8677.375   1.0159e-16 
     8678.9   9.4901e-17 
   8680.425   9.1413e-17 
    8681.95   8.2636e-17 
   8683.475    8.678e-17 
     8685.0   8.8573e-17 
   8686.525   8.2681e-17 
    8688.05   7.9547e-17 
   8689.575   8.2717e-17 
     8691.1    8.899e-17 
   8692.625   8.6025e-17 
    8694.15   8.8621e-17 
   8695.675   9.0653e-17 
     8697.2   8.6791e-17 
   8698.725   8.9476e-17 
    8700.25     8.73e-17 
   8701.775   7.8313e-17 
     8703.3   7.3392e-17 
   8704.825   7.7986e-17 
    8706.35   8.3839e-17 
   8707.875    8.026e-17 
     8709.4   6.9221e-17 
   8710.925   7.0494e-17 
    8712.45      8.2e-17 
   8713.975   8.2142e-17 
     8715.5   8.8639e-17 
   8717.025   9.2007e-17 
    8718.55   8.1668e-17 
   8720.075   7.6853e-17 
     8721.6   7.6025e-17 
   8723.125   7.7629e-17 
    8724.65   8.1275e-17 
   8726.175   8.4008e-17 
     8727.7   8.3561e-17 
   8729.225   7.9639e-17 
    8730.75   8.1539e-17 
   8732.275   8.8609e-17 
     8733.8   8.6697e-17 
   8735.325   8.2288e-17 
    8736.85   8.6765e-17 
   8738.375   8.7692e-17 
     8739.9   8.2958e-17 
   8741.425   8.0496e-17 
    8742.95   7.9188e-17 
   8744.475   7.7336e-17 
     8746.0   8.1266e-17 
   8747.525   8.6994e-17 
    8749.05   8.4361e-17 
   8750.575   8.5952e-17 
     8752.1   9.0492e-17 
   8753.625   8.3544e-17 
    8755.15   7.2909e-17 
   8756.675   8.1237e-17 
     8758.2   9.6828e-17 
   8759.725   9.0611e-17 
    8761.25   9.1615e-17 
   8762.775   9.8291e-17 
     8764.3   9.1336e-17 
   8765.825     9.64e-17 
    8767.35   1.0188e-16 
   8768.875   9.0631e-17 
     8770.4   6.2923e-17 
   8771.925   6.3548e-17 
    8773.45   9.9587e-17 
   8774.975   1.0897e-16 
     8776.5   1.0657e-16 
   8778.025   1.0233e-16 
    8779.55   8.1187e-17 
   8781.075   7.1506e-17 
     8782.6   7.0181e-17 
   8784.125   7.4663e-17 
    8785.65   8.5269e-17 
   8787.175   8.2858e-17 
     8788.7   7.8248e-17 
   8790.225   8.9453e-17 
    8791.75   8.6486e-17 
   8793.275   8.2831e-17 
     8794.8   8.7967e-17 
   8796.325   8.6294e-17 
    8797.85   7.8309e-17 
   8799.375   7.3996e-17 
     8800.9   8.1501e-17 
   8802.425   7.5458e-17 
    8803.95   7.4832e-17 
   8805.475   7.4976e-17 
     8807.0   6.7352e-17 
   8808.525   7.3673e-17 
    8810.05   8.5804e-17 
   8811.575   9.1762e-17 
     8813.1   9.6768e-17 
   8814.625   9.5131e-17 
    8816.15   9.0242e-17 
   8817.675   9.3244e-17 
     8819.2    9.281e-17 
   8820.725   5.4932e-17 
    8822.25   8.3139e-17 
   8823.775   1.1043e-16 
     8825.3   1.0882e-16 
   8826.825   1.3833e-16 
    8828.35   1.0619e-16 
   8829.875   6.0442e-17 
     8831.4   6.6913e-17 
   8832.925   1.0558e-16 
    8834.45   1.1028e-16 
   8835.975   9.8843e-17 
     8837.5   9.0069e-17 
   8839.025   7.1245e-17 
    8840.55   6.9613e-17 
   8842.075    8.549e-17 
     8843.6   9.0828e-17 
   8845.125   8.1457e-17 
    8846.65   8.0459e-17 
   8848.175   8.7674e-17 
     8849.7    8.101e-17 
   8851.225   7.2016e-17 
    8852.75    7.756e-17 
   8854.275   7.7659e-17 
     8855.8   8.1665e-17 
   8857.325   8.8277e-17 
    8858.85   8.2006e-17 
   8860.375    7.921e-17 
     8861.9   8.0227e-17 
   8863.425    9.279e-17 
    8864.95     9.39e-17 
   8866.475    7.426e-17 
     8868.0   8.4034e-17 
   8869.525   8.7784e-17 
    8871.05   7.8808e-17 
   8872.575   7.6484e-17 
     8874.1   7.4372e-17 
   8875.625   7.9394e-17 
    8877.15    7.669e-17 
   8878.675   6.3409e-17 
     8880.2   6.9521e-17 
   8881.725   1.1916e-16 
    8883.25   9.8601e-17 
   8884.775   7.7702e-17 
     8886.3   1.0809e-16 
   8887.825   6.8474e-17 
    8889.35   4.8574e-17 
   8890.875   7.2588e-17 
     8892.4   7.9595e-17 
   8893.925   8.3499e-17 
    8895.45   8.3456e-17 
   8896.975   7.2735e-17 
     8898.5   9.7041e-17 
   8900.025   1.1106e-16 
    8901.55   9.4252e-17 
   8903.075   1.0101e-16 
     8904.6   8.2626e-17 
   8906.125   7.3645e-17 
    8907.65   9.2171e-17 
   8909.175   8.4375e-17 
     8910.7   6.8455e-17 
   8912.225    7.021e-17 
    8913.75   7.0976e-17 
   8915.275   1.1529e-16 
     8916.8   1.4511e-16 
   8918.325   1.2876e-16 
    8919.85   1.0895e-16 
   8921.375   5.1629e-17 
     8922.9   3.8376e-17 
   8924.425   6.3482e-17 
    8925.95   6.4761e-17 
   8927.475   7.4465e-17 
     8929.0   8.7489e-17 
   8930.525   8.0704e-17 
    8932.05   6.6723e-17 
   8933.575   6.2718e-17 
     8935.1    7.167e-17 
   8936.625   6.5928e-17 
    8938.15   6.1694e-17 
   8939.675   7.5164e-17 
     8941.2     7.91e-17 
   8942.725    8.147e-17 
    8944.25   8.0135e-17 
   8945.775   7.0957e-17 
     8947.3   6.7454e-17 
   8948.825   6.8662e-17 
    8950.35   6.8141e-17 
   8951.875   8.0213e-17 
     8953.4   1.1842e-16 
   8954.925   1.3021e-16 
    8956.45   1.1079e-16 
   8957.975   1.1898e-16 
     8959.5    9.652e-17 
   8961.025   4.2593e-17 
    8962.55    6.619e-17 
   8964.075   1.0432e-16 
     8965.6   8.7697e-17 
   8967.125   6.5818e-17 
    8968.65   6.3715e-17 
   8970.175   8.8508e-17 
     8971.7   1.0632e-16 
   8973.225   9.6075e-17 
    8974.75   8.3227e-17 
   8976.275   7.5681e-17 
     8977.8   8.2723e-17 
   8979.325   9.9855e-17 
    8980.85   9.5733e-17 
   8982.375   8.4689e-17 
     8983.9      9.4e-17 
   8985.425   1.0922e-16 
    8986.95   1.1953e-16 
   8988.475    1.138e-16 
     8990.0   1.1426e-16 
   8991.525   1.1188e-16 
    8993.05   9.0983e-17 
   8994.575   9.1185e-17 
     8996.1   1.0786e-16 
   8997.625   1.2419e-16 
    8999.15   1.1643e-16 
