# STATUS =
# OBJECT = 2018gkz
# TELESCOPE = P200
# INSTRUMENT = SEDM
# DATE-OBS = 2018-10-06 00:00:00.000
# MJD = 58397.0
# EXPTIME =
# AIRMASS =
# SLIT =
# DISPERSER =
# SOURCE = DOI 10.3847/1538-4357/aca161
# FILTER =
# RESOLUTION =
# FLUX_STANDARD =
# EXTINCTION_CORRECTED =
# PHOTOMETRY_CALIBRATED =
# TELLURIC_CORRECTED =
# FLUX_UNITS =
# WAVE_UNITS =
# QUALITY =
# MIN_WAVE = 3500.937
# MAX_WAVE = 9999.404
# COMMENT =
 Wavelength        Flux 
   3502.002   1.332e-16 
   3503.066   2.934e-17 
   3504.131   2.636e-17 
   3505.195   4.864e-17 
    3506.26   4.424e-17 
   3507.324   4.355e-17 
   3508.389   9.741e-17 
   3509.454   7.752e-17 
   3510.519   1.168e-16 
   3511.584   4.768e-17 
   3512.648   2.088e-17 
   3513.713   2.092e-17 
   3514.778   2.485e-17 
   3515.843    7.54e-17 
   3516.909   2.692e-17 
   3517.974   8.151e-17 
   3519.039   1.163e-17 
   3520.104   8.171e-20 
   3521.169  -3.401e-17 
   3522.235   3.278e-17 
     3523.3   4.641e-17 
   3524.365   3.914e-17 
   3525.431   5.361e-17 
   3526.496   5.421e-17 
   3527.562   6.507e-17 
   3528.628   8.185e-17 
   3529.693   7.675e-17 
   3530.759    5.91e-17 
   3531.825   6.613e-17 
    3532.89   4.424e-17 
   3533.956   4.086e-18 
   3535.022   4.335e-17 
   3536.088   6.557e-17 
   3537.154   6.288e-17 
    3538.22   4.136e-17 
   3539.286   5.759e-17 
   3540.352   6.705e-17 
   3541.418   1.875e-17 
   3542.485    2.72e-17 
   3543.551   -5.32e-20 
   3544.617   8.229e-17 
   3545.684   6.941e-17 
    3546.75   5.291e-17 
   3547.816   4.423e-17 
   3548.883   4.473e-17 
   3549.949   9.843e-18 
   3551.016   2.695e-17 
   3552.083   4.554e-17 
   3553.149    9.71e-17 
   3554.216   6.468e-17 
   3555.283   2.697e-17 
    3556.35   5.746e-17 
   3557.416   3.917e-17 
   3558.483   9.412e-17 
    3559.55   4.834e-17 
   3560.617   7.992e-17 
   3561.684   9.125e-17 
   3562.751   2.633e-17 
   3563.818   4.603e-17 
   3564.886   6.226e-17 
   3565.953   6.474e-17 
    3567.02    7.39e-17 
   3568.087   1.277e-16 
   3569.155   8.859e-17 
   3570.222   9.044e-17 
    3571.29   6.066e-17 
   3572.357    8.27e-17 
   3573.425   5.987e-17 
   3574.492   4.318e-17 
    3575.56   6.145e-17 
   3576.627   9.648e-17 
   3577.695   6.508e-17 
   3578.763   1.058e-16 
   3579.831   8.739e-17 
   3580.898   8.017e-17 
   3581.966    7.92e-17 
   3583.034   2.518e-17 
   3584.102   2.529e-17 
    3585.17   7.814e-17 
   3586.238   6.746e-17 
   3587.306   4.175e-17 
   3588.375   8.761e-17 
   3589.443   6.772e-17 
   3590.511   6.894e-17 
   3591.579   8.547e-17 
   3592.648   7.055e-17 
   3593.716   1.016e-16 
   3594.784   5.892e-17 
   3595.853   1.041e-16 
   3596.921   6.741e-17 
    3597.99   6.574e-17 
   3599.058   1.138e-16 
   3600.127   5.359e-17 
   3601.196   4.945e-17 
   3602.264   8.103e-17 
   3603.333    5.72e-17 
   3604.402   9.083e-17 
   3605.471   1.188e-16 
    3606.54   1.119e-16 
   3607.609   7.062e-17 
   3608.678   7.783e-17 
   3609.747   7.648e-17 
   3610.816   8.441e-17 
   3611.885   8.061e-17 
   3612.954   7.598e-17 
   3614.023   8.219e-17 
   3615.092   1.062e-16 
   3616.162   9.262e-17 
   3617.231   8.638e-17 
     3618.3   1.356e-16 
    3619.37   7.993e-17 
   3620.439   6.129e-17 
   3621.509   1.317e-16 
   3622.578   1.059e-16 
   3623.648   3.817e-17 
   3624.717   5.727e-17 
   3625.787   1.079e-16 
   3626.857   5.975e-17 
   3627.927   1.046e-16 
   3628.996   8.559e-17 
   3630.066   1.139e-16 
   3631.136   6.156e-17 
   3632.206   1.085e-16 
   3633.276   7.422e-17 
   3634.346    1.05e-16 
   3635.416   9.836e-17 
   3636.486   5.376e-17 
   3637.556   9.835e-17 
   3638.626   6.378e-17 
   3639.697   7.254e-17 
   3640.767     7.7e-17 
   3641.837    1.15e-16 
   3642.907   9.225e-17 
   3643.978   9.738e-17 
   3645.048   1.011e-16 
   3646.119   1.362e-16 
   3647.189   5.131e-17 
    3648.26   9.906e-17 
    3649.33   9.164e-17 
   3650.401   6.487e-17 
   3651.472   1.148e-16 
   3652.542   3.635e-17 
   3653.613   4.884e-17 
   3654.684   2.953e-17 
   3655.755   6.793e-17 
   3656.826    5.13e-17 
   3657.897   7.041e-17 
   3658.967   7.566e-17 
   3660.038   1.114e-16 
    3661.11   8.477e-17 
   3662.181   5.392e-17 
   3663.252   8.234e-17 
   3664.323   5.722e-17 
   3665.394   1.184e-16 
   3666.465   8.993e-17 
   3667.537   7.252e-17 
   3668.608   1.018e-16 
   3669.679   8.298e-17 
   3670.751   7.463e-17 
   3671.822   6.691e-17 
   3672.894   1.058e-16 
   3673.965   1.233e-16 
   3675.037   7.994e-17 
   3676.108   1.091e-16 
    3677.18   1.082e-16 
   3678.252   1.414e-16 
   3679.324   9.402e-17 
   3680.395   1.085e-16 
   3681.467   8.556e-17 
   3682.539   6.807e-17 
   3683.611   1.034e-16 
   3684.683   9.688e-17 
   3685.755   6.266e-17 
   3686.827   9.017e-17 
   3687.899   7.158e-17 
   3688.971    9.97e-17 
   3690.043   6.824e-17 
   3691.115   9.483e-17 
   3692.187    9.57e-17 
    3693.26   6.824e-17 
   3694.332   9.237e-17 
   3695.404   9.938e-17 
   3696.477   6.131e-17 
   3697.549    7.59e-17 
   3698.622   5.388e-17 
   3699.694   5.818e-17 
   3700.767   7.474e-17 
   3701.839   8.493e-17 
   3702.912   8.579e-17 
   3703.984   8.152e-17 
   3705.057   6.778e-17 
    3706.13   7.166e-17 
   3707.203   9.902e-17 
   3708.275   9.687e-17 
   3709.348   7.743e-17 
   3710.421   9.332e-17 
   3711.494   1.093e-16 
   3712.567   7.493e-17 
    3713.64   9.989e-17 
   3714.713   9.084e-17 
   3715.786   6.195e-17 
   3716.859   8.925e-17 
   3717.932   1.036e-16 
   3719.006   6.703e-17 
   3720.079   6.996e-17 
   3721.152   8.126e-17 
   3722.225   8.475e-17 
   3723.299    7.92e-17 
   3724.372    7.87e-17 
   3725.446   4.538e-17 
   3726.519   7.159e-17 
   3727.593   6.181e-17 
   3728.666   7.407e-17 
    3729.74    6.41e-17 
   3730.813   9.991e-17 
   3731.887    4.85e-17 
   3732.961   6.378e-17 
   3734.034   4.026e-17 
   3735.108   1.059e-16 
   3736.182   9.379e-17 
   3737.256   7.796e-17 
    3738.33   8.381e-17 
   3739.404   8.103e-17 
   3740.478   1.931e-17 
   3741.552   7.492e-17 
   3742.626   6.047e-17 
     3743.7   8.002e-17 
   3744.774   7.223e-17 
   3745.848   6.676e-17 
   3746.922   2.564e-17 
   3747.996   5.967e-17 
   3749.071   5.261e-17 
   3750.145   5.244e-17 
   3751.219   3.447e-17 
   3752.294   3.889e-17 
   3753.368     9.3e-17 
   3754.442    5.44e-17 
   3755.517   4.611e-17 
   3756.591   2.452e-17 
   3757.666   8.833e-17 
   3758.741   8.875e-17 
   3759.815   6.262e-17 
    3760.89    6.11e-17 
   3761.965   5.178e-17 
   3763.039   5.592e-17 
   3764.114   5.056e-17 
   3765.189   7.031e-17 
   3766.264    7.75e-17 
   3767.339   6.101e-17 
   3768.414   5.127e-17 
   3769.489   5.134e-17 
   3770.564   6.178e-17 
   3771.639   9.208e-18 
   3772.714   4.041e-17 
   3773.789   6.991e-17 
   3774.864    7.58e-17 
   3775.939   5.962e-17 
   3777.014   6.632e-17 
    3778.09   5.089e-17 
   3779.165   2.643e-17 
    3780.24   3.495e-17 
   3781.316   4.798e-17 
   3782.391   6.636e-17 
   3783.466   2.298e-17 
   3784.542   1.467e-17 
   3785.617   5.619e-17 
   3786.693   4.809e-17 
   3787.769   2.642e-17 
   3788.844   2.087e-17 
    3789.92   4.216e-17 
   3790.995   4.851e-17 
   3792.071   6.707e-17 
   3793.147   5.583e-17 
   3794.223   5.026e-17 
   3795.299   5.961e-17 
   3796.374   7.294e-17 
    3797.45   4.628e-17 
   3798.526   5.838e-17 
   3799.602   3.879e-17 
   3800.678   6.582e-17 
   3801.754   7.241e-17 
    3802.83   5.194e-17 
   3803.906   3.708e-17 
   3804.983    3.13e-17 
   3806.059   2.834e-17 
   3807.135   6.417e-17 
   3808.211   5.927e-17 
   3809.288   3.973e-17 
   3810.364   4.097e-17 
    3811.44   4.427e-17 
   3812.517   5.261e-17 
   3813.593   5.285e-17 
   3814.669   6.017e-17 
   3815.746   4.583e-17 
   3816.822   4.279e-17 
   3817.899   2.109e-17 
   3818.976   6.715e-17 
   3820.052   5.882e-17 
   3821.129    6.19e-17 
   3822.206   6.564e-17 
   3823.282   6.054e-17 
   3824.359   6.393e-17 
   3825.436   6.197e-17 
   3826.513   8.012e-17 
    3827.59   6.619e-17 
   3828.667   3.996e-17 
   3829.743   6.522e-17 
    3830.82    6.98e-17 
   3831.897   6.237e-17 
   3832.974   6.569e-17 
   3834.052    6.94e-17 
   3835.129   6.267e-17 
   3836.206   5.922e-17 
   3837.283   5.355e-17 
    3838.36   6.392e-17 
   3839.437   6.897e-17 
   3840.515   4.083e-17 
   3841.592   7.714e-17 
   3842.669   5.025e-17 
   3843.747   4.821e-17 
   3844.824   7.029e-17 
   3845.902   6.383e-17 
   3846.979    5.27e-17 
   3848.057   9.704e-17 
   3849.134    7.99e-17 
   3850.212   5.937e-17 
   3851.289   4.178e-17 
   3852.367   8.105e-17 
   3853.445    8.09e-17 
   3854.522   8.545e-17 
     3855.6   7.368e-17 
   3856.678   5.721e-17 
   3857.756   1.109e-16 
   3858.834   6.025e-17 
   3859.911   4.386e-17 
   3860.989   5.523e-17 
   3862.067   4.694e-17 
   3863.145   6.881e-17 
   3864.223    4.11e-17 
   3865.301    6.25e-17 
   3866.379   5.823e-17 
   3867.457   6.157e-17 
   3868.536   8.123e-17 
   3869.614   9.202e-17 
   3870.692   6.647e-17 
    3871.77   3.399e-17 
   3872.848   8.205e-17 
   3873.927   7.093e-17 
   3875.005   9.069e-17 
   3876.083   8.113e-17 
   3877.162   7.399e-17 
    3878.24   5.838e-17 
   3879.319   7.505e-17 
   3880.397   5.991e-17 
   3881.476   7.359e-17 
   3882.554   7.774e-17 
   3883.633   8.271e-17 
   3884.711   5.819e-17 
    3885.79   7.559e-17 
   3886.869   6.651e-17 
   3887.947   6.485e-17 
   3889.026   6.445e-17 
   3890.105    7.35e-17 
   3891.184   7.392e-17 
   3892.263   6.641e-17 
   3893.342    6.23e-17 
    3894.42   8.637e-17 
   3895.499    9.31e-17 
   3896.578   9.614e-17 
   3897.657   9.441e-17 
   3898.736   7.012e-17 
   3899.815   7.219e-17 
   3900.894   7.142e-17 
   3901.974   5.426e-17 
   3903.053   8.542e-17 
   3904.132   5.711e-17 
   3905.211   8.576e-17 
    3906.29   7.418e-17 
    3907.37   6.036e-17 
   3908.449   8.507e-17 
   3909.528   6.048e-17 
   3910.608   4.533e-17 
   3911.687   6.172e-17 
   3912.766   7.387e-17 
   3913.846   7.919e-17 
   3914.925   5.231e-17 
   3916.005   4.743e-17 
   3917.084   4.742e-17 
   3918.164    5.98e-17 
   3919.244   7.589e-17 
   3920.323   7.091e-17 
   3921.403   8.453e-17 
   3922.483   7.293e-17 
   3923.562   5.229e-17 
   3924.642   4.175e-17 
   3925.722   8.515e-17 
   3926.802   5.449e-17 
   3927.882   7.045e-17 
   3928.962   7.112e-17 
   3930.041   4.582e-17 
   3931.121   6.163e-17 
   3932.201   6.343e-17 
   3933.281    5.59e-17 
   3934.361   7.216e-17 
   3935.441   5.966e-17 
   3936.522   7.406e-17 
   3937.602   6.292e-17 
   3938.682   5.803e-17 
   3939.762   9.294e-17 
   3940.842   6.672e-17 
   3941.922   8.477e-17 
   3943.003   7.835e-17 
   3944.083   7.037e-17 
   3945.163   6.552e-17 
   3946.244   4.253e-17 
   3947.324    3.55e-17 
   3948.404   6.701e-17 
   3949.485   5.857e-17 
   3950.565   7.909e-17 
   3951.646   5.689e-17 
   3952.726   7.474e-17 
   3953.807   6.774e-17 
   3954.887   6.652e-17 
   3955.968   7.898e-17 
   3957.049   8.772e-17 
   3958.129   7.434e-17 
    3959.21   6.537e-17 
   3960.291   8.403e-17 
   3961.372   7.669e-17 
   3962.452   6.917e-17 
   3963.533   5.064e-17 
   3964.614   7.926e-17 
   3965.695   7.827e-17 
   3966.776   5.717e-17 
   3967.857   6.165e-17 
   3968.938   7.103e-17 
   3970.019   5.504e-17 
     3971.1   4.194e-17 
   3972.181   6.404e-17 
   3973.262   6.883e-17 
   3974.343   6.519e-17 
   3975.424   7.053e-17 
   3976.505   6.106e-17 
   3977.586   5.382e-17 
   3978.668   6.989e-17 
   3979.749   5.672e-17 
    3980.83   7.163e-17 
   3981.911   5.343e-17 
   3982.993   4.529e-17 
   3984.074    6.06e-17 
   3985.155   8.478e-17 
   3986.237   7.701e-17 
   3987.318   4.702e-17 
     3988.4   6.303e-17 
   3989.481   7.419e-17 
   3990.563   5.516e-17 
   3991.644   5.974e-17 
   3992.726   7.465e-17 
   3993.807    5.84e-17 
   3994.889   8.064e-17 
   3995.971   7.385e-17 
   3997.052   5.093e-17 
   3998.134   6.119e-17 
   3999.216   5.344e-17 
   4000.298   5.489e-17 
   4001.379   6.869e-17 
   4002.461   9.137e-17 
   4003.543   7.705e-17 
   4004.625    6.21e-17 
   4005.707   6.199e-17 
   4006.789   4.946e-17 
   4007.871   6.192e-17 
   4008.953   8.091e-17 
   4010.035   8.724e-17 
   4011.117   6.871e-17 
   4012.199   4.259e-17 
   4013.281   8.469e-17 
   4014.363   7.557e-17 
   4015.445   5.602e-17 
   4016.527   7.697e-17 
   4017.609   9.062e-17 
   4018.691   6.627e-17 
   4019.774   8.266e-17 
   4020.856   8.381e-17 
   4021.938   7.554e-17 
   4023.021    6.98e-17 
   4024.103   8.538e-17 
   4025.185    7.96e-17 
   4026.268   7.133e-17 
    4027.35   9.089e-17 
   4028.432   7.058e-17 
   4029.515   4.305e-17 
   4030.597   8.863e-17 
    4031.68   5.399e-17 
   4032.763   6.459e-17 
   4033.845   7.817e-17 
   4034.928   6.824e-17 
    4036.01   8.705e-17 
   4037.093   4.883e-17 
   4038.176   5.906e-17 
   4039.258   6.799e-17 
   4040.341   5.604e-17 
   4041.424   7.181e-17 
   4042.507   8.649e-17 
   4043.589    6.16e-17 
   4044.672    7.52e-17 
   4045.755   6.124e-17 
   4046.838   5.505e-17 
   4047.921   8.723e-17 
   4049.004   6.865e-17 
   4050.087    4.32e-17 
    4051.17   7.642e-17 
   4052.253    7.84e-17 
   4053.336   7.367e-17 
   4054.419   7.879e-17 
   4055.502   6.211e-17 
   4056.585    7.98e-17 
   4057.668   6.916e-17 
   4058.751     1.1e-16 
   4059.834   7.903e-17 
   4060.918   5.793e-17 
   4062.001   6.106e-17 
   4063.084   5.571e-17 
   4064.167   5.786e-17 
   4065.251   6.486e-17 
   4066.334   6.943e-17 
   4067.417   8.033e-17 
   4068.501   7.848e-17 
   4069.584   5.743e-17 
   4070.667   5.195e-17 
   4071.751   7.943e-17 
   4072.834    5.51e-17 
   4073.918   6.951e-17 
   4075.001   7.164e-17 
   4076.085   7.739e-17 
   4077.168   8.224e-17 
   4078.252   5.995e-17 
   4079.336    6.68e-17 
   4080.419   6.661e-17 
   4081.503   6.365e-17 
   4082.586   7.234e-17 
    4083.67   3.554e-17 
   4084.754   6.974e-17 
   4085.838   8.168e-17 
   4086.921   5.711e-17 
   4088.005   5.493e-17 
   4089.089   7.784e-17 
   4090.173   7.695e-17 
   4091.257   6.139e-17 
   4092.341   8.467e-17 
   4093.425   5.472e-17 
   4094.508   9.037e-17 
   4095.592   7.037e-17 
   4096.676   6.995e-17 
    4097.76   5.672e-17 
   4098.844   9.308e-17 
   4099.928   7.559e-17 
   4101.013   6.335e-17 
   4102.097   8.163e-17 
   4103.181   6.516e-17 
   4104.265    7.88e-17 
   4105.349   6.776e-17 
   4106.433   6.091e-17 
   4107.517   7.421e-17 
   4108.602   9.019e-17 
   4109.686   4.264e-17 
    4110.77    8.82e-17 
   4111.854   8.463e-17 
   4112.939   7.251e-17 
   4114.023   7.171e-17 
   4115.107   6.589e-17 
   4116.192   7.142e-17 
   4117.276   9.812e-17 
   4118.361   7.891e-17 
   4119.445   6.476e-17 
    4120.53   7.598e-17 
   4121.614   7.766e-17 
   4122.699   8.464e-17 
   4123.783    8.18e-17 
   4124.868   8.496e-17 
   4125.952   7.554e-17 
   4127.037   8.292e-17 
   4128.122   8.792e-17 
   4129.206   7.401e-17 
   4130.291   7.935e-17 
   4131.376   5.964e-17 
    4132.46     6.2e-17 
   4133.545   8.931e-17 
    4134.63   7.339e-17 
   4135.714   5.543e-17 
   4136.799   6.505e-17 
   4137.884   8.843e-17 
   4138.969   4.194e-17 
   4140.054   6.564e-17 
   4141.139   6.928e-17 
   4142.224    5.89e-17 
   4143.308   6.617e-17 
   4144.393   7.075e-17 
   4145.478   6.785e-17 
   4146.563   7.112e-17 
   4147.648   6.603e-17 
   4148.733   8.289e-17 
   4149.818   5.735e-17 
   4150.904     7.8e-17 
   4151.989   5.976e-17 
   4153.074   7.147e-17 
   4154.159   8.281e-17 
   4155.244   9.458e-17 
   4156.329   6.172e-17 
   4157.414   8.162e-17 
     4158.5   9.657e-17 
   4159.585   9.396e-17 
    4160.67   7.127e-17 
   4161.755   7.513e-17 
   4162.841   4.993e-17 
   4163.926    8.65e-17 
   4165.011   6.823e-17 
   4166.097   7.958e-17 
   4167.182   8.176e-17 
   4168.267   6.183e-17 
   4169.353   9.048e-17 
   4170.438   6.742e-17 
   4171.524    4.55e-17 
   4172.609   7.862e-17 
   4173.695   6.186e-17 
    4174.78   6.839e-17 
   4175.866   6.733e-17 
   4176.951   7.506e-17 
   4178.037   8.371e-17 
   4179.122   7.793e-17 
   4180.208   5.697e-17 
   4181.294   7.643e-17 
   4182.379   7.259e-17 
   4183.465   7.831e-17 
   4184.551    7.73e-17 
   4185.636   5.263e-17 
   4186.722   6.133e-17 
   4187.808   6.917e-17 
   4188.894   6.421e-17 
   4189.979   6.369e-17 
   4191.065   7.146e-17 
   4192.151   7.818e-17 
   4193.237   7.778e-17 
   4194.323   8.244e-17 
   4195.409    6.07e-17 
   4196.495   8.918e-17 
    4197.58   5.424e-17 
   4198.666   4.161e-17 
   4199.752   7.348e-17 
   4200.838   7.371e-17 
   4201.924   8.113e-17 
    4203.01   5.434e-17 
   4204.096   8.346e-17 
   4205.182    7.37e-17 
   4206.268   8.782e-17 
   4207.355   6.645e-17 
   4208.441   8.369e-17 
   4209.527   6.708e-17 
   4210.613   6.606e-17 
   4211.699   7.607e-17 
   4212.785   6.404e-17 
   4213.871   9.463e-17 
   4214.958   6.074e-17 
   4216.044    5.89e-17 
    4217.13   5.622e-17 
   4218.216   8.886e-17 
   4219.303   5.377e-17 
   4220.389   9.186e-17 
   4221.475   4.618e-17 
   4222.562   6.582e-17 
   4223.648   5.725e-17 
   4224.734   8.773e-17 
   4225.821   8.142e-17 
   4226.907   7.285e-17 
   4227.994   6.231e-17 
    4229.08   7.866e-17 
   4230.167   6.982e-17 
   4231.253   6.842e-17 
    4232.34   7.067e-17 
   4233.426   1.022e-16 
   4234.513   1.008e-16 
   4235.599   6.046e-17 
   4236.686   6.744e-17 
   4237.772   7.911e-17 
   4238.859    5.09e-17 
   4239.945   6.295e-17 
   4241.032   5.622e-17 
   4242.119   5.826e-17 
   4243.205   8.289e-17 
   4244.292   8.565e-17 
   4245.379   7.928e-17 
   4246.466   7.285e-17 
   4247.552     7.4e-17 
   4248.639   9.874e-17 
   4249.726    6.15e-17 
   4250.813   7.408e-17 
   4251.899   9.008e-17 
   4252.986   6.389e-17 
   4254.073     7.5e-17 
    4255.16   7.905e-17 
   4256.247   8.753e-17 
   4257.334   6.555e-17 
   4258.421   7.465e-17 
   4259.507   7.442e-17 
   4260.594   9.151e-17 
   4261.681    7.11e-17 
   4262.768   6.884e-17 
   4263.855   8.189e-17 
   4264.942   8.548e-17 
   4266.029   8.354e-17 
   4267.116   8.689e-17 
   4268.203    8.17e-17 
    4269.29   3.977e-17 
   4270.377   6.262e-17 
   4271.465   7.166e-17 
   4272.552   7.945e-17 
   4273.639   5.626e-17 
   4274.726   9.319e-17 
   4275.813   5.442e-17 
     4276.9   8.068e-17 
   4277.987   8.428e-17 
   4279.075   7.108e-17 
   4280.162    7.22e-17 
   4281.249   8.012e-17 
   4282.336    6.63e-17 
   4283.424   6.909e-17 
   4284.511   8.422e-17 
   4285.598   6.929e-17 
   4286.685   6.766e-17 
   4287.773   9.537e-17 
    4288.86   7.801e-17 
   4289.947   7.668e-17 
   4291.035   1.232e-16 
   4292.122   9.014e-17 
    4293.21   7.898e-17 
   4294.297    1.03e-16 
   4295.384   9.576e-17 
   4296.472   8.153e-17 
   4297.559   9.287e-17 
   4298.647   8.236e-17 
   4299.734   8.784e-17 
   4300.822   9.749e-17 
   4301.909   9.865e-17 
   4302.997   8.089e-17 
   4304.084   8.432e-17 
   4305.172   9.038e-17 
    4306.26   6.239e-17 
   4307.347   1.112e-16 
   4308.435   9.508e-17 
   4309.522   7.687e-17 
    4310.61   6.942e-17 
   4311.698   6.827e-17 
   4312.785   1.108e-16 
   4313.873   8.908e-17 
   4314.961   9.826e-17 
   4316.048   1.034e-16 
   4317.136   9.404e-17 
   4318.224   1.097e-16 
   4319.312   9.318e-17 
   4320.399   1.025e-16 
   4321.487   9.447e-17 
   4322.575    7.46e-17 
   4323.663   9.846e-17 
    4324.75   1.003e-16 
   4325.838    7.33e-17 
   4326.926   9.962e-17 
   4328.014    8.73e-17 
   4329.102   6.933e-17 
    4330.19   8.039e-17 
   4331.278   8.343e-17 
   4332.365   1.043e-16 
   4333.453   1.037e-16 
   4334.541   7.424e-17 
   4335.629   8.373e-17 
   4336.717   9.058e-17 
   4337.805   8.076e-17 
   4338.893   8.861e-17 
   4339.981   7.641e-17 
   4341.069   1.079e-16 
   4342.157   8.559e-17 
   4343.245   9.839e-17 
   4344.333    8.84e-17 
   4345.421   9.526e-17 
   4346.509   8.744e-17 
   4347.597   1.014e-16 
   4348.686   9.384e-17 
   4349.774   1.164e-16 
   4350.862   1.332e-16 
    4351.95   1.166e-16 
   4353.038   1.221e-16 
   4354.126   8.862e-17 
   4355.214   1.031e-16 
   4356.303   1.108e-16 
   4357.391   1.014e-16 
   4358.479   1.134e-16 
   4359.567   9.261e-17 
   4360.655   1.498e-16 
   4361.744   8.433e-17 
   4362.832   8.682e-17 
    4363.92   1.077e-16 
   4365.008   9.083e-17 
   4366.097   6.753e-17 
   4367.185   9.043e-17 
   4368.273   8.387e-17 
   4369.362   9.904e-17 
    4370.45    1.02e-16 
   4371.538   1.073e-16 
   4372.627   1.042e-16 
   4373.715   1.158e-16 
   4374.804   1.315e-16 
   4375.892   8.259e-17 
    4376.98   1.238e-16 
   4378.069    1.27e-16 
   4379.157   9.984e-17 
   4380.246   1.089e-16 
   4381.334   1.185e-16 
   4382.423   9.851e-17 
   4383.511   8.992e-17 
   4384.599   1.102e-16 
   4385.688   9.394e-17 
   4386.776   1.148e-16 
   4387.865    1.06e-16 
   4388.954   1.268e-16 
   4390.042   1.193e-16 
   4391.131   1.055e-16 
   4392.219   1.089e-16 
   4393.308   1.004e-16 
   4394.396   1.088e-16 
   4395.485   1.198e-16 
   4396.574     1.2e-16 
   4397.662   1.119e-16 
   4398.751   9.764e-17 
   4399.839   1.099e-16 
   4400.928   1.177e-16 
   4402.017   9.574e-17 
   4403.105    1.44e-16 
   4404.194   1.409e-16 
   4405.283   9.733e-17 
   4406.371   1.155e-16 
    4407.46   1.029e-16 
   4408.549   1.245e-16 
   4409.638   1.316e-16 
   4410.726   1.002e-16 
   4411.815   1.005e-16 
   4412.904   1.253e-16 
   4413.993   1.007e-16 
   4415.081   1.099e-16 
    4416.17   1.335e-16 
   4417.259   1.316e-16 
   4418.348    1.04e-16 
   4419.437   1.141e-16 
   4420.525   1.001e-16 
   4421.614   1.476e-16 
   4422.703   1.064e-16 
   4423.792   1.304e-16 
   4424.881     1.1e-16 
    4425.97   1.406e-16 
   4427.059   1.069e-16 
   4428.147   1.472e-16 
   4429.236   8.658e-17 
   4430.325   1.087e-16 
   4431.414   1.253e-16 
   4432.503   1.223e-16 
   4433.592   1.102e-16 
   4434.681   1.045e-16 
    4435.77   1.364e-16 
   4436.859   1.083e-16 
   4437.948   1.279e-16 
   4439.037   9.738e-17 
   4440.126   1.179e-16 
   4441.215    1.43e-16 
   4442.304   1.175e-16 
   4443.393   1.182e-16 
   4444.482   9.453e-17 
   4445.571   1.309e-16 
    4446.66   1.086e-16 
   4447.749    1.11e-16 
   4448.838   1.035e-16 
   4449.927   9.728e-17 
   4451.016   1.208e-16 
   4452.105   8.553e-17 
   4453.194   1.088e-16 
   4454.284   1.176e-16 
   4455.373   1.036e-16 
   4456.462   1.106e-16 
   4457.551   1.338e-16 
    4458.64   1.144e-16 
   4459.729   1.044e-16 
   4460.818   1.139e-16 
   4461.908   1.209e-16 
   4462.997   1.182e-16 
   4464.086   9.892e-17 
   4465.175   1.054e-16 
   4466.264   8.674e-17 
   4467.353   1.168e-16 
   4468.443   1.305e-16 
   4469.532   8.638e-17 
   4470.621   9.848e-17 
    4471.71   1.207e-16 
     4472.8   1.158e-16 
   4473.889   1.107e-16 
   4474.978   1.134e-16 
   4476.067    1.01e-16 
   4477.157   9.299e-17 
   4478.246   1.071e-16 
   4479.335   1.083e-16 
   4480.424   1.401e-16 
   4481.514   1.053e-16 
   4482.603    1.03e-16 
   4483.692   1.398e-16 
   4484.782   1.024e-16 
   4485.871   9.298e-17 
    4486.96   1.229e-16 
    4488.05    1.15e-16 
   4489.139   1.158e-16 
   4490.228   1.168e-16 
   4491.318   1.165e-16 
   4492.407   1.161e-16 
   4493.496   1.314e-16 
   4494.586    1.07e-16 
   4495.675   1.281e-16 
   4496.765   1.257e-16 
   4497.854   1.217e-16 
   4498.943   1.316e-16 
   4500.033    9.89e-17 
   4501.122    9.01e-17 
   4502.212   1.046e-16 
   4503.301   1.098e-16 
    4504.39   1.206e-16 
    4505.48   1.316e-16 
   4506.569   1.227e-16 
   4507.659   1.181e-16 
   4508.748   1.391e-16 
   4509.838   1.258e-16 
   4510.927    1.44e-16 
   4512.017   1.292e-16 
   4513.106   1.161e-16 
   4514.196   1.338e-16 
   4515.285   1.027e-16 
   4516.375    1.03e-16 
   4517.464   1.244e-16 
   4518.554   1.242e-16 
   4519.643   1.136e-16 
   4520.733   1.307e-16 
   4521.822   1.333e-16 
   4522.912    1.02e-16 
   4524.001   1.398e-16 
   4525.091   1.125e-16 
    4526.18   1.258e-16 
    4527.27   1.328e-16 
   4528.359     1.1e-16 
   4529.449   1.372e-16 
   4530.539   1.141e-16 
   4531.628   1.562e-16 
   4532.718   1.201e-16 
   4533.807   1.181e-16 
   4534.897   1.129e-16 
   4535.986   1.257e-16 
   4537.076   1.329e-16 
   4538.166   1.441e-16 
   4539.255   1.156e-16 
   4540.345   1.188e-16 
   4541.434   1.465e-16 
   4542.524   1.278e-16 
   4543.614   1.227e-16 
   4544.703   1.199e-16 
   4545.793   1.415e-16 
   4546.883   1.314e-16 
   4547.972   1.299e-16 
   4549.062   1.282e-16 
   4550.152   1.119e-16 
   4551.241   1.228e-16 
   4552.331   1.416e-16 
   4553.421   1.402e-16 
    4554.51   1.275e-16 
     4555.6   1.239e-16 
    4556.69   1.295e-16 
   4557.779    1.37e-16 
   4558.869   1.403e-16 
   4559.959   1.119e-16 
   4561.048   1.343e-16 
   4562.138   1.192e-16 
   4563.228   1.076e-16 
   4564.317   1.351e-16 
   4565.407   1.117e-16 
   4566.497   1.333e-16 
   4567.586   1.067e-16 
   4568.676   1.362e-16 
   4569.766   9.711e-17 
   4570.856   1.181e-16 
   4571.945   1.412e-16 
   4573.035   1.087e-16 
   4574.125   1.094e-16 
   4575.215   1.343e-16 
   4576.304   1.111e-16 
   4577.394   1.251e-16 
   4578.484   9.335e-17 
   4579.574   1.143e-16 
   4580.663   1.086e-16 
   4581.753   9.491e-17 
   4582.843   1.075e-16 
   4583.933   9.992e-17 
   4585.022   1.196e-16 
   4586.112   1.121e-16 
   4587.202   1.122e-16 
   4588.292   1.012e-16 
   4589.381   9.736e-17 
   4590.471   1.178e-16 
   4591.561   9.231e-17 
   4592.651   9.629e-17 
   4593.741   1.088e-16 
    4594.83   9.976e-17 
    4595.92   1.055e-16 
    4597.01   9.047e-17 
     4598.1   8.931e-17 
   4599.189   8.549e-17 
   4600.279   8.964e-17 
   4601.369   9.293e-17 
   4602.459   1.147e-16 
   4603.549   9.663e-17 
   4604.639   9.842e-17 
   4605.728   9.831e-17 
   4606.818   1.018e-16 
   4607.908   1.082e-16 
   4608.998   6.613e-17 
   4610.088   1.099e-16 
   4611.177   8.875e-17 
   4612.267   8.603e-17 
   4613.357   1.017e-16 
   4614.447    7.93e-17 
   4615.537   8.561e-17 
   4616.627   7.074e-17 
   4617.716   1.056e-16 
   4618.806   1.015e-16 
   4619.896    8.77e-17 
   4620.986   9.141e-17 
   4622.076   1.108e-16 
   4623.166   1.099e-16 
   4624.255   9.032e-17 
   4625.345   8.944e-17 
   4626.435   9.755e-17 
   4627.525   7.541e-17 
   4628.615   9.756e-17 
   4629.705   1.007e-16 
   4630.794    8.91e-17 
   4631.884   6.167e-17 
   4632.974   7.714e-17 
   4634.064   9.357e-17 
   4635.154   1.031e-16 
   4636.244   1.074e-16 
   4637.333   9.654e-17 
   4638.423   8.607e-17 
   4639.513   7.602e-17 
   4640.603   9.226e-17 
   4641.693   8.412e-17 
   4642.783   9.888e-17 
   4643.873   8.211e-17 
   4644.962   1.061e-16 
   4646.052   9.484e-17 
   4647.142   8.702e-17 
   4648.232   8.428e-17 
   4649.322   8.417e-17 
   4650.412   9.397e-17 
   4651.502   7.461e-17 
   4652.591   8.373e-17 
   4653.681   8.984e-17 
   4654.771   1.135e-16 
   4655.861   1.059e-16 
   4656.951   9.776e-17 
   4658.041   7.647e-17 
    4659.13   8.954e-17 
    4660.22    9.75e-17 
    4661.31   7.819e-17 
     4662.4   7.259e-17 
    4663.49   7.396e-17 
    4664.58   8.077e-17 
    4665.67    9.47e-17 
   4666.759   5.503e-17 
   4667.849   7.592e-17 
   4668.939   8.609e-17 
   4670.029   6.394e-17 
   4671.119   7.659e-17 
   4672.209   8.056e-17 
   4673.299    9.13e-17 
   4674.388   5.695e-17 
   4675.478   1.007e-16 
   4676.568   8.013e-17 
   4677.658   7.949e-17 
   4678.748   9.089e-17 
   4679.838   1.078e-16 
   4680.927    1.04e-16 
   4682.017    9.01e-17 
   4683.107    7.77e-17 
   4684.197   7.818e-17 
   4685.287   7.899e-17 
   4686.377   7.823e-17 
   4687.466   1.039e-16 
   4688.556   7.051e-17 
   4689.646   7.123e-17 
   4690.736   9.841e-17 
   4691.826    9.82e-17 
   4692.916   8.416e-17 
   4694.005   7.883e-17 
   4695.095    9.53e-17 
   4696.185   8.587e-17 
   4697.275   8.768e-17 
   4698.365   1.022e-16 
   4699.454   8.991e-17 
   4700.544   1.103e-16 
   4701.634   8.435e-17 
   4702.724   1.016e-16 
   4703.814   9.231e-17 
   4704.903   1.075e-16 
   4705.993   8.561e-17 
   4707.083     9.8e-17 
   4708.173   9.711e-17 
   4709.263   7.723e-17 
   4710.352   1.074e-16 
   4711.442   1.252e-16 
   4712.532   1.238e-16 
   4713.622   1.121e-16 
   4714.712   1.018e-16 
   4715.801   9.656e-17 
   4716.891   1.116e-16 
   4717.981   9.218e-17 
   4719.071   1.022e-16 
    4720.16   1.354e-16 
    4721.25   1.154e-16 
    4722.34   1.227e-16 
    4723.43   1.064e-16 
   4724.519   1.099e-16 
   4725.609   1.178e-16 
   4726.699   9.162e-17 
   4727.789   1.134e-16 
   4728.878   1.314e-16 
   4729.968   1.114e-16 
   4731.058   9.708e-17 
   4732.148   1.168e-16 
   4733.237    1.07e-16 
   4734.327   8.613e-17 
   4735.417   1.086e-16 
   4736.507   1.043e-16 
   4737.596   9.562e-17 
   4738.686   1.072e-16 
   4739.776   1.088e-16 
   4740.865   1.058e-16 
   4741.955   1.277e-16 
   4743.045   8.121e-17 
   4744.135   1.067e-16 
   4745.224   1.347e-16 
   4746.314   1.315e-16 
   4747.404   1.108e-16 
   4748.493   1.106e-16 
   4749.583   1.154e-16 
   4750.673   1.265e-16 
   4751.762   9.843e-17 
   4752.852   1.208e-16 
   4753.942   1.171e-16 
   4755.031    1.16e-16 
   4756.121   9.506e-17 
   4757.211   1.082e-16 
     4758.3   1.126e-16 
    4759.39   1.169e-16 
    4760.48   1.227e-16 
   4761.569   1.007e-16 
   4762.659   1.088e-16 
   4763.748   1.138e-16 
   4764.838   9.622e-17 
   4765.928   1.289e-16 
   4767.017   1.077e-16 
   4768.107   1.148e-16 
   4769.196   1.074e-16 
   4770.286   1.036e-16 
   4771.376   1.133e-16 
   4772.465   1.362e-16 
   4773.555   9.447e-17 
   4774.644   1.299e-16 
   4775.734    1.05e-16 
   4776.824   8.795e-17 
   4777.913   1.122e-16 
   4779.003   9.366e-17 
   4780.092   1.046e-16 
   4781.182   8.317e-17 
   4782.271    1.09e-16 
   4783.361   9.948e-17 
    4784.45   1.168e-16 
    4785.54   1.119e-16 
   4786.629   1.186e-16 
   4787.719   9.642e-17 
   4788.808   1.128e-16 
   4789.898   1.251e-16 
   4790.987   1.286e-16 
   4792.077   1.111e-16 
   4793.166   1.019e-16 
   4794.256   1.111e-16 
   4795.345   1.147e-16 
   4796.435   1.159e-16 
   4797.524   1.106e-16 
   4798.614   8.562e-17 
   4799.703   1.233e-16 
   4800.793   8.501e-17 
   4801.882   1.312e-16 
   4802.971   1.217e-16 
   4804.061   1.161e-16 
    4805.15   1.292e-16 
    4806.24   1.128e-16 
   4807.329   1.176e-16 
   4808.419   1.324e-16 
   4809.508   1.253e-16 
   4810.597   1.044e-16 
   4811.687   1.218e-16 
   4812.776   1.225e-16 
   4813.865   1.233e-16 
   4814.955   1.261e-16 
   4816.044   1.169e-16 
   4817.134   1.495e-16 
   4818.223   1.187e-16 
   4819.312   1.257e-16 
   4820.402   1.198e-16 
   4821.491   1.195e-16 
    4822.58   1.197e-16 
   4823.669   1.346e-16 
   4824.759   1.243e-16 
   4825.848   1.269e-16 
   4826.937   1.152e-16 
   4828.027   1.016e-16 
   4829.116   1.213e-16 
   4830.205   1.315e-16 
   4831.294   1.274e-16 
   4832.384   1.451e-16 
   4833.473   1.182e-16 
   4834.562   1.436e-16 
   4835.651    1.14e-16 
   4836.741   1.244e-16 
    4837.83   1.287e-16 
   4838.919   1.114e-16 
   4840.008   1.536e-16 
   4841.097   1.096e-16 
   4842.187   1.462e-16 
   4843.276   1.461e-16 
   4844.365   1.498e-16 
   4845.454   1.448e-16 
   4846.543   1.245e-16 
   4847.632   1.201e-16 
   4848.721   1.162e-16 
   4849.811   9.741e-17 
     4850.9    1.09e-16 
   4851.989   1.454e-16 
   4853.078   1.118e-16 
   4854.167   1.205e-16 
   4855.256   1.244e-16 
   4856.345   1.259e-16 
   4857.434   1.284e-16 
   4858.523   1.183e-16 
   4859.612   1.341e-16 
   4860.701   1.271e-16 
    4861.79   1.252e-16 
   4862.879   1.355e-16 
   4863.968    1.31e-16 
   4865.057   1.154e-16 
   4866.146   1.616e-16 
   4867.235   1.284e-16 
   4868.324   1.362e-16 
   4869.413   1.514e-16 
   4870.502   1.088e-16 
   4871.591   1.283e-16 
    4872.68   1.338e-16 
   4873.769   1.164e-16 
   4874.858   1.415e-16 
   4875.947   1.313e-16 
   4877.036   1.586e-16 
   4878.125   1.106e-16 
   4879.214   1.326e-16 
   4880.303   1.406e-16 
   4881.391   1.164e-16 
    4882.48   1.119e-16 
   4883.569   1.052e-16 
   4884.658   1.496e-16 
   4885.747   1.329e-16 
   4886.836   1.306e-16 
   4887.925   1.381e-16 
   4889.013   1.388e-16 
   4890.102   1.499e-16 
   4891.191   1.418e-16 
    4892.28   1.532e-16 
   4893.368   1.382e-16 
   4894.457   1.285e-16 
   4895.546   1.349e-16 
   4896.635   1.162e-16 
   4897.723   1.364e-16 
   4898.812   1.483e-16 
   4899.901   1.296e-16 
    4900.99   1.648e-16 
   4902.078   1.489e-16 
   4903.167   1.141e-16 
   4904.256   1.255e-16 
   4905.344   1.338e-16 
   4906.433   1.533e-16 
   4907.521   1.567e-16 
    4908.61    1.42e-16 
   4909.699   1.312e-16 
   4910.787   1.456e-16 
   4911.876   1.292e-16 
   4912.964   1.611e-16 
   4914.053   1.216e-16 
   4915.142    1.34e-16 
    4916.23   1.347e-16 
   4917.319   1.248e-16 
   4918.407   1.433e-16 
   4919.496   1.239e-16 
   4920.584   1.296e-16 
   4921.673   1.259e-16 
   4922.761   1.218e-16 
    4923.85   1.413e-16 
   4924.938   1.369e-16 
   4926.027   9.568e-17 
   4927.115   1.369e-16 
   4928.203   9.926e-17 
   4929.292   1.471e-16 
    4930.38    1.26e-16 
   4931.469   1.457e-16 
   4932.557   1.179e-16 
   4933.645   1.201e-16 
   4934.734     1.3e-16 
   4935.822   1.359e-16 
    4936.91   1.007e-16 
   4937.999   1.196e-16 
   4939.087   1.328e-16 
   4940.175   1.179e-16 
   4941.264   8.412e-17 
   4942.352   1.244e-16 
    4943.44   9.389e-17 
   4944.528   1.209e-16 
   4945.617   1.393e-16 
   4946.705   1.113e-16 
   4947.793   1.085e-16 
   4948.881   1.321e-16 
    4949.97   1.049e-16 
   4951.058   1.283e-16 
   4952.146    1.25e-16 
   4953.234   1.003e-16 
   4954.322   1.175e-16 
    4955.41   1.154e-16 
   4956.498   1.195e-16 
   4957.587   1.038e-16 
   4958.675    1.03e-16 
   4959.763   1.165e-16 
   4960.851   1.147e-16 
   4961.939   1.232e-16 
   4963.027   1.083e-16 
   4964.115   1.126e-16 
   4965.203   1.182e-16 
   4966.291   1.116e-16 
   4967.379   9.598e-17 
   4968.467   1.072e-16 
   4969.555   1.062e-16 
   4970.643   9.439e-17 
   4971.731   1.098e-16 
   4972.819   9.936e-17 
   4973.907   1.058e-16 
   4974.995   1.168e-16 
   4976.082   1.137e-16 
    4977.17   1.059e-16 
   4978.258   1.105e-16 
   4979.346    1.32e-16 
   4980.434   1.002e-16 
   4981.522   1.098e-16 
   4982.609   1.057e-16 
   4983.697   1.068e-16 
   4984.785   8.321e-17 
   4985.873   9.293e-17 
   4986.961   1.248e-16 
   4988.048   8.904e-17 
   4989.136   1.067e-16 
   4990.224    7.86e-17 
   4991.311   1.034e-16 
   4992.399   1.296e-16 
   4993.487   1.124e-16 
   4994.574    1.15e-16 
   4995.662       1e-16 
    4996.75   1.035e-16 
   4997.837   1.069e-16 
   4998.925   1.149e-16 
   5000.012    8.78e-17 
     5001.1   8.395e-17 
   5002.188   1.033e-16 
   5003.275   9.893e-17 
   5004.363   1.162e-16 
    5005.45   1.275e-16 
   5006.538   9.997e-17 
   5007.625   1.094e-16 
   5008.713   9.378e-17 
     5009.8   1.066e-16 
   5010.887   9.765e-17 
   5011.975   1.088e-16 
   5013.062   1.348e-16 
    5014.15   1.028e-16 
   5015.237   1.052e-16 
   5016.324   1.066e-16 
   5017.412   1.058e-16 
   5018.499   1.177e-16 
   5019.586   1.221e-16 
   5020.674   1.018e-16 
   5021.761    1.19e-16 
   5022.848   1.246e-16 
   5023.936   1.212e-16 
   5025.023   1.258e-16 
    5026.11   9.372e-17 
   5027.197   1.073e-16 
   5028.284   1.057e-16 
   5029.372   1.322e-16 
   5030.459   1.025e-16 
   5031.546   1.095e-16 
   5032.633   1.169e-16 
    5033.72    1.09e-16 
   5034.807   1.337e-16 
   5035.894   1.037e-16 
   5036.981   1.176e-16 
   5038.069   1.083e-16 
   5039.156   1.078e-16 
   5040.243   9.779e-17 
    5041.33    9.53e-17 
   5042.417   9.422e-17 
   5043.504   9.977e-17 
   5044.591    9.99e-17 
   5045.677   8.223e-17 
   5046.764   8.992e-17 
   5047.851   1.023e-16 
   5048.938   9.722e-17 
   5050.025   1.118e-16 
   5051.112   1.207e-16 
   5052.199    9.13e-17 
   5053.286   1.092e-16 
   5054.372   9.726e-17 
   5055.459   1.102e-16 
   5056.546    8.36e-17 
   5057.633   9.392e-17 
    5058.72   1.012e-16 
   5059.806   8.966e-17 
   5060.893   1.164e-16 
    5061.98   1.207e-16 
   5063.066    1.11e-16 
   5064.153    1.12e-16 
    5065.24   1.136e-16 
   5066.326   1.151e-16 
   5067.413   9.333e-17 
   5068.499   1.213e-16 
   5069.586   1.166e-16 
   5070.673   1.146e-16 
   5071.759   1.042e-16 
   5072.846   1.125e-16 
   5073.932    1.05e-16 
   5075.019   9.446e-17 
   5076.105    1.11e-16 
   5077.192   1.165e-16 
   5078.278   1.129e-16 
   5079.364   1.192e-16 
   5080.451   9.984e-17 
   5081.537   1.377e-16 
   5082.624   1.288e-16 
    5083.71   1.092e-16 
   5084.796   8.991e-17 
   5085.883   1.127e-16 
   5086.969   1.091e-16 
   5088.055   9.412e-17 
   5089.141   9.269e-17 
   5090.228   1.152e-16 
   5091.314   1.161e-16 
     5092.4   1.285e-16 
   5093.486   1.331e-16 
   5094.573   1.252e-16 
   5095.659   1.039e-16 
   5096.745   1.136e-16 
   5097.831   9.483e-17 
   5098.917   1.068e-16 
   5100.003   1.153e-16 
   5101.089   1.013e-16 
   5102.175   1.288e-16 
   5103.261   1.342e-16 
   5104.347   9.148e-17 
   5105.433   9.772e-17 
   5106.519   1.042e-16 
   5107.605   1.072e-16 
   5108.691   1.183e-16 
   5109.777   1.136e-16 
   5110.863   1.276e-16 
   5111.949   1.107e-16 
   5113.035   1.257e-16 
    5114.12   1.115e-16 
   5115.206   1.161e-16 
   5116.292    1.24e-16 
   5117.378   1.116e-16 
   5118.464   1.198e-16 
   5119.549   1.094e-16 
   5120.635   1.045e-16 
   5121.721   1.021e-16 
   5122.806   1.316e-16 
   5123.892   1.103e-16 
   5124.978   1.022e-16 
   5126.063   1.108e-16 
   5127.149   1.082e-16 
   5128.235   1.025e-16 
    5129.32   1.128e-16 
   5130.406   1.303e-16 
   5131.491   1.115e-16 
   5132.577   1.069e-16 
   5133.662   1.152e-16 
   5134.748   1.295e-16 
   5135.833    1.09e-16 
   5136.919   1.301e-16 
   5138.004   1.395e-16 
   5139.089    1.12e-16 
   5140.175   1.053e-16 
    5141.26   1.421e-16 
   5142.345   1.085e-16 
   5143.431   1.095e-16 
   5144.516   1.242e-16 
   5145.601   1.343e-16 
   5146.687   1.139e-16 
   5147.772   1.174e-16 
   5148.857   1.092e-16 
   5149.942   1.073e-16 
   5151.027   1.243e-16 
   5152.112   1.048e-16 
   5153.198   1.084e-16 
   5154.283   1.148e-16 
   5155.368   9.926e-17 
   5156.453   1.074e-16 
   5157.538   1.064e-16 
   5158.623   1.148e-16 
   5159.708   1.192e-16 
   5160.793   1.224e-16 
   5161.878     1.4e-16 
   5162.963   1.434e-16 
   5164.048   1.267e-16 
   5165.133   1.227e-16 
   5166.217    1.32e-16 
   5167.302    1.21e-16 
   5168.387   9.529e-17 
   5169.472   1.131e-16 
   5170.557   1.137e-16 
   5171.642   1.382e-16 
   5172.726   8.991e-17 
   5173.811   1.313e-16 
   5174.896   1.242e-16 
    5175.98   1.137e-16 
   5177.065   9.886e-17 
    5178.15   1.161e-16 
   5179.234   1.165e-16 
   5180.319    1.22e-16 
   5181.403   9.486e-17 
   5182.488    1.16e-16 
   5183.573   1.203e-16 
   5184.657   1.141e-16 
   5185.742   1.045e-16 
   5186.826   1.146e-16 
    5187.91    1.29e-16 
   5188.995   1.097e-16 
   5190.079   1.001e-16 
   5191.164   9.578e-17 
   5192.248   1.201e-16 
   5193.332   1.184e-16 
   5194.417   1.184e-16 
   5195.501   1.169e-16 
   5196.585   1.108e-16 
   5197.669   1.428e-16 
   5198.754   1.092e-16 
   5199.838   1.076e-16 
   5200.922    1.35e-16 
   5202.006   9.721e-17 
    5203.09   1.102e-16 
   5204.174   9.136e-17 
   5205.259   1.227e-16 
   5206.343   1.254e-16 
   5207.427    1.17e-16 
   5208.511   1.029e-16 
   5209.595   1.114e-16 
   5210.679   8.064e-17 
   5211.763   1.023e-16 
   5212.847   9.986e-17 
    5213.93   9.294e-17 
   5215.014   9.987e-17 
   5216.098   9.238e-17 
   5217.182   1.112e-16 
   5218.266   9.177e-17 
    5219.35   9.904e-17 
   5220.433   1.031e-16 
   5221.517   1.181e-16 
   5222.601   9.633e-17 
   5223.684   1.077e-16 
   5224.768   1.202e-16 
   5225.852   1.209e-16 
   5226.935   1.203e-16 
   5228.019    1.09e-16 
   5229.103    1.17e-16 
   5230.186   1.339e-16 
    5231.27   1.037e-16 
   5232.353   1.069e-16 
   5233.437    1.08e-16 
    5234.52   1.252e-16 
   5235.604   1.146e-16 
   5236.687   1.049e-16 
    5237.77   1.252e-16 
   5238.854   9.706e-17 
   5239.937   1.201e-16 
    5241.02    8.93e-17 
   5242.104   1.035e-16 
   5243.187   8.928e-17 
    5244.27   1.151e-16 
   5245.353   1.016e-16 
   5246.437   1.032e-16 
    5247.52   9.988e-17 
   5248.603   1.243e-16 
   5249.686   1.323e-16 
   5250.769   1.219e-16 
   5251.852    8.94e-17 
   5252.935   8.528e-17 
   5254.018   9.869e-17 
   5255.101   1.088e-16 
   5256.184   1.047e-16 
   5257.267   1.371e-16 
    5258.35   1.005e-16 
   5259.433   1.052e-16 
   5260.516    1.19e-16 
   5261.599    1.33e-16 
   5262.681   1.007e-16 
   5263.764   1.257e-16 
   5264.847   1.287e-16 
    5265.93   9.232e-17 
   5267.012    1.06e-16 
   5268.095   1.403e-16 
   5269.178   1.108e-16 
    5270.26    1.06e-16 
   5271.343   1.285e-16 
   5272.426   1.111e-16 
   5273.508   9.376e-17 
   5274.591   9.337e-17 
   5275.673   1.128e-16 
   5276.756   9.761e-17 
   5277.838   1.215e-16 
   5278.921   1.005e-16 
   5280.003   9.717e-17 
   5281.085   1.171e-16 
   5282.168   1.102e-16 
    5283.25   9.321e-17 
   5284.332   9.316e-17 
   5285.415   9.642e-17 
   5286.497   9.275e-17 
   5287.579   9.608e-17 
   5288.661   1.018e-16 
   5289.744   9.729e-17 
   5290.826   9.772e-17 
   5291.908   1.078e-16 
    5292.99    9.64e-17 
   5294.072   8.551e-17 
   5295.154   9.961e-17 
   5296.236   1.332e-16 
   5297.318   9.946e-17 
     5298.4   1.305e-16 
   5299.482   7.768e-17 
   5300.564   1.162e-16 
   5301.646   1.085e-16 
   5302.728   1.038e-16 
   5303.809   7.621e-17 
   5304.891   7.003e-17 
   5305.973   9.356e-17 
   5307.055   1.137e-16 
   5308.136   1.286e-16 
   5309.218   7.486e-17 
     5310.3   9.232e-17 
   5311.381   8.049e-17 
   5312.463   9.811e-17 
   5313.545   1.098e-16 
   5314.626   1.115e-16 
   5315.708   6.013e-17 
   5316.789   8.697e-17 
   5317.871   8.734e-17 
   5318.952   9.067e-17 
   5320.034    1.06e-16 
   5321.115   1.237e-16 
   5322.196   9.164e-17 
   5323.278   1.152e-16 
   5324.359   7.685e-17 
    5325.44   9.741e-17 
   5326.522   1.038e-16 
   5327.603   1.188e-16 
   5328.684   8.464e-17 
   5329.765   8.579e-17 
   5330.846   1.015e-16 
   5331.927   8.449e-17 
   5333.008   6.698e-17 
    5334.09   1.093e-16 
   5335.171   1.184e-16 
   5336.252   1.013e-16 
   5337.333   8.805e-17 
   5338.414    7.59e-17 
   5339.494   8.151e-17 
   5340.575    9.31e-17 
   5341.656   9.165e-17 
   5342.737   1.035e-16 
   5343.818   8.946e-17 
   5344.899   8.756e-17 
   5345.979   8.494e-17 
    5347.06   9.916e-17 
   5348.141    8.36e-17 
   5349.221   9.402e-17 
   5350.302    7.43e-17 
   5351.383   8.557e-17 
   5352.463   8.583e-17 
   5353.544   1.118e-16 
   5354.624   1.081e-16 
   5355.705   9.282e-17 
   5356.785   8.172e-17 
   5357.866   8.516e-17 
   5358.946   8.007e-17 
   5360.026   9.092e-17 
   5361.107   6.577e-17 
   5362.187   7.224e-17 
   5363.267   8.026e-17 
   5364.348   8.178e-17 
   5365.428   8.202e-17 
   5366.508   1.043e-16 
   5367.588   8.723e-17 
   5368.668   6.443e-17 
   5369.749   7.015e-17 
   5370.829   9.238e-17 
   5371.909   9.903e-17 
   5372.989    8.09e-17 
   5374.069   8.093e-17 
   5375.149   8.578e-17 
   5376.229   5.371e-17 
   5377.308    1.09e-16 
   5378.388   1.022e-16 
   5379.468    9.78e-17 
   5380.548   9.343e-17 
   5381.628   1.276e-16 
   5382.708    9.49e-17 
   5383.787   1.172e-16 
   5384.867   1.013e-16 
   5385.947   9.944e-17 
   5387.026   8.728e-17 
   5388.106   8.062e-17 
   5389.185   9.034e-17 
   5390.265   8.616e-17 
   5391.344   8.923e-17 
   5392.424    1.08e-16 
   5393.503   8.996e-17 
   5394.583     7.9e-17 
   5395.662   5.913e-17 
   5396.742   5.668e-17 
   5397.821    9.25e-17 
     5398.9   6.852e-17 
   5399.979   8.831e-17 
   5401.059   9.544e-17 
   5402.138   7.956e-17 
   5403.217   7.388e-17 
   5404.296   7.387e-17 
   5405.375   9.112e-17 
   5406.454   8.269e-17 
   5407.533   1.005e-16 
   5408.612   6.801e-17 
   5409.691   7.408e-17 
    5410.77    7.93e-17 
   5411.849   9.507e-17 
   5412.928   6.271e-17 
   5414.007   1.028e-16 
   5415.086   9.817e-17 
   5416.165   6.926e-17 
   5417.243     9.1e-17 
   5418.322   8.694e-17 
   5419.401   4.968e-17 
    5420.48   9.018e-17 
   5421.558   7.083e-17 
   5422.637   9.389e-17 
   5423.715    9.41e-17 
   5424.794    9.18e-17 
   5425.872   1.112e-16 
   5426.951   4.575e-17 
   5428.029   5.391e-17 
   5429.108   8.851e-17 
   5430.186   9.987e-17 
   5431.265   5.395e-17 
   5432.343   1.238e-16 
   5433.421   8.915e-17 
   5434.499    8.35e-17 
   5435.578   9.869e-17 
   5436.656   7.066e-17 
   5437.734   9.546e-17 
   5438.812    1.18e-16 
    5439.89    1.05e-16 
   5440.968    6.38e-17 
   5442.046   9.201e-17 
   5443.124   7.996e-17 
   5444.202   1.236e-16 
    5445.28   1.045e-16 
   5446.358   1.188e-16 
   5447.436   1.134e-16 
   5448.514   6.724e-17 
   5449.592    9.92e-17 
   5450.669   6.914e-17 
   5451.747   7.589e-17 
   5452.825   9.438e-17 
   5453.902   4.065e-17 
    5454.98   9.611e-17 
   5456.058   5.238e-17 
   5457.135   7.057e-17 
   5458.213   1.105e-16 
    5459.29   1.123e-16 
   5460.368   6.165e-17 
   5461.445   9.838e-17 
   5462.523   1.152e-16 
     5463.6   5.733e-17 
   5464.677   8.612e-17 
   5465.755   1.134e-16 
   5466.832   8.572e-17 
   5467.909   6.861e-17 
   5468.986   1.187e-16 
   5470.063   1.207e-16 
   5471.141   9.367e-17 
   5472.218   1.004e-16 
   5473.295   1.279e-16 
   5474.372   8.139e-17 
   5475.449   9.155e-17 
   5476.526   9.958e-17 
   5477.603   1.102e-16 
    5478.68   9.562e-17 
   5479.756   6.836e-17 
   5480.833   9.021e-17 
    5481.91   9.666e-17 
   5482.987   6.245e-17 
   5484.064   1.147e-16 
    5485.14   1.338e-16 
   5486.217   8.845e-17 
   5487.294   1.564e-16 
    5488.37   1.207e-16 
   5489.447   1.045e-16 
   5490.523   1.154e-16 
     5491.6   1.116e-16 
   5492.676   1.203e-16 
   5493.753   1.325e-16 
   5494.829    1.38e-16 
   5495.905   8.417e-17 
   5496.982   1.378e-16 
   5498.058   1.194e-16 
   5499.134   1.169e-16 
   5501.031   1.136e-16 
   5502.546   1.348e-16 
   5504.061   1.417e-16 
   5505.576   1.402e-16 
   5507.091    1.25e-16 
   5508.606   1.068e-16 
   5510.121   1.215e-16 
   5511.636   1.113e-16 
   5513.151   1.306e-16 
   5514.666   1.159e-16 
   5516.181   9.061e-17 
   5517.696   1.084e-16 
   5519.211   1.278e-16 
   5520.726   1.347e-16 
   5522.241   1.337e-16 
   5523.756   1.182e-16 
   5525.271   1.331e-16 
   5526.786   1.398e-16 
   5528.301   1.239e-16 
   5529.816   1.106e-16 
   5531.331   1.246e-16 
   5532.846   1.363e-16 
   5534.361   1.481e-16 
   5535.876   1.068e-16 
   5537.391   1.282e-16 
   5538.906   1.391e-16 
   5540.421    1.13e-16 
   5541.936    1.27e-16 
   5543.451   1.308e-16 
   5544.966   1.433e-16 
   5546.481    1.11e-16 
   5547.996   1.314e-16 
   5549.511   1.297e-16 
   5551.026   1.138e-16 
   5552.541     1.2e-16 
   5554.056   1.579e-16 
   5555.571   1.433e-16 
   5557.086   1.189e-16 
   5558.601   1.264e-16 
   5560.116    1.29e-16 
   5561.631   1.278e-16 
   5563.146   1.115e-16 
   5564.661   1.463e-16 
   5566.176   1.138e-16 
   5567.691   1.274e-16 
   5569.206   1.321e-16 
   5570.721    1.19e-16 
   5572.236   1.157e-16 
   5573.751   1.379e-16 
   5575.266   1.484e-16 
   5576.781   1.278e-16 
   5578.296   1.667e-16 
   5579.811   1.557e-16 
   5581.326     1.3e-16 
   5582.841   9.477e-17 
   5584.356   1.533e-16 
   5585.871    1.45e-16 
   5587.386   1.473e-16 
   5588.901   1.383e-16 
   5590.416   1.418e-16 
   5591.931   1.233e-16 
   5593.446   1.362e-16 
   5594.961   1.487e-16 
   5596.476   1.245e-16 
   5597.991   1.255e-16 
   5599.506   1.352e-16 
   5601.021   1.198e-16 
   5602.536   1.564e-16 
   5604.051   1.616e-16 
   5605.566    1.48e-16 
   5607.081   1.274e-16 
   5608.596   1.396e-16 
   5610.111   1.318e-16 
   5611.626   1.285e-16 
   5613.141   1.505e-16 
   5614.656   1.403e-16 
   5616.171   1.257e-16 
   5617.686   1.517e-16 
   5619.201   1.316e-16 
   5620.716   1.202e-16 
   5622.231   1.316e-16 
   5623.746   1.089e-16 
   5625.261   1.586e-16 
   5626.776   1.546e-16 
   5628.291   1.404e-16 
   5629.806   1.418e-16 
   5631.321   1.337e-16 
   5632.836   1.332e-16 
   5634.351   1.415e-16 
   5635.866   1.407e-16 
   5637.381   1.342e-16 
   5638.896   1.421e-16 
   5640.411   1.331e-16 
   5641.926   1.613e-16 
   5643.441   1.615e-16 
   5644.956   1.511e-16 
   5646.471   1.189e-16 
   5647.986   1.267e-16 
   5649.501   1.421e-16 
   5651.016   1.368e-16 
   5652.531     1.4e-16 
   5654.046   1.271e-16 
   5655.561   1.395e-16 
   5657.076   1.549e-16 
   5658.591   1.406e-16 
   5660.106   1.292e-16 
   5661.621   1.448e-16 
   5663.136   1.407e-16 
   5664.651   1.121e-16 
   5666.166   1.161e-16 
   5667.681   1.333e-16 
   5669.196   1.262e-16 
   5670.711   1.244e-16 
   5672.226   1.398e-16 
   5673.741    1.54e-16 
   5675.256   1.098e-16 
   5676.771    1.35e-16 
   5678.286   1.506e-16 
   5679.801   1.259e-16 
   5681.316   1.309e-16 
   5682.831   1.347e-16 
   5684.346   1.401e-16 
   5685.861   1.277e-16 
   5687.376    1.33e-16 
   5688.891   1.056e-16 
   5690.406   9.951e-17 
   5691.921   1.531e-16 
   5693.436   1.324e-16 
   5694.951   1.396e-16 
   5696.466   1.274e-16 
   5697.981   1.171e-16 
   5699.496   1.356e-16 
   5701.214   1.295e-16 
   5702.733   1.244e-16 
   5704.251   1.347e-16 
    5705.77   1.528e-16 
   5707.288   1.328e-16 
   5708.807   1.278e-16 
   5710.325   1.432e-16 
   5711.844   1.242e-16 
   5713.363   1.496e-16 
   5714.881     1.3e-16 
     5716.4   1.195e-16 
   5717.919   1.644e-16 
   5719.437   1.236e-16 
   5720.956   1.366e-16 
   5722.475   1.343e-16 
   5723.994    1.29e-16 
   5725.512   1.098e-16 
   5727.031    1.36e-16 
    5728.55    1.25e-16 
   5730.069     1.5e-16 
   5731.588    1.29e-16 
   5733.107   1.323e-16 
   5734.626    1.05e-16 
   5736.145   1.184e-16 
   5737.664   1.185e-16 
   5739.183   1.413e-16 
   5740.702   1.079e-16 
   5742.221   1.335e-16 
    5743.74   1.129e-16 
   5745.259     1.3e-16 
   5746.779   1.225e-16 
   5748.298   1.093e-16 
   5749.817   1.349e-16 
   5751.336   1.383e-16 
   5752.856   1.342e-16 
   5754.375   9.701e-17 
   5755.894   1.003e-16 
   5757.414   1.175e-16 
   5758.933   1.011e-16 
   5760.453    1.15e-16 
   5761.972   1.251e-16 
   5763.492   9.823e-17 
   5765.011   1.019e-16 
   5766.531   1.154e-16 
    5768.05   1.187e-16 
    5769.57   8.964e-17 
    5771.09   9.822e-17 
   5772.609   1.396e-16 
   5774.129   1.156e-16 
   5775.649    9.49e-17 
   5777.168   1.138e-16 
   5778.688   1.082e-16 
   5780.208   1.139e-16 
   5781.728   1.024e-16 
   5783.248   1.178e-16 
   5784.768   1.232e-16 
   5786.287   1.075e-16 
   5787.807    1.07e-16 
   5789.327   1.272e-16 
   5790.847   1.251e-16 
   5792.367   1.066e-16 
   5793.887   1.154e-16 
   5795.407   8.805e-17 
   5796.928   1.195e-16 
   5798.448   1.258e-16 
   5799.968   9.969e-17 
   5801.488   1.082e-16 
   5803.008   1.046e-16 
   5804.528   9.165e-17 
   5806.049    1.04e-16 
   5807.569   1.096e-16 
   5809.089   1.093e-16 
    5810.61   8.887e-17 
    5812.13   1.259e-16 
    5813.65   9.627e-17 
   5815.171   1.087e-16 
   5816.691   1.118e-16 
   5818.212   9.785e-17 
   5819.732   1.043e-16 
   5821.253   1.025e-16 
   5822.773   1.127e-16 
   5824.294   8.626e-17 
   5825.814   1.275e-16 
   5827.335   8.464e-17 
   5828.856   1.191e-16 
   5830.376   1.079e-16 
   5831.897   9.963e-17 
   5833.418   1.059e-16 
   5834.939   1.192e-16 
   5836.459   9.716e-17 
    5837.98   8.383e-17 
   5839.501   9.049e-17 
   5841.022   9.923e-17 
   5842.543   1.109e-16 
   5844.064    9.95e-17 
   5845.585   1.095e-16 
   5847.106    8.32e-17 
   5848.627   8.118e-17 
   5850.148   8.425e-17 
   5851.669   9.706e-17 
    5853.19   1.099e-16 
   5854.711   9.437e-17 
   5856.232   8.989e-17 
   5857.753    8.31e-17 
   5859.274   7.918e-17 
   5860.795   1.082e-16 
   5862.317   8.333e-17 
   5863.838   7.906e-17 
   5865.359   1.077e-16 
   5866.881    7.83e-17 
   5868.402   7.557e-17 
   5869.923   9.457e-17 
   5871.445   9.276e-17 
   5872.966   9.554e-17 
   5874.487   8.999e-17 
   5876.009   1.037e-16 
    5877.53   8.625e-17 
   5879.052   9.438e-17 
   5880.573   9.303e-17 
   5882.095   8.416e-17 
   5883.617   6.585e-17 
   5885.138   7.553e-17 
    5886.66   1.117e-16 
   5888.182   1.064e-16 
   5889.703    9.84e-17 
   5891.225   1.074e-16 
   5892.747   8.344e-17 
   5894.269    9.23e-17 
    5895.79    9.24e-17 
   5897.312   9.391e-17 
   5898.834   6.153e-17 
   5900.356   8.802e-17 
   5901.878   7.622e-17 
     5903.4   7.491e-17 
   5904.922   8.722e-17 
   5906.444   7.807e-17 
   5907.966   6.104e-17 
   5909.488   8.575e-17 
    5911.01   7.346e-17 
   5912.532   8.136e-17 
   5914.054   9.847e-17 
   5915.576   7.755e-17 
   5917.098   9.996e-17 
    5918.62   7.827e-17 
   5920.143   9.041e-17 
   5921.665   1.015e-16 
   5923.187   7.537e-17 
   5924.709   7.907e-17 
   5926.232   9.069e-17 
   5927.754   8.947e-17 
   5929.277   9.244e-17 
   5930.799   8.213e-17 
   5932.321    1.12e-16 
   5933.844   9.152e-17 
   5935.366   6.896e-17 
   5936.889   8.835e-17 
   5938.411   1.021e-16 
   5939.934   9.736e-17 
   5941.456   1.038e-16 
   5942.979   8.371e-17 
   5944.502   7.908e-17 
   5946.024    9.54e-17 
   5947.547   6.982e-17 
    5949.07   7.511e-17 
   5950.592   9.137e-17 
   5952.115   9.086e-17 
   5953.638    1.03e-16 
   5955.161   9.197e-17 
   5956.684   1.002e-16 
   5958.206   6.922e-17 
   5959.729   8.133e-17 
   5961.252   9.863e-17 
   5962.775   8.563e-17 
   5964.298   9.923e-17 
   5965.821   1.011e-16 
   5967.344    7.44e-17 
   5968.867   1.058e-16 
    5970.39   9.598e-17 
   5971.913   9.888e-17 
   5973.436   9.649e-17 
   5974.959   1.119e-16 
   5976.483    9.02e-17 
   5978.006   7.311e-17 
   5979.529   9.545e-17 
   5981.052   8.509e-17 
   5982.575   8.709e-17 
   5984.099   7.567e-17 
   5985.622   8.986e-17 
   5987.145   8.124e-17 
   5988.669   7.596e-17 
   5990.192    9.65e-17 
   5991.716   7.419e-17 
   5993.239   9.966e-17 
   5994.762   8.254e-17 
   5996.286   1.013e-16 
   5997.809   8.226e-17 
   5999.333   9.099e-17 
   6000.857   8.743e-17 
    6002.38   9.954e-17 
   6003.904   7.254e-17 
   6005.427     7.7e-17 
   6006.951   1.031e-16 
   6008.475   1.034e-16 
   6009.998   7.682e-17 
   6011.522   7.925e-17 
   6013.046   9.259e-17 
    6014.57   9.964e-17 
   6016.094   8.633e-17 
   6017.617   9.261e-17 
   6019.141   8.116e-17 
   6020.665   7.452e-17 
   6022.189   1.041e-16 
   6023.713   9.649e-17 
   6025.237   9.267e-17 
   6026.761   1.072e-16 
   6028.285   9.355e-17 
   6029.809   7.671e-17 
   6031.333    9.67e-17 
   6032.857   7.768e-17 
   6034.381   9.405e-17 
   6035.905   9.694e-17 
   6037.429   7.241e-17 
   6038.954   7.598e-17 
   6040.478   7.581e-17 
   6042.002   9.604e-17 
   6043.526   8.582e-17 
   6045.051   8.688e-17 
   6046.575    8.57e-17 
   6048.099   9.697e-17 
   6049.624    8.28e-17 
   6051.148   1.111e-16 
   6052.672   7.769e-17 
   6054.197   8.002e-17 
   6055.721   7.685e-17 
   6057.246   9.216e-17 
    6058.77    7.21e-17 
   6060.295   7.288e-17 
   6061.819   7.627e-17 
   6063.344   8.657e-17 
   6064.868   9.239e-17 
   6066.393   6.691e-17 
   6067.918   8.181e-17 
   6069.442   7.718e-17 
   6070.967   7.334e-17 
   6072.492   8.507e-17 
   6074.017   7.299e-17 
   6075.541   8.167e-17 
   6077.066   7.525e-17 
   6078.591   9.732e-17 
   6080.116   7.634e-17 
   6081.641   7.985e-17 
   6083.166   6.784e-17 
    6084.69   6.729e-17 
   6086.215   7.364e-17 
    6087.74   6.792e-17 
   6089.265   7.585e-17 
    6090.79   8.395e-17 
   6092.315   7.658e-17 
    6093.84   8.233e-17 
   6095.366   8.631e-17 
   6096.891   8.331e-17 
   6098.416   5.887e-17 
   6099.941   7.414e-17 
   6101.466     5.6e-17 
   6102.991   8.376e-17 
   6104.517    7.61e-17 
   6106.042   4.837e-17 
   6107.567   9.393e-17 
   6109.092   8.411e-17 
   6110.618   7.466e-17 
   6112.143   8.301e-17 
   6113.668   8.913e-17 
   6115.194   8.566e-17 
   6116.719   8.481e-17 
   6118.245   7.416e-17 
    6119.77   4.945e-17 
   6121.296   7.335e-17 
   6122.821   8.427e-17 
   6124.347   5.775e-17 
   6125.872   1.058e-16 
   6127.398   6.399e-17 
   6128.923   7.625e-17 
   6130.449   6.466e-17 
   6131.975   6.714e-17 
     6133.5   6.898e-17 
   6135.026   5.148e-17 
   6136.552   6.205e-17 
   6138.078   7.166e-17 
   6139.603   8.635e-17 
   6141.129   6.954e-17 
   6142.655   7.242e-17 
   6144.181    6.91e-17 
   6145.707   7.558e-17 
   6147.233    6.11e-17 
   6148.759   7.541e-17 
   6150.285   5.925e-17 
   6151.811   7.202e-17 
   6153.337   6.156e-17 
   6154.863    8.74e-17 
   6156.389   7.499e-17 
   6157.915   8.412e-17 
   6159.441    7.97e-17 
   6160.967   8.564e-17 
   6162.493   7.692e-17 
   6164.019   8.628e-17 
   6165.545   6.384e-17 
   6167.072   7.089e-17 
   6168.598   7.415e-17 
   6170.124   6.681e-17 
    6171.65    8.03e-17 
   6173.177   7.164e-17 
   6174.703   6.309e-17 
   6176.229   8.519e-17 
   6177.756   7.364e-17 
   6179.282   8.527e-17 
   6180.808   7.558e-17 
   6182.335   8.916e-17 
   6183.861   7.385e-17 
   6185.388   6.715e-17 
   6186.914   7.228e-17 
   6188.441       8e-17 
   6189.967   7.555e-17 
   6191.494   6.335e-17 
   6193.021   6.206e-17 
   6194.547   8.584e-17 
   6196.074   8.526e-17 
   6197.601    7.15e-17 
   6199.127   8.979e-17 
   6200.654   7.413e-17 
   6202.181   8.159e-17 
   6203.708   7.252e-17 
   6205.234   9.159e-17 
   6206.761   9.349e-17 
   6208.288    7.39e-17 
   6209.815   7.875e-17 
   6211.342   7.149e-17 
   6212.869   7.599e-17 
   6214.396   7.945e-17 
   6215.923   7.735e-17 
    6217.45   7.286e-17 
   6218.977   8.153e-17 
   6220.504   7.873e-17 
   6222.031   7.349e-17 
   6223.558   6.473e-17 
   6225.085   8.178e-17 
   6226.612   6.875e-17 
   6228.139   8.362e-17 
   6229.666   7.629e-17 
   6231.193   8.629e-17 
   6232.721    8.54e-17 
   6234.248   6.714e-17 
   6235.775   7.986e-17 
   6237.302   8.392e-17 
    6238.83   7.908e-17 
   6240.357   7.561e-17 
   6241.884   7.214e-17 
   6243.412   7.117e-17 
   6244.939   6.782e-17 
   6246.467   8.614e-17 
   6247.994   7.677e-17 
   6249.521   6.851e-17 
   6251.049   7.354e-17 
   6252.576   6.645e-17 
   6254.104   7.405e-17 
   6255.632   6.193e-17 
   6257.159   9.559e-17 
   6258.687   8.765e-17 
   6260.214   9.478e-17 
   6261.742   7.036e-17 
    6263.27   8.132e-17 
   6264.797   7.613e-17 
   6266.325   7.364e-17 
   6267.853   8.679e-17 
   6269.381    8.35e-17 
   6270.908   7.191e-17 
   6272.436   8.811e-17 
   6273.964    8.59e-17 
   6275.492   7.343e-17 
    6277.02    9.05e-17 
   6278.548   8.371e-17 
   6280.075   6.895e-17 
   6281.603   9.212e-17 
   6283.131   6.744e-17 
   6284.659   1.031e-16 
   6286.187   7.278e-17 
   6287.715   8.177e-17 
   6289.243   7.718e-17 
   6290.772   7.977e-17 
     6292.3   8.348e-17 
   6293.828   7.227e-17 
   6295.356   6.829e-17 
   6296.884   9.674e-17 
   6298.412   7.952e-17 
    6299.94   1.125e-16 
   6301.469   1.111e-16 
   6302.997   9.168e-17 
   6304.525   6.064e-17 
   6306.054   7.231e-17 
   6307.582   8.614e-17 
    6309.11   7.563e-17 
   6310.639    6.05e-17 
   6312.167    7.57e-17 
   6313.695   8.425e-17 
   6315.224   9.079e-17 
   6316.752   7.501e-17 
   6318.281   1.017e-16 
   6319.809   7.784e-17 
   6321.338   8.273e-17 
   6322.866   8.083e-17 
   6324.395   9.016e-17 
   6325.923   7.785e-17 
   6327.452   8.991e-17 
   6328.981   8.903e-17 
   6330.509   8.168e-17 
   6332.038   6.854e-17 
   6333.567   8.595e-17 
   6335.095   9.762e-17 
   6336.624   9.387e-17 
   6338.153   8.295e-17 
   6339.682   9.105e-17 
   6341.211   8.733e-17 
   6342.739   9.011e-17 
   6344.268   7.294e-17 
   6345.797     8.8e-17 
   6347.326   9.134e-17 
   6348.855   8.028e-17 
   6350.384    8.69e-17 
   6351.913   7.908e-17 
   6353.442   8.488e-17 
   6354.971   8.548e-17 
     6356.5   8.697e-17 
   6358.029   9.859e-17 
   6359.558   7.738e-17 
   6361.087   1.183e-16 
   6362.616   1.009e-16 
   6364.145   8.349e-17 
   6365.675   1.057e-16 
   6367.204   8.914e-17 
   6368.733   8.772e-17 
   6370.262   8.173e-17 
   6371.791   8.922e-17 
   6373.321   1.159e-16 
    6374.85   9.341e-17 
   6376.379    9.31e-17 
   6377.909   1.042e-16 
   6379.438   9.029e-17 
   6380.967   9.873e-17 
   6382.497    9.13e-17 
   6384.026     9.1e-17 
   6385.556   1.012e-16 
   6387.085   9.789e-17 
   6388.615    8.74e-17 
   6390.144   9.089e-17 
   6391.674   9.565e-17 
   6393.203   8.641e-17 
   6394.733   9.386e-17 
   6396.262   8.069e-17 
   6397.792   1.039e-16 
   6399.322   9.691e-17 
   6400.851   9.575e-17 
   6402.381   1.126e-16 
   6403.911   1.002e-16 
   6405.441   9.851e-17 
    6406.97   1.014e-16 
     6408.5   8.449e-17 
    6410.03   9.287e-17 
    6411.56   1.011e-16 
   6413.089   1.063e-16 
   6414.619   1.032e-16 
   6416.149   8.603e-17 
   6417.679   9.628e-17 
   6419.209     9.5e-17 
   6420.739   9.659e-17 
   6422.269   1.061e-16 
   6423.799   1.073e-16 
   6425.329   1.026e-16 
   6426.859   9.786e-17 
   6428.389   9.506e-17 
   6429.919   9.353e-17 
   6431.449   9.389e-17 
   6432.979   7.901e-17 
   6434.509   9.427e-17 
    6436.04   1.025e-16 
    6437.57   1.216e-16 
     6439.1   9.865e-17 
    6440.63   1.057e-16 
    6442.16   9.256e-17 
   6443.691   9.061e-17 
   6445.221   1.007e-16 
   6446.751   9.337e-17 
   6448.282   8.848e-17 
   6449.812   7.982e-17 
   6451.342   9.105e-17 
   6452.873   9.083e-17 
   6454.403   1.055e-16 
   6455.934   8.356e-17 
   6457.464   8.742e-17 
   6458.995   1.014e-16 
   6460.525   7.637e-17 
   6462.056   9.954e-17 
   6463.586   9.309e-17 
   6465.117    9.14e-17 
   6466.647   9.338e-17 
   6468.178   8.567e-17 
   6469.708   1.049e-16 
   6471.239   8.277e-17 
    6472.77   8.973e-17 
     6474.3   8.344e-17 
   6475.831   9.618e-17 
   6477.362   1.009e-16 
   6478.893   1.022e-16 
   6480.423   8.434e-17 
   6481.954   9.523e-17 
   6483.485   1.106e-16 
   6485.016   9.172e-17 
   6486.547   9.238e-17 
   6488.078   9.011e-17 
   6489.608   9.601e-17 
   6491.139   9.198e-17 
    6492.67   9.994e-17 
   6494.201   8.625e-17 
   6495.732   9.194e-17 
   6497.263   1.044e-16 
   6498.794    9.88e-17 
   6500.325   8.674e-17 
   6501.856    8.96e-17 
   6503.387   8.388e-17 
   6504.919   7.225e-17 
    6506.45   8.756e-17 
   6507.981   8.743e-17 
   6509.512    9.46e-17 
   6511.043   1.119e-16 
   6512.574   8.153e-17 
   6514.106   9.376e-17 
   6515.637   9.323e-17 
   6517.168   9.829e-17 
   6518.699   9.535e-17 
   6520.231   9.861e-17 
   6521.762   8.943e-17 
   6523.293   7.344e-17 
   6524.825    8.95e-17 
   6526.356   9.281e-17 
   6527.888   9.655e-17 
   6529.419   9.802e-17 
   6530.951   8.411e-17 
   6532.482    1.04e-16 
   6534.014   8.924e-17 
   6535.545   1.081e-16 
   6537.077   9.824e-17 
   6538.608   9.508e-17 
    6540.14   8.594e-17 
   6541.671   8.925e-17 
   6543.203   8.608e-17 
   6544.735    9.16e-17 
   6546.266   7.181e-17 
   6547.798   7.382e-17 
    6549.33   7.554e-17 
   6550.861   9.136e-17 
   6552.393   8.996e-17 
   6553.925   8.646e-17 
   6555.457   7.871e-17 
   6556.988   7.817e-17 
    6558.52   8.201e-17 
   6560.052   8.559e-17 
   6561.584    9.41e-17 
   6563.116   7.584e-17 
   6564.648   7.408e-17 
    6566.18   8.157e-17 
   6567.712   7.739e-17 
   6569.244   7.545e-17 
   6570.776   7.451e-17 
   6572.308   8.298e-17 
    6573.84   8.042e-17 
   6575.372   7.359e-17 
   6576.904   8.887e-17 
   6578.436   8.972e-17 
   6579.968   6.865e-17 
     6581.5    7.66e-17 
   6583.032   8.483e-17 
   6584.564   7.928e-17 
   6586.096   8.841e-17 
   6587.629   8.522e-17 
   6589.161   6.504e-17 
   6590.693   7.732e-17 
   6592.225   7.458e-17 
   6593.758   7.968e-17 
    6595.29   6.364e-17 
   6596.822   8.788e-17 
   6598.355   7.621e-17 
   6599.887   6.974e-17 
   6601.419   9.439e-17 
   6602.952   7.792e-17 
   6604.484   7.952e-17 
   6606.017   7.808e-17 
   6607.549   8.188e-17 
   6609.082   8.425e-17 
   6610.614   8.244e-17 
   6612.147   7.557e-17 
   6613.679   7.427e-17 
   6615.212   6.901e-17 
   6616.744   6.982e-17 
   6618.277   8.057e-17 
    6619.81   6.891e-17 
   6621.342   7.964e-17 
   6622.875   6.397e-17 
   6624.408    7.88e-17 
    6625.94   8.401e-17 
   6627.473   8.149e-17 
   6629.006   8.283e-17 
   6630.538   8.259e-17 
   6632.071    8.13e-17 
   6633.604    7.17e-17 
   6635.137   7.881e-17 
    6636.67   6.993e-17 
   6638.203   7.383e-17 
   6639.735   6.207e-17 
   6641.268   8.962e-17 
   6642.801   7.781e-17 
   6644.334   6.561e-17 
   6645.867   7.917e-17 
     6647.4    8.02e-17 
   6648.933   6.502e-17 
   6650.466   8.224e-17 
   6651.999   7.318e-17 
   6653.532   7.434e-17 
   6655.065   6.665e-17 
   6656.598   7.993e-17 
   6658.132    9.32e-17 
   6659.665   7.506e-17 
   6661.198   7.065e-17 
   6662.731   7.922e-17 
   6664.264   7.973e-17 
   6665.797   7.418e-17 
   6667.331   8.305e-17 
   6668.864   7.278e-17 
   6670.397   7.868e-17 
    6671.93   9.637e-17 
   6673.464   7.802e-17 
   6674.997   8.038e-17 
    6676.53   7.964e-17 
   6678.064   7.537e-17 
   6679.597   7.052e-17 
   6681.131    8.37e-17 
   6682.664   9.152e-17 
   6684.197    7.32e-17 
   6685.731   8.163e-17 
   6687.264   8.406e-17 
   6688.798    7.81e-17 
   6690.331   7.623e-17 
   6691.865   6.668e-17 
   6693.398   6.694e-17 
   6694.932   7.659e-17 
   6696.466    7.56e-17 
   6697.999    9.63e-17 
   6699.533   8.655e-17 
   6701.066   8.915e-17 
     6702.6   9.945e-17 
   6704.134   9.564e-17 
   6705.668   7.133e-17 
   6707.201   7.401e-17 
   6708.735   7.091e-17 
   6710.269   8.113e-17 
   6711.803   8.027e-17 
   6713.336   8.387e-17 
    6714.87   7.575e-17 
   6716.404     8.1e-17 
   6717.938   8.378e-17 
   6719.472   7.614e-17 
   6721.006   8.735e-17 
    6722.54   7.278e-17 
   6724.074   8.678e-17 
   6725.607   7.485e-17 
   6727.141   7.908e-17 
   6728.675   8.167e-17 
   6730.209   8.047e-17 
   6731.744   9.123e-17 
   6733.278   7.445e-17 
   6734.812   7.447e-17 
   6736.346   7.631e-17 
    6737.88   8.562e-17 
   6739.414   7.883e-17 
   6740.948   7.944e-17 
   6742.482   8.645e-17 
   6744.016   7.309e-17 
   6745.551   8.208e-17 
   6747.085   8.307e-17 
   6748.619   7.946e-17 
   6750.153     5.3e-17 
   6751.688   7.934e-17 
   6753.222   7.112e-17 
   6754.756   6.643e-17 
   6756.291   7.251e-17 
   6757.825   6.907e-17 
   6759.359   7.837e-17 
   6760.894   7.038e-17 
   6762.428   7.365e-17 
   6763.962   8.944e-17 
   6765.497   6.391e-17 
   6767.031   7.761e-17 
   6768.566   7.523e-17 
     6770.1   7.451e-17 
   6771.635   8.214e-17 
   6773.169   8.578e-17 
   6774.704   7.803e-17 
   6776.238    6.38e-17 
   6777.773   6.703e-17 
   6779.308   7.416e-17 
   6780.842   6.694e-17 
   6782.377   7.391e-17 
   6783.912   6.297e-17 
   6785.446   6.817e-17 
   6786.981   6.793e-17 
   6788.516   6.734e-17 
    6790.05   7.275e-17 
   6791.585   7.534e-17 
    6793.12   7.785e-17 
   6794.655   7.329e-17 
    6796.19   7.253e-17 
   6797.724   6.839e-17 
   6799.259   7.611e-17 
   6800.794   6.732e-17 
   6802.329   7.357e-17 
   6803.864    7.61e-17 
   6805.399   6.795e-17 
   6806.934   8.442e-17 
   6808.469   6.491e-17 
   6810.004   7.305e-17 
   6811.539   7.084e-17 
   6813.074   7.722e-17 
   6814.609   8.349e-17 
   6816.144   5.924e-17 
   6817.679   5.987e-17 
   6819.214   6.645e-17 
   6820.749   7.535e-17 
   6822.284   5.877e-17 
   6823.819   5.498e-17 
   6825.354   6.835e-17 
    6826.89   7.416e-17 
   6828.425   6.259e-17 
    6829.96   6.148e-17 
   6831.495   6.772e-17 
    6833.03   5.943e-17 
   6834.566   7.908e-17 
   6836.101   6.297e-17 
   6837.636   6.392e-17 
   6839.172   5.785e-17 
   6840.707   5.639e-17 
   6842.242   7.894e-17 
   6843.778   6.336e-17 
   6845.313   6.439e-17 
   6846.848   6.131e-17 
   6848.384   7.479e-17 
   6849.919   5.663e-17 
   6851.455   5.715e-17 
    6852.99   5.442e-17 
   6854.526   6.577e-17 
   6856.061   6.732e-17 
   6857.597   6.526e-17 
   6859.132   6.301e-17 
   6860.668   6.408e-17 
   6862.203   8.584e-17 
   6863.739   6.057e-17 
   6865.275   6.137e-17 
    6866.81    7.04e-17 
   6868.346    4.31e-17 
   6869.882   5.898e-17 
   6871.417   7.234e-17 
   6872.953    6.66e-17 
   6874.489   6.998e-17 
   6876.024   8.446e-17 
    6877.56     7.6e-17 
   6879.096   6.528e-17 
   6880.632   6.488e-17 
   6882.168   8.251e-17 
   6883.703   7.377e-17 
   6885.239   6.412e-17 
   6886.775   7.239e-17 
   6888.311    6.79e-17 
   6889.847   7.349e-17 
   6891.383    6.97e-17 
   6892.919   6.662e-17 
   6894.455   6.508e-17 
   6895.991   6.047e-17 
   6897.527   7.227e-17 
   6899.063   6.985e-17 
   6900.599   6.894e-17 
   6902.135   7.566e-17 
   6903.671   7.213e-17 
   6905.207   7.782e-17 
   6906.743    5.75e-17 
   6908.279   6.064e-17 
   6909.815   7.617e-17 
   6911.351   7.897e-17 
   6912.888   7.527e-17 
   6914.424   7.618e-17 
    6915.96   6.788e-17 
   6917.496   6.648e-17 
   6919.032   5.895e-17 
   6920.569    7.82e-17 
   6922.105   8.212e-17 
   6923.641   6.014e-17 
   6925.177   6.457e-17 
   6926.714   6.548e-17 
    6928.25   6.879e-17 
   6929.786   7.042e-17 
   6931.323   5.823e-17 
   6932.859   7.186e-17 
   6934.396    6.44e-17 
   6935.932   7.986e-17 
   6937.468   7.562e-17 
   6939.005   7.863e-17 
   6940.541   6.868e-17 
   6942.078   6.131e-17 
   6943.614   5.639e-17 
   6945.151   6.905e-17 
   6946.687   7.925e-17 
   6948.224   7.512e-17 
    6949.76   7.617e-17 
   6951.297   8.593e-17 
   6952.834   5.441e-17 
    6954.37   5.767e-17 
   6955.907   5.421e-17 
   6957.444   6.968e-17 
    6958.98   5.454e-17 
   6960.517   6.331e-17 
   6962.054    6.59e-17 
    6963.59   7.163e-17 
   6965.127   6.142e-17 
   6966.664   7.394e-17 
   6968.201   6.277e-17 
   6969.737    7.66e-17 
   6971.274   6.979e-17 
   6972.811    5.47e-17 
   6974.348   7.591e-17 
   6975.885   7.635e-17 
   6977.422   6.169e-17 
   6978.959   7.443e-17 
   6980.495   7.214e-17 
   6982.032   6.471e-17 
   6983.569   7.299e-17 
   6985.106   7.246e-17 
   6986.643   6.868e-17 
    6988.18   5.868e-17 
   6989.717   6.056e-17 
   6991.254   6.946e-17 
   6992.791   6.611e-17 
   6994.328   7.342e-17 
   6995.865   6.511e-17 
   6997.403   5.753e-17 
    6998.94   6.963e-17 
   7000.477   7.563e-17 
   7002.014   5.582e-17 
   7003.551   6.329e-17 
   7005.088   5.973e-17 
   7006.625   7.684e-17 
   7008.163   7.337e-17 
     7009.7   5.588e-17 
   7011.237   6.844e-17 
   7012.774   6.732e-17 
   7014.312   6.693e-17 
   7015.849   6.778e-17 
   7017.386   8.029e-17 
   7018.923   7.166e-17 
   7020.461   7.878e-17 
   7021.998   6.565e-17 
   7023.536   6.039e-17 
   7025.073   6.515e-17 
    7026.61   8.613e-17 
   7028.148   5.312e-17 
   7029.685    6.99e-17 
   7031.223   6.572e-17 
    7032.76   6.937e-17 
   7034.298   7.173e-17 
   7035.835   6.586e-17 
   7037.373   6.354e-17 
    7038.91     7.6e-17 
   7040.448   7.427e-17 
   7041.985   6.576e-17 
   7043.523   6.558e-17 
    7045.06   7.074e-17 
   7046.598   6.974e-17 
   7048.136   6.882e-17 
   7049.673   5.881e-17 
   7051.211   7.757e-17 
   7052.749   7.874e-17 
   7054.286   5.673e-17 
   7055.824   5.704e-17 
   7057.362   7.086e-17 
     7058.9   6.117e-17 
   7060.437   7.477e-17 
   7061.975   6.722e-17 
   7063.513   5.561e-17 
   7065.051   6.412e-17 
   7066.589   6.972e-17 
   7068.126   6.326e-17 
   7069.664   7.172e-17 
   7071.202   7.018e-17 
    7072.74   6.595e-17 
   7074.278   6.894e-17 
   7075.816   7.034e-17 
   7077.354   6.415e-17 
   7078.892   7.501e-17 
    7080.43   7.386e-17 
   7081.968   7.774e-17 
   7083.506   6.667e-17 
   7085.044   5.903e-17 
   7086.582   5.888e-17 
    7088.12   6.024e-17 
   7089.658   4.607e-17 
   7091.196   6.859e-17 
   7092.734   6.864e-17 
   7094.272   5.666e-17 
    7095.81   6.479e-17 
   7097.348   6.447e-17 
   7098.886    6.72e-17 
   7100.425    6.24e-17 
   7101.963    5.93e-17 
   7103.501   7.581e-17 
   7105.039   6.874e-17 
   7106.577   6.566e-17 
   7108.116   7.092e-17 
   7109.654   6.745e-17 
   7111.192   6.733e-17 
   7112.731    5.46e-17 
   7114.269   5.675e-17 
   7115.807    6.83e-17 
   7117.346   6.254e-17 
   7118.884   5.267e-17 
   7120.422   6.184e-17 
   7121.961    6.42e-17 
   7123.499   6.451e-17 
   7125.037   5.947e-17 
   7126.576   6.567e-17 
   7128.114   5.795e-17 
   7129.653   7.187e-17 
   7131.191   5.923e-17 
    7132.73   6.142e-17 
   7134.268   6.109e-17 
   7135.807    7.01e-17 
   7137.345   5.146e-17 
   7138.884   6.375e-17 
   7140.423   7.309e-17 
   7141.961   6.911e-17 
     7143.5   7.174e-17 
   7145.038   7.617e-17 
   7146.577   6.422e-17 
   7148.116   6.331e-17 
   7149.654    6.68e-17 
   7151.193   6.488e-17 
   7152.732   6.696e-17 
    7154.27   5.041e-17 
   7155.809   7.097e-17 
   7157.348   5.563e-17 
   7158.887    6.11e-17 
   7160.425   6.414e-17 
   7161.964   6.568e-17 
   7163.503   6.029e-17 
   7165.042    6.45e-17 
   7166.581   6.282e-17 
   7168.119   5.093e-17 
   7169.658   4.986e-17 
   7171.197   5.896e-17 
   7172.736   6.778e-17 
   7174.275   6.626e-17 
   7175.814   7.252e-17 
   7177.353   6.356e-17 
   7178.892   7.234e-17 
   7180.431   6.252e-17 
    7181.97   7.074e-17 
   7183.509   5.007e-17 
   7185.048   4.985e-17 
   7186.587   4.793e-17 
   7188.126   8.527e-17 
   7189.665   5.126e-17 
   7191.204   6.645e-17 
   7192.743   5.191e-17 
   7194.282   6.495e-17 
   7195.821   6.683e-17 
    7197.36   6.941e-17 
     7198.9   5.754e-17 
   7200.439   6.071e-17 
   7201.978   5.555e-17 
   7203.517   5.108e-17 
   7205.056   6.058e-17 
   7206.596    6.28e-17 
   7208.135   6.293e-17 
   7209.674   5.923e-17 
   7211.213   4.814e-17 
   7212.753   7.355e-17 
   7214.292   4.509e-17 
   7215.831   5.326e-17 
   7217.371   6.092e-17 
    7218.91   5.701e-17 
   7220.449   5.539e-17 
   7221.989   6.028e-17 
   7223.528   6.172e-17 
   7225.067   5.125e-17 
   7226.607   6.942e-17 
   7228.146   4.706e-17 
   7229.686   5.328e-17 
   7231.225   5.674e-17 
   7232.765   4.434e-17 
   7234.304   4.874e-17 
   7235.844   5.278e-17 
   7237.383   7.684e-17 
   7238.923    7.37e-17 
   7240.462   6.275e-17 
   7242.002   7.691e-17 
   7243.541   6.323e-17 
   7245.081   5.679e-17 
   7246.621   5.908e-17 
    7248.16   6.048e-17 
     7249.7   4.876e-17 
   7251.239   4.752e-17 
   7252.779   6.555e-17 
   7254.319   4.511e-17 
   7255.858   4.379e-17 
   7257.398   5.885e-17 
   7258.938   6.585e-17 
   7260.478   6.195e-17 
   7262.017   6.315e-17 
   7263.557   5.415e-17 
   7265.097   4.232e-17 
   7266.637   5.838e-17 
   7268.177   5.145e-17 
   7269.716   5.732e-17 
   7271.256   3.724e-17 
   7272.796   7.674e-17 
   7274.336   5.932e-17 
   7275.876   6.709e-17 
   7277.416   6.886e-17 
   7278.956   4.574e-17 
   7280.495   6.236e-17 
   7282.035   5.789e-17 
   7283.575   7.129e-17 
   7285.115    6.51e-17 
   7286.655   4.796e-17 
   7288.195   4.785e-17 
   7289.735   4.954e-17 
   7291.275   5.782e-17 
   7292.815    8.06e-17 
   7294.355     5.9e-17 
   7295.895   5.966e-17 
   7297.436   5.844e-17 
   7298.976    4.57e-17 
   7300.516   5.829e-17 
   7302.056   6.629e-17 
   7303.596   5.642e-17 
   7305.136   6.816e-17 
   7306.676   5.255e-17 
   7308.216   5.393e-17 
   7309.757   5.867e-17 
   7311.297   6.697e-17 
   7312.837   5.462e-17 
   7314.377   5.778e-17 
   7315.918   4.591e-17 
   7317.458   7.522e-17 
   7318.998     4.7e-17 
   7320.538   5.365e-17 
   7322.079    5.14e-17 
   7323.619   5.444e-17 
   7325.159   4.979e-17 
     7326.7    6.91e-17 
    7328.24   5.989e-17 
    7329.78   6.208e-17 
   7331.321   5.627e-17 
   7332.861   4.736e-17 
   7334.401   5.554e-17 
   7335.942   4.729e-17 
   7337.482   8.641e-17 
   7339.023   6.901e-17 
   7340.563   6.388e-17 
   7342.104   6.842e-17 
   7343.644   5.195e-17 
   7345.185   3.901e-17 
   7346.725   5.629e-17 
   7348.266   4.737e-17 
   7349.806    5.49e-17 
   7351.347   6.941e-17 
   7352.887   5.705e-17 
   7354.428   4.747e-17 
   7355.969   6.819e-17 
   7357.509   5.432e-17 
    7359.05   6.397e-17 
   7360.591   6.208e-17 
   7362.131   5.845e-17 
   7363.672   3.158e-17 
   7365.213   5.683e-17 
   7366.753   6.089e-17 
   7368.294   6.558e-17 
   7369.835     5.9e-17 
   7371.375   4.537e-17 
   7372.916   4.556e-17 
   7374.457   5.558e-17 
   7375.998   6.303e-17 
   7377.538   5.473e-17 
   7379.079   5.458e-17 
    7380.62   5.176e-17 
   7382.161   6.098e-17 
   7383.702   6.054e-17 
   7385.243   5.162e-17 
   7386.783    6.27e-17 
   7388.324   5.907e-17 
   7389.865   4.768e-17 
   7391.406   6.099e-17 
   7392.947   6.182e-17 
   7394.488   4.768e-17 
   7396.029   4.959e-17 
    7397.57   6.339e-17 
   7399.111    4.94e-17 
   7400.652   6.516e-17 
   7402.193   7.176e-17 
   7403.734   5.914e-17 
   7405.275   5.407e-17 
   7406.816   4.049e-17 
   7408.357   5.514e-17 
   7409.898   5.049e-17 
   7411.439   5.018e-17 
    7412.98   5.946e-17 
   7414.521   5.179e-17 
   7416.062   5.422e-17 
   7417.604   5.381e-17 
   7419.145   6.233e-17 
   7420.686   5.635e-17 
   7422.227   5.691e-17 
   7423.768   5.162e-17 
   7425.309   4.659e-17 
   7426.851   5.493e-17 
   7428.392   5.062e-17 
   7429.933   4.316e-17 
   7431.474   5.273e-17 
   7433.016   5.319e-17 
   7434.557   4.155e-17 
   7436.098   6.191e-17 
   7437.639   5.513e-17 
   7439.181   4.931e-17 
   7440.722    4.85e-17 
   7442.263   5.088e-17 
   7443.805   5.138e-17 
   7445.346   5.574e-17 
   7446.887   4.726e-17 
   7448.429   5.259e-17 
    7449.97   5.938e-17 
   7451.512    5.73e-17 
   7453.053   4.526e-17 
   7454.595   5.802e-17 
   7456.136       5e-17 
   7457.677    5.54e-17 
   7459.219   5.202e-17 
    7460.76   4.558e-17 
   7462.302   5.678e-17 
   7463.843   5.078e-17 
   7465.385    5.05e-17 
   7466.927    5.27e-17 
   7468.468   5.046e-17 
    7470.01   5.478e-17 
   7471.551   5.238e-17 
   7473.093   5.068e-17 
   7474.634   6.008e-17 
   7476.176   5.344e-17 
   7477.718   6.182e-17 
   7479.259   6.537e-17 
   7480.801   5.248e-17 
   7482.343   5.614e-17 
   7483.884   5.027e-17 
   7485.426   4.761e-17 
   7486.968   3.735e-17 
   7488.509   4.453e-17 
   7490.051   5.564e-17 
   7491.593   4.515e-17 
   7493.135   6.595e-17 
   7494.676   5.228e-17 
   7496.218   4.204e-17 
    7497.76   5.176e-17 
   7499.302   4.443e-17 
   7500.844   3.809e-17 
   7502.385   4.867e-17 
   7503.927   5.661e-17 
   7505.469   5.323e-17 
   7507.011   4.891e-17 
   7508.553   5.224e-17 
   7510.095   3.806e-17 
   7511.637   5.774e-17 
   7513.179    4.99e-17 
    7514.72   5.827e-17 
   7516.262   3.699e-17 
   7517.804   3.658e-17 
   7519.346    5.29e-17 
   7520.888   5.291e-17 
    7522.43    3.99e-17 
   7523.972   6.487e-17 
   7525.514   4.167e-17 
   7527.056   4.957e-17 
   7528.598   4.025e-17 
    7530.14   4.275e-17 
   7531.682   5.236e-17 
   7533.224   4.352e-17 
   7534.767   4.348e-17 
   7536.309    5.18e-17 
   7537.851   4.384e-17 
   7539.393    5.56e-17 
   7540.935   4.855e-17 
   7542.477   4.808e-17 
   7544.019   5.163e-17 
   7545.561   3.919e-17 
   7547.104   4.151e-17 
   7548.646   4.996e-17 
   7550.188   5.123e-17 
    7551.73   4.848e-17 
   7553.273   3.421e-17 
   7554.815   5.672e-17 
   7556.357   4.006e-17 
   7557.899   4.683e-17 
   7559.442   4.117e-17 
   7560.984   4.475e-17 
   7562.526   4.358e-17 
   7564.068   4.027e-17 
   7565.611   3.446e-17 
   7567.153   3.948e-17 
   7568.695   4.819e-17 
   7570.238   5.486e-17 
    7571.78    2.87e-17 
   7573.323   5.172e-17 
   7574.865   4.826e-17 
   7576.407   3.133e-17 
    7577.95   4.535e-17 
   7579.492   3.789e-17 
   7581.035   4.286e-17 
   7582.577   3.489e-17 
    7584.12   5.448e-17 
   7585.662    4.32e-17 
   7587.204   3.078e-17 
   7588.747    4.35e-17 
   7590.289   3.005e-17 
   7591.832   2.774e-17 
   7593.375   3.813e-17 
   7594.917   4.383e-17 
    7596.46   4.572e-17 
   7598.002   1.386e-17 
   7599.545   6.028e-17 
   7601.087   3.191e-17 
    7602.63   1.803e-17 
   7604.173   5.011e-17 
   7605.715   7.518e-17 
   7607.258  -2.377e-17 
     7608.8    4.99e-17 
   7610.343   4.453e-17 
   7611.886   4.311e-17 
   7613.428    7.27e-17 
   7614.971   4.141e-17 
   7616.514   4.997e-17 
   7618.057   4.015e-17 
   7619.599     4.3e-17 
   7621.142   2.845e-17 
   7622.685   3.995e-17 
   7624.228   3.337e-17 
    7625.77   2.707e-17 
   7627.313   4.962e-17 
   7628.856   4.231e-17 
   7630.399   2.708e-17 
   7631.942     5.7e-17 
   7633.484   4.068e-17 
   7635.027   3.506e-17 
    7636.57    5.04e-17 
   7638.113   4.255e-17 
   7639.656   2.534e-17 
   7641.199   3.945e-17 
   7642.742   4.647e-17 
   7644.284   3.982e-17 
   7645.827   6.676e-17 
    7647.37   2.886e-17 
   7648.913   3.827e-17 
   7650.456   3.031e-17 
   7651.999   3.866e-17 
   7653.542   4.801e-17 
   7655.085   5.154e-17 
   7656.628   3.557e-17 
   7658.171   2.284e-17 
   7659.714   4.985e-17 
   7661.257   4.118e-17 
     7662.8   4.448e-17 
   7664.343    4.17e-17 
   7665.886   3.625e-17 
   7667.429   3.731e-17 
   7668.972   2.947e-17 
   7670.516   4.225e-17 
   7672.059   3.254e-17 
   7673.602   4.045e-17 
   7675.145   3.934e-17 
   7676.688   3.395e-17 
   7678.231   3.844e-17 
   7679.774   4.679e-17 
   7681.317   3.591e-17 
   7682.861   2.831e-17 
   7684.404   5.114e-17 
   7685.947   4.744e-17 
    7687.49   4.374e-17 
   7689.034   4.359e-17 
   7690.577   5.226e-17 
    7692.12   3.887e-17 
   7693.663   4.646e-17 
   7695.206   4.457e-17 
    7696.75   4.935e-17 
   7698.293    3.95e-17 
   7699.836   4.118e-17 
    7701.38   4.884e-17 
   7702.923   4.346e-17 
   7704.466   4.008e-17 
    7706.01   3.114e-17 
   7707.553   3.168e-17 
   7709.096   4.296e-17 
    7710.64   4.688e-17 
   7712.183   3.382e-17 
   7713.727   5.215e-17 
    7715.27   4.586e-17 
   7716.813   3.367e-17 
   7718.357   4.874e-17 
     7719.9   4.725e-17 
   7721.444   2.897e-17 
   7722.987   3.847e-17 
   7724.531   5.417e-17 
   7726.074   5.111e-17 
   7727.618   5.047e-17 
   7729.161   4.106e-17 
   7730.705   4.105e-17 
   7732.248   3.223e-17 
   7733.792   4.422e-17 
   7735.335    4.38e-17 
   7736.879   4.655e-17 
   7738.422   5.089e-17 
   7739.966   5.197e-17 
   7741.509   4.731e-17 
   7743.053   3.543e-17 
   7744.597   3.885e-17 
    7746.14   2.972e-17 
   7747.684   5.342e-17 
   7749.227   5.321e-17 
   7750.771   4.912e-17 
   7752.315    5.29e-17 
   7753.858   3.476e-17 
   7755.402    2.96e-17 
   7756.946    5.18e-17 
   7758.489   4.066e-17 
   7760.033   5.691e-17 
   7761.577   5.287e-17 
   7763.121   4.587e-17 
   7764.664    3.82e-17 
   7766.208   3.329e-17 
   7767.752   5.767e-17 
   7769.296   3.975e-17 
   7770.839   5.785e-17 
   7772.383   4.982e-17 
   7773.927   4.895e-17 
   7775.471   4.204e-17 
   7777.015   5.354e-17 
   7778.558    6.09e-17 
   7780.102   4.693e-17 
   7781.646   4.726e-17 
    7783.19   4.167e-17 
   7784.734   5.651e-17 
   7786.278   5.222e-17 
   7787.822   3.976e-17 
   7789.365   2.739e-17 
   7790.909   6.428e-17 
   7792.453   8.745e-17 
   7793.997   5.051e-17 
   7795.541   5.248e-17 
   7797.085   3.446e-17 
   7798.629   3.351e-17 
   7800.173   5.295e-17 
   7801.717   5.268e-17 
   7803.261   5.729e-17 
   7804.805   4.007e-17 
   7806.349   6.236e-17 
   7807.893   5.631e-17 
   7809.437   6.235e-17 
   7810.981   5.057e-17 
   7812.525   4.298e-17 
   7814.069   4.922e-17 
   7815.613   5.363e-17 
   7817.157   4.803e-17 
   7818.701   6.186e-17 
   7820.245   5.882e-17 
   7821.789   6.174e-17 
   7823.334    6.45e-17 
   7824.878   3.665e-17 
   7826.422   4.412e-17 
   7827.966   5.447e-17 
    7829.51   4.042e-17 
   7831.054   5.439e-17 
   7832.598   4.985e-17 
   7834.143   5.129e-17 
   7835.687   4.156e-17 
   7837.231   5.285e-17 
   7838.775   6.103e-17 
   7840.319   4.784e-17 
   7841.864   4.695e-17 
   7843.408   6.583e-17 
   7844.952   4.232e-17 
   7846.496   5.418e-17 
   7848.041   5.381e-17 
   7849.585   4.719e-17 
   7851.129   7.954e-17 
   7852.673   6.424e-17 
   7854.218   7.006e-17 
   7855.762   3.994e-17 
   7857.306    4.72e-17 
   7858.851   6.745e-17 
   7860.395   6.499e-17 
   7861.939   5.651e-17 
   7863.484   4.346e-17 
   7865.028   5.156e-17 
   7866.572   5.063e-17 
   7868.117   5.453e-17 
   7869.661   8.526e-17 
   7871.206   4.709e-17 
    7872.75    5.97e-17 
   7874.294   4.815e-17 
   7875.839   5.042e-17 
   7877.383   5.983e-17 
   7878.928   5.591e-17 
   7880.472   5.622e-17 
   7882.017   6.368e-17 
   7883.561   6.395e-17 
   7885.106   3.946e-17 
    7886.65   6.037e-17 
   7888.195   7.091e-17 
   7889.739    5.68e-17 
   7891.284     6.4e-17 
   7892.828   5.941e-17 
   7894.373   4.777e-17 
   7895.917   4.619e-17 
   7897.462   5.036e-17 
   7899.006   5.358e-17 
   7900.551   5.302e-17 
   7902.096    4.85e-17 
    7903.64   5.915e-17 
   7905.185    5.89e-17 
   7906.729   4.279e-17 
   7908.274   4.128e-17 
   7909.819   5.618e-17 
   7911.363   7.711e-17 
   7912.908   6.184e-17 
   7914.453    5.07e-17 
   7915.997   7.694e-17 
   7917.542   2.322e-17 
   7919.087   4.661e-17 
   7920.631   4.328e-17 
   7922.176   4.314e-17 
   7923.721   6.061e-17 
   7925.265   3.777e-17 
    7926.81   5.966e-17 
   7928.355    6.64e-17 
     7929.9   5.665e-17 
   7931.444   5.654e-17 
   7932.989   6.755e-17 
   7934.534   4.264e-17 
   7936.079    5.73e-17 
   7937.623    4.77e-17 
   7939.168   5.744e-17 
   7940.713   5.341e-17 
   7942.258   4.184e-17 
   7943.803   4.956e-17 
   7945.347   3.221e-17 
   7946.892   7.904e-17 
   7948.437   5.547e-17 
   7949.982   5.212e-17 
   7951.527   7.004e-17 
   7953.072   4.893e-17 
   7954.617   5.657e-17 
   7956.162   6.121e-17 
   7957.706   5.332e-17 
   7959.251    4.27e-17 
   7960.796   4.376e-17 
   7962.341   8.705e-17 
   7963.886   6.894e-17 
   7965.431    5.48e-17 
   7966.976   5.956e-17 
   7968.521   3.888e-17 
   7970.066   5.192e-17 
   7971.611   4.674e-17 
   7973.156   6.789e-17 
   7974.701   4.573e-17 
   7976.246   5.988e-17 
   7977.791   5.695e-17 
   7979.336   5.528e-17 
   7980.881    7.59e-17 
   7982.426   5.452e-17 
   7983.971   4.654e-17 
   7985.516   5.517e-17 
   7987.061   5.194e-17 
   7988.606    3.53e-17 
   7990.151   6.236e-17 
   7991.696   6.642e-17 
   7993.241   5.263e-17 
   7994.786   6.411e-17 
   7996.332   5.871e-17 
   7997.877   3.987e-17 
   7999.422   5.761e-17 
   8000.967   5.548e-17 
   8002.512   4.419e-17 
   8004.057   4.022e-17 
   8005.602   5.268e-17 
   8007.148   6.019e-17 
   8008.693   4.777e-17 
   8010.238   6.081e-17 
   8011.783   4.416e-17 
   8013.328   6.892e-17 
   8014.873    5.64e-17 
   8016.419   5.706e-17 
   8017.964   4.448e-17 
   8019.509   7.071e-17 
   8021.054   4.023e-17 
     8022.6   5.304e-17 
   8024.145     6.4e-17 
    8025.69   6.019e-17 
   8027.235   6.363e-17 
   8028.781   5.741e-17 
   8030.326   5.102e-17 
   8031.871   4.365e-17 
   8033.417   6.141e-17 
   8034.962   6.038e-17 
   8036.507   4.545e-17 
   8038.052    6.37e-17 
   8039.598   5.643e-17 
   8041.143   4.287e-17 
   8042.688   5.215e-17 
   8044.234   5.413e-17 
   8045.779   5.402e-17 
   8047.325   4.495e-17 
    8048.87   5.208e-17 
   8050.415   6.143e-17 
   8051.961   5.562e-17 
   8053.506   4.352e-17 
   8055.052   5.392e-17 
   8056.597   3.724e-17 
   8058.142   5.404e-17 
   8059.688   5.364e-17 
   8061.233   5.889e-17 
   8062.779   5.344e-17 
   8064.324   5.732e-17 
    8065.87   5.359e-17 
   8067.415   6.207e-17 
   8068.961   4.756e-17 
   8070.506   4.468e-17 
   8072.051   6.021e-17 
   8073.597   4.681e-17 
   8075.142   5.255e-17 
   8076.688   5.125e-17 
   8078.234   3.922e-17 
   8079.779   5.554e-17 
   8081.325   5.641e-17 
    8082.87   4.919e-17 
   8084.416       5e-17 
   8085.961   5.122e-17 
   8087.507   4.172e-17 
   8089.052   5.404e-17 
   8090.598   5.127e-17 
   8092.144   4.855e-17 
   8093.689   5.118e-17 
   8095.235   4.731e-17 
    8096.78   4.884e-17 
   8098.326   4.359e-17 
   8099.872   3.805e-17 
   8101.417   5.079e-17 
   8102.963   3.542e-17 
   8104.508   4.361e-17 
   8106.054   5.048e-17 
     8107.6   5.441e-17 
   8109.145   4.714e-17 
   8110.691   5.129e-17 
   8112.237   4.899e-17 
   8113.783   3.773e-17 
   8115.328   5.064e-17 
   8116.874   5.401e-17 
    8118.42   4.705e-17 
   8119.965    4.85e-17 
   8121.511   5.762e-17 
   8123.057    4.67e-17 
   8124.603   4.435e-17 
   8126.148   4.332e-17 
   8127.694   5.142e-17 
    8129.24   4.054e-17 
   8130.786   5.305e-17 
   8132.331    3.97e-17 
   8133.877   4.612e-17 
   8135.423   4.408e-17 
   8136.969   5.356e-17 
   8138.514   5.373e-17 
    8140.06   6.333e-17 
   8141.606   5.041e-17 
   8143.152   5.041e-17 
   8144.698   6.214e-17 
   8146.244   5.612e-17 
   8147.789   4.353e-17 
   8149.335   3.257e-17 
   8150.881   5.341e-17 
   8152.427   4.313e-17 
   8153.973   5.586e-17 
   8155.519   4.995e-17 
   8157.065   4.083e-17 
   8158.611   4.988e-17 
   8160.156   4.694e-17 
   8161.702   4.813e-17 
   8163.248   3.312e-17 
   8164.794   5.053e-17 
    8166.34   4.689e-17 
   8167.886   4.807e-17 
   8169.432   5.014e-17 
   8170.978   5.233e-17 
   8172.524   4.817e-17 
    8174.07   4.307e-17 
   8175.616   4.301e-17 
   8177.162   5.432e-17 
   8178.708   4.493e-17 
   8180.254   4.797e-17 
     8181.8   5.922e-17 
   8183.346   5.168e-17 
   8184.892   5.393e-17 
   8186.438   4.667e-17 
   8187.984   3.086e-17 
    8189.53   4.919e-17 
   8191.076   2.994e-17 
   8192.622   3.063e-17 
   8194.168   5.039e-17 
   8195.714   4.404e-17 
    8197.26   4.353e-17 
   8198.806    4.19e-17 
   8200.352     5.2e-17 
   8201.898   4.878e-17 
   8203.444   5.913e-17 
    8204.99   4.093e-17 
   8206.537   5.204e-17 
   8208.083   4.054e-17 
   8209.629   3.946e-17 
   8211.175   5.592e-17 
   8212.721   4.093e-17 
   8214.267   5.629e-17 
   8215.813   4.713e-17 
   8217.359   3.371e-17 
   8218.906   3.945e-17 
   8220.452   4.232e-17 
   8221.998   5.045e-17 
   8223.544   3.466e-17 
    8225.09    3.82e-17 
   8226.636   4.601e-17 
   8228.183   4.561e-17 
   8229.729   4.644e-17 
   8231.275   6.018e-17 
   8232.821   6.574e-17 
   8234.367   5.434e-17 
   8235.914    5.44e-17 
    8237.46   5.957e-17 
   8239.006    6.28e-17 
   8240.552   4.054e-17 
   8242.098    4.73e-17 
   8243.645   5.274e-17 
   8245.191   4.917e-17 
   8246.737   5.036e-17 
   8248.283   4.376e-17 
    8249.83   5.031e-17 
   8251.376   5.308e-17 
   8252.922   4.433e-17 
   8254.469   3.656e-17 
   8256.015   5.472e-17 
   8257.561   4.687e-17 
   8259.108   3.652e-17 
   8260.654   5.211e-17 
     8262.2   5.207e-17 
   8263.746   4.571e-17 
   8265.293    4.38e-17 
   8266.839   4.907e-17 
   8268.385   6.439e-17 
   8269.932   4.279e-17 
   8271.478   3.263e-17 
   8273.025   4.037e-17 
   8274.571   4.919e-17 
   8276.117   5.157e-17 
   8277.664    4.32e-17 
    8279.21   3.913e-17 
   8280.756   3.128e-17 
   8282.303   4.225e-17 
   8283.849   5.196e-17 
   8285.396   3.871e-17 
   8286.942   5.651e-17 
   8288.488   5.525e-17 
   8290.035   5.826e-17 
   8291.581   4.198e-17 
   8293.128   4.249e-17 
   8294.674   2.398e-17 
   8296.221   5.106e-17 
   8297.767    6.82e-17 
   8299.314   1.699e-17 
    8300.86   5.445e-17 
   8302.406   3.786e-17 
   8303.953   3.008e-17 
   8305.499   4.683e-17 
   8307.046    3.19e-17 
   8308.592   4.816e-17 
   8310.139   5.525e-17 
   8311.685   6.061e-17 
   8313.232   4.957e-17 
   8314.778   3.915e-17 
   8316.325   4.385e-17 
   8317.871   4.793e-17 
   8319.418   3.291e-17 
   8320.965   4.577e-17 
   8322.511   4.379e-17 
   8324.058   3.516e-17 
   8325.604   3.867e-17 
   8327.151   3.748e-17 
   8328.697   4.554e-17 
   8330.244   4.324e-17 
    8331.79   4.598e-17 
   8333.337   3.841e-17 
   8334.884   3.419e-17 
    8336.43   4.312e-17 
   8337.977   5.264e-17 
   8339.523   3.522e-17 
    8341.07   4.013e-17 
   8342.617   9.378e-17 
   8344.163   8.362e-17 
    8345.71   6.479e-17 
   8347.256   4.846e-17 
   8348.803   1.358e-17 
    8350.35   3.649e-17 
   8351.896   6.091e-17 
   8353.443   4.351e-17 
    8354.99   6.731e-17 
   8356.536    2.69e-17 
   8358.083   5.062e-17 
    8359.63   3.922e-17 
   8361.176   3.886e-17 
   8362.723   5.229e-17 
    8364.27    4.83e-17 
   8365.816   4.253e-17 
   8367.363   4.477e-17 
    8368.91   4.167e-17 
   8370.456   3.178e-17 
   8372.003   4.448e-17 
    8373.55   4.539e-17 
   8375.097   5.308e-17 
   8376.643   3.315e-17 
    8378.19   4.483e-17 
   8379.737    6.01e-17 
   8381.284   4.568e-17 
    8382.83    4.62e-17 
   8384.377   5.506e-17 
   8385.924    2.75e-17 
   8387.471   4.078e-17 
   8389.017   3.896e-17 
   8390.564   3.579e-17 
   8392.111   3.759e-17 
   8393.658   3.325e-17 
   8395.204   1.963e-17 
   8396.751   7.788e-17 
   8398.298   5.155e-17 
   8399.845   3.988e-17 
   8401.392   6.111e-17 
   8402.938   1.338e-17 
   8404.485   3.846e-17 
   8406.032    2.75e-17 
   8407.579   5.031e-17 
   8409.126   4.432e-17 
   8410.672    3.66e-17 
   8412.219   4.244e-17 
   8413.766   5.028e-17 
   8415.313   4.856e-17 
    8416.86   5.519e-17 
   8418.407   2.133e-17 
   8419.954   4.525e-17 
     8421.5   3.339e-17 
   8423.047   4.547e-17 
   8424.594   3.635e-17 
   8426.141   2.593e-17 
   8427.688   5.841e-17 
   8429.235   6.564e-17 
   8430.782   4.572e-17 
   8432.329   4.989e-17 
   8433.875    1.15e-17 
   8435.422   3.392e-17 
   8436.969   4.401e-17 
   8438.516   4.756e-17 
   8440.063   4.294e-17 
    8441.61   3.913e-17 
   8443.157   4.335e-17 
   8444.704   3.806e-17 
   8446.251   3.262e-17 
   8447.798   4.925e-17 
   8449.345   4.375e-17 
   8450.892   4.326e-17 
   8452.439   3.607e-17 
   8453.986   6.215e-17 
   8455.533    2.85e-17 
    8457.08   3.606e-17 
   8458.626   4.378e-17 
   8460.173   2.546e-17 
    8461.72   2.987e-17 
   8463.267   7.446e-17 
   8464.814   4.401e-17 
   8466.361   5.732e-17 
   8467.908   5.345e-17 
   8469.455   2.624e-17 
   8471.002   2.908e-17 
   8472.549   4.597e-17 
   8474.096   3.371e-17 
   8475.643   4.373e-17 
    8477.19   3.695e-17 
   8478.737   3.127e-17 
   8480.284    3.58e-17 
   8481.832   4.193e-17 
   8483.379    4.34e-17 
   8484.926   4.204e-17 
   8486.473   3.694e-17 
    8488.02   4.379e-17 
   8489.567   3.479e-17 
   8491.114   5.305e-17 
   8492.661   3.684e-17 
   8494.208   4.972e-17 
   8495.755   5.566e-17 
   8497.302   3.852e-17 
   8498.849   4.221e-17 
   8500.396   4.084e-17 
   8501.943   4.929e-17 
    8503.49   2.586e-17 
   8505.037   4.444e-17 
   8506.585    5.77e-17 
   8508.132    1.97e-17 
   8509.679   3.869e-17 
   8511.226   4.176e-17 
   8512.773    3.74e-17 
    8514.32   4.136e-17 
   8515.867   3.313e-17 
   8517.414   4.458e-17 
   8518.961   3.744e-17 
   8520.509   4.399e-17 
   8522.056   4.635e-17 
   8523.603   3.406e-17 
    8525.15   3.017e-17 
   8526.697   3.041e-17 
   8528.244   4.434e-17 
   8529.791   3.764e-17 
   8531.339   3.785e-17 
   8532.886    2.55e-17 
   8534.433    3.02e-17 
    8535.98   4.089e-17 
   8537.527   4.499e-17 
   8539.074   4.812e-17 
   8540.622    3.62e-17 
   8542.169    4.12e-17 
   8543.716   3.155e-17 
   8545.263   4.068e-17 
    8546.81   3.471e-17 
   8548.358   3.911e-17 
   8549.905    4.19e-17 
   8551.452   3.524e-17 
   8552.999   3.583e-17 
   8554.546     4.1e-17 
   8556.094   2.236e-17 
   8557.641   2.895e-17 
   8559.188   3.447e-17 
   8560.735    4.13e-17 
   8562.283   4.347e-17 
    8563.83    4.85e-17 
   8565.377   3.621e-17 
   8566.924   3.447e-17 
   8568.471   2.969e-17 
   8570.019   3.988e-17 
   8571.566   4.077e-17 
   8573.113   4.119e-17 
    8574.66    3.95e-17 
   8576.208   3.411e-17 
   8577.755   3.327e-17 
   8579.302   3.444e-17 
    8580.85   3.764e-17 
   8582.397   2.264e-17 
   8583.944    3.28e-17 
   8585.491   4.206e-17 
   8587.039   3.962e-17 
   8588.586   3.764e-17 
   8590.133   3.014e-17 
   8591.681   3.158e-17 
   8593.228     4.3e-17 
   8594.775   3.181e-17 
   8596.322    4.06e-17 
    8597.87   3.911e-17 
   8599.417    4.06e-17 
   8600.964    3.77e-17 
   8602.512   4.348e-17 
   8604.059   3.893e-17 
   8605.606   3.301e-17 
   8607.154   3.645e-17 
   8608.701   3.415e-17 
   8610.248   4.414e-17 
   8611.796   3.691e-17 
   8613.343     3.8e-17 
    8614.89   4.904e-17 
   8616.438    5.23e-17 
   8617.985     3.6e-17 
   8619.532   4.405e-17 
    8621.08   2.558e-17 
   8622.627   3.162e-17 
   8624.174   4.863e-17 
   8625.722   2.805e-17 
   8627.269   4.339e-17 
   8628.816   5.705e-17 
   8630.364   3.177e-17 
   8631.911   3.675e-17 
   8633.459   3.891e-17 
   8635.006   3.517e-17 
   8636.553   4.979e-17 
   8638.101   3.951e-17 
   8639.648   3.378e-17 
   8641.195   3.786e-17 
   8642.743   3.215e-17 
    8644.29    4.33e-17 
   8645.838   3.922e-17 
   8647.385   3.978e-17 
   8648.932   4.995e-17 
    8650.48   2.908e-17 
   8652.027   4.711e-17 
   8653.575   3.895e-17 
   8655.122   3.218e-17 
   8656.669    4.47e-17 
   8658.217    4.17e-17 
   8659.764   3.095e-17 
   8661.312   3.445e-17 
   8662.859   4.955e-17 
   8664.407   2.911e-17 
   8665.954   2.466e-17 
   8667.501   5.529e-17 
   8669.049    2.84e-17 
   8670.596   4.142e-17 
   8672.144   3.907e-17 
   8673.691   3.131e-17 
   8675.239   4.539e-17 
   8676.786   3.613e-17 
   8678.333   5.052e-17 
   8679.881   1.914e-17 
   8681.428   3.237e-17 
   8682.976   3.639e-17 
   8684.523   3.294e-17 
   8686.071   3.935e-17 
   8687.618   4.114e-17 
   8689.166   2.796e-17 
   8690.713   3.662e-17 
   8692.261   3.383e-17 
   8693.808   3.687e-17 
   8695.356     4.1e-17 
   8696.903   4.664e-17 
   8698.451   3.576e-17 
   8699.998   4.252e-17 
   8701.545   3.726e-17 
   8703.093   4.081e-17 
    8704.64   3.244e-17 
   8706.188   4.111e-17 
   8707.735   3.319e-17 
   8709.283   3.002e-17 
    8710.83   4.109e-17 
   8712.378    3.43e-17 
   8713.925   4.469e-17 
   8715.473   3.598e-17 
    8717.02   3.826e-17 
   8718.568   2.881e-17 
   8720.115   3.977e-17 
   8721.663   2.537e-17 
    8723.21   3.668e-17 
   8724.758   4.245e-17 
   8726.306   3.697e-17 
   8727.853   3.441e-17 
   8729.401   3.519e-17 
   8730.948   3.323e-17 
   8732.496   4.132e-17 
   8734.043   4.186e-17 
   8735.591   4.179e-17 
   8737.138    3.76e-17 
   8738.686   3.328e-17 
   8740.233   3.019e-17 
   8741.781   4.977e-17 
   8743.328   2.892e-17 
   8744.876   3.692e-17 
   8746.423   2.702e-17 
   8747.971   3.641e-17 
   8749.519   3.104e-17 
   8751.066    2.44e-17 
   8752.614   4.128e-17 
   8754.161   3.159e-17 
   8755.709   3.417e-17 
   8757.256   2.555e-17 
   8758.804   4.513e-17 
   8760.351    6.35e-17 
   8761.899   2.132e-17 
   8763.447    3.11e-17 
   8764.994   5.137e-17 
   8766.542   4.239e-17 
   8768.089   6.416e-17 
   8769.637   4.488e-17 
   8771.184   1.942e-17 
   8772.732   3.243e-17 
    8774.28   4.915e-17 
   8775.827   4.241e-17 
   8777.375   4.322e-17 
   8778.922   4.563e-17 
    8780.47   6.876e-17 
   8782.017   1.884e-17 
   8783.565   2.489e-17 
   8785.113   3.836e-17 
    8786.66     2.9e-17 
   8788.208   4.418e-17 
   8789.755   3.685e-17 
   8791.303   3.164e-17 
   8792.851   4.323e-17 
   8794.398   2.771e-17 
   8795.946   2.576e-17 
   8797.493    4.22e-17 
   8799.041   3.665e-17 
   8800.589   2.479e-17 
   8802.136   2.907e-17 
   8803.684   3.374e-17 
   8805.231   3.851e-17 
   8806.779   3.742e-17 
   8808.327   4.364e-17 
   8809.874   3.622e-17 
   8811.422   2.938e-17 
   8812.969   3.613e-17 
   8814.517   4.328e-17 
   8816.065   3.376e-17 
   8817.612   2.968e-17 
    8819.16    3.98e-17 
   8820.708   3.654e-17 
   8822.255   5.902e-18 
   8823.803   4.249e-17 
    8825.35   7.818e-17 
   8826.898   5.754e-17 
   8828.446    5.67e-17 
   8829.993   4.189e-17 
   8831.541   1.302e-18 
   8833.089   3.234e-17 
   8834.636   4.279e-17 
   8836.184   1.372e-17 
   8837.731   5.433e-17 
   8839.279   3.846e-17 
   8840.827   1.073e-17 
   8842.374   4.108e-17 
   8843.922   3.032e-17 
    8845.47    3.06e-17 
   8847.017   3.323e-17 
   8848.565   4.541e-17 
   8850.113   3.909e-17 
    8851.66   4.781e-17 
   8853.208   2.741e-17 
   8854.755   2.973e-17 
   8856.303   3.506e-17 
   8857.851   2.369e-17 
   8859.398   3.599e-17 
   8860.946   4.017e-17 
   8862.494   2.426e-17 
   8864.041   2.324e-17 
   8865.589   5.892e-17 
   8867.137   4.706e-17 
   8868.684   2.886e-17 
   8870.232   4.337e-17 
    8871.78   2.557e-17 
   8873.327   3.431e-17 
   8874.875   3.674e-17 
   8876.423    3.86e-17 
    8877.97   2.711e-17 
   8879.518    3.69e-17 
   8881.066   1.388e-17 
   8882.613   5.471e-17 
   8884.161   6.195e-17 
   8885.709    8.81e-17 
   8887.256   9.432e-17 
   8888.804   1.869e-17 
   8890.352   1.153e-17 
   8891.899   2.236e-17 
   8893.447   4.245e-17 
   8894.995   4.843e-17 
   8896.542   3.097e-17 
    8898.09   3.984e-17 
   8899.638   2.904e-17 
   8901.185   5.196e-17 
   8902.733   4.694e-17 
   8904.281   5.961e-17 
   8905.828   4.919e-17 
   8907.376   1.521e-17 
   8908.924   4.376e-17 
   8910.471   3.395e-17 
   8912.019   4.073e-17 
   8913.567   3.435e-17 
   8915.114   2.387e-17 
   8916.662   6.263e-17 
    8918.21   6.932e-17 
   8919.757   3.559e-17 
   8921.305   8.404e-17 
   8922.853   1.437e-17 
     8924.4   1.425e-17 
   8925.948   3.506e-17 
   8927.496    3.53e-17 
   8929.043   3.813e-17 
   8930.591   3.723e-17 
   8932.139   3.665e-17 
   8933.686    3.28e-17 
   8935.234   2.982e-17 
   8936.782   3.642e-17 
   8938.329   2.994e-17 
   8939.877   3.636e-17 
   8941.425   4.365e-17 
   8942.972   4.547e-17 
    8944.52   5.245e-17 
   8946.068    4.54e-17 
   8947.615   2.518e-17 
   8949.163   3.018e-17 
   8950.711   3.451e-17 
   8952.259   2.029e-17 
   8953.806    3.45e-17 
   8955.354   6.796e-17 
   8956.902   5.695e-17 
   8958.449   6.612e-17 
   8959.997   5.299e-17 
   8961.545   2.175e-17 
   8963.092   1.983e-17 
    8964.64   3.117e-17 
   8966.188   3.937e-17 
   8967.735   4.227e-17 
   8969.283   3.968e-17 
   8970.831   3.788e-17 
   8972.378   3.275e-17 
   8973.926   3.535e-17 
   8975.474   3.636e-17 
   8977.021   5.327e-17 
   8978.569   3.794e-17 
   8980.117   2.982e-17 
   8981.664   3.541e-17 
   8983.212   4.155e-17 
    8984.76   5.475e-17 
   8986.307   2.485e-17 
   8987.855   2.536e-17 
   8989.403   3.429e-17 
   8990.951   5.042e-17 
   8992.498   3.526e-17 
   8994.046   4.112e-17 
   8995.594   4.207e-17 
   8997.141   4.068e-17 
   8998.689   4.254e-17 
   9000.237   2.706e-17 
   9001.784   5.567e-17 
   9003.332    4.81e-17 
    9004.88   1.788e-17 
   9006.427   3.024e-17 
   9007.975   5.092e-17 
   9009.523   3.339e-17 
    9011.07   4.167e-17 
   9012.618   3.456e-17 
   9014.166   4.256e-17 
   9015.713   3.938e-17 
   9017.261   3.781e-17 
   9018.809   3.774e-17 
   9020.356     4.5e-17 
   9021.904   4.556e-17 
   9023.452   3.721e-17 
   9024.999   3.608e-17 
   9026.547   3.717e-17 
   9028.095   4.155e-17 
   9029.642   5.057e-17 
    9031.19   4.501e-17 
   9032.738   3.822e-17 
   9034.285   3.706e-17 
   9035.833   4.148e-17 
   9037.381   4.816e-17 
   9038.928   4.143e-17 
   9040.476   5.223e-17 
   9042.024    3.03e-17 
   9043.571   2.616e-17 
   9045.119   1.633e-17 
   9046.667    4.26e-17 
   9048.214   4.125e-17 
   9049.762   4.683e-17 
    9051.31   3.914e-17 
   9052.857   4.657e-17 
   9054.405   2.604e-17 
   9055.953    4.97e-17 
     9057.5   3.659e-17 
   9059.048   3.773e-17 
   9060.596   3.847e-17 
   9062.143   3.294e-17 
   9063.691   2.709e-17 
   9065.239   4.044e-17 
   9066.786   3.396e-17 
   9068.334   3.718e-17 
   9069.882   2.481e-17 
   9071.429   3.422e-17 
   9072.977   3.181e-17 
   9074.525   4.458e-17 
   9076.072   3.279e-17 
    9077.62   4.042e-17 
   9079.168    2.95e-17 
   9080.715   1.906e-17 
   9082.263   3.508e-17 
   9083.811   5.075e-17 
   9085.358   2.506e-17 
   9086.906   3.414e-17 
   9088.454     5.2e-17 
   9090.001   4.606e-17 
   9091.549   3.703e-17 
   9093.096   4.368e-17 
   9094.644   2.469e-17 
   9096.192   2.995e-17 
   9097.739   4.446e-17 
   9099.287   3.587e-17 
   9100.835   4.076e-17 
   9102.382   4.034e-17 
    9103.93   2.648e-17 
   9105.478   3.072e-17 
   9107.025   4.462e-17 
   9108.573   3.703e-17 
    9110.12   4.032e-17 
   9111.668   4.227e-17 
   9113.216   3.651e-17 
   9114.763   4.293e-17 
   9116.311   3.346e-17 
   9117.859   3.469e-17 
   9119.406   3.941e-17 
   9120.954   4.188e-17 
   9122.501   3.858e-17 
   9124.049   3.365e-17 
   9125.597   3.011e-17 
   9127.144   3.305e-17 
   9128.692   3.719e-17 
    9130.24   2.284e-17 
   9131.787   2.382e-17 
   9133.335   3.438e-17 
   9134.882   3.122e-17 
    9136.43   2.758e-17 
   9137.978   3.288e-17 
   9139.525   2.537e-17 
   9141.073   3.605e-17 
    9142.62   4.014e-17 
   9144.168   3.657e-17 
   9145.716   3.645e-17 
   9147.263   4.743e-17 
   9148.811   3.047e-17 
   9150.358   3.043e-17 
   9151.906   3.358e-17 
   9153.454   3.325e-17 
   9155.001   3.447e-17 
   9156.549   3.427e-17 
   9158.096   5.517e-17 
   9159.644   2.969e-17 
   9161.191   3.084e-17 
   9162.739   2.864e-17 
   9164.287   3.313e-17 
   9165.834   3.953e-17 
   9167.382   2.906e-17 
   9168.929   1.955e-17 
   9170.477   2.848e-17 
   9172.025   4.488e-17 
   9173.572   2.323e-17 
    9175.12   2.308e-17 
   9176.667   3.663e-17 
   9178.215   3.515e-17 
   9179.762   2.978e-17 
    9181.31   4.004e-17 
   9182.858   3.018e-17 
   9184.405   2.938e-17 
   9185.953   3.804e-17 
     9187.5   4.817e-17 
   9189.048   3.179e-17 
   9190.595   4.127e-17 
   9192.143   4.079e-17 
    9193.69   2.756e-17 
   9195.238   4.224e-17 
   9196.785   3.631e-17 
   9198.333   3.503e-17 
   9199.881   5.151e-17 
   9201.428   3.299e-17 
   9202.976    2.57e-17 
   9204.523   3.123e-17 
   9206.071   2.249e-17 
   9207.618   2.601e-17 
   9209.166   2.991e-17 
   9210.713   4.194e-17 
   9212.261   3.505e-17 
   9213.808    2.17e-17 
   9215.356   3.947e-17 
   9216.903   2.542e-17 
   9218.451   3.579e-17 
   9219.998   5.114e-17 
   9221.546   3.958e-17 
   9223.093   3.392e-17 
   9224.641   3.188e-17 
   9226.188   2.289e-17 
   9227.736   3.195e-17 
   9229.283   4.194e-17 
   9230.831   3.295e-17 
   9232.378   2.766e-17 
   9233.926   2.631e-17 
   9235.473    3.18e-17 
   9237.021   2.289e-17 
   9238.568   2.867e-17 
   9240.116   3.063e-17 
   9241.663    2.53e-17 
   9243.211    3.15e-17 
   9244.758   3.645e-17 
   9246.306   1.699e-17 
   9247.853   3.113e-17 
   9249.401   4.732e-17 
   9250.948   1.895e-17 
   9252.496   4.065e-17 
   9254.043   2.503e-17 
   9255.591   3.002e-17 
   9257.138   2.949e-17 
   9258.686   3.036e-17 
   9260.233   2.163e-17 
    9261.78   2.538e-17 
   9263.328   2.347e-17 
   9264.875   3.666e-17 
   9266.423   2.744e-17 
    9267.97   3.667e-17 
   9269.518   3.237e-17 
   9271.065   2.723e-17 
   9272.613   3.248e-17 
    9274.16   3.082e-17 
   9275.707   2.081e-17 
   9277.255    1.93e-17 
   9278.802   2.242e-17 
    9280.35   2.867e-17 
   9281.897   3.653e-17 
   9283.445    2.55e-17 
   9284.992   3.136e-17 
   9286.539   2.539e-17 
   9288.087   3.446e-17 
   9289.634   2.747e-17 
   9291.182   3.098e-17 
   9292.729   3.619e-17 
   9294.276   2.163e-17 
   9295.824   2.065e-17 
   9297.371   3.443e-17 
   9298.919   1.804e-17 
   9300.466   1.421e-17 
   9302.013   1.262e-17 
   9303.561   3.412e-17 
   9305.108    3.37e-17 
   9306.656    5.05e-17 
   9308.203   1.368e-17 
    9309.75   2.729e-17 
   9311.298   7.411e-17 
   9312.845   3.263e-17 
   9314.392   1.998e-17 
    9315.94   4.274e-17 
   9317.487  -4.124e-17 
   9319.034  -3.251e-17 
   9320.582   3.942e-17 
   9322.129   3.533e-17 
   9323.677   7.707e-17 
   9325.224   3.219e-17 
   9326.771   4.649e-17 
   9328.319   2.613e-20 
   9329.866    4.83e-17 
   9331.413   2.232e-17 
   9332.961   1.237e-17 
   9334.508    9.86e-18 
   9336.055   4.307e-17 
   9337.602   2.684e-17 
    9339.15   -2.62e-18 
   9340.697    3.16e-17 
   9342.244   2.201e-17 
   9343.792   5.611e-17 
   9345.339  -8.192e-18 
   9346.886  -7.123e-19 
   9348.434   6.941e-17 
   9349.981   2.873e-17 
   9351.528   5.345e-17 
   9353.076   1.175e-17 
   9354.623   3.962e-17 
    9356.17   2.159e-17 
   9357.717   1.927e-17 
   9359.265   2.221e-17 
   9360.812   5.645e-17 
   9362.359    4.45e-17 
   9363.906     2.5e-17 
   9365.454   4.973e-17 
   9367.001   3.871e-17 
   9368.548   -7.69e-18 
   9370.095  -2.274e-17 
   9371.643    1.73e-17 
    9373.19   1.461e-16 
   9374.737   1.601e-16 
   9376.284   1.715e-16 
   9377.832   -1.19e-17 
   9379.379  -2.413e-17 
   9380.926  -1.064e-16 
   9382.473    3.88e-18 
   9384.021   3.041e-17 
   9385.568   4.151e-17 
   9387.115   3.106e-17 
   9388.662   3.471e-17 
   9390.209   4.469e-17 
   9391.757   3.458e-17 
   9393.304   2.705e-17 
   9394.851   2.657e-17 
   9396.398   2.182e-17 
   9397.945   2.435e-17 
   9399.493    7.27e-18 
    9401.04   4.525e-17 
   9402.587   1.357e-17 
   9404.134   1.517e-17 
   9405.681   3.488e-17 
   9407.228   7.562e-18 
   9408.776   2.643e-17 
   9410.323   1.084e-17 
    9411.87   3.614e-17 
   9413.417   2.405e-17 
   9414.964   1.634e-17 
   9416.511   3.055e-17 
   9418.059   3.484e-17 
   9419.606   4.029e-17 
   9421.153   4.174e-17 
     9422.7   2.713e-17 
   9424.247       4e-19 
   9425.794   4.736e-18 
   9427.341   5.616e-18 
   9428.888   1.034e-17 
   9430.436  -1.084e-18 
   9431.983   1.961e-17 
    9433.53    2.33e-17 
   9435.077   2.102e-17 
   9436.624   3.412e-17 
   9438.171   6.729e-17 
   9439.718   1.714e-17 
   9441.265   5.576e-17 
   9442.812   8.554e-19 
   9444.359  -4.187e-17 
   9445.906   1.942e-17 
   9447.454   1.171e-17 
   9449.001   6.189e-18 
   9450.548    2.94e-17 
   9452.095   6.899e-18 
   9453.642   2.251e-18 
   9455.189  -1.902e-17 
   9456.736   4.799e-17 
   9458.283   2.993e-17 
    9459.83   7.681e-17 
   9461.377   5.247e-17 
   9462.924   2.114e-17 
   9464.471   1.859e-17 
   9466.018   2.293e-17 
   9467.565   3.556e-17 
   9469.112   2.856e-17 
   9470.659   6.025e-18 
   9472.206   6.316e-18 
   9473.753   3.446e-17 
     9475.3   4.616e-17 
   9476.847    4.61e-17 
   9478.394   4.341e-17 
   9479.941   1.771e-17 
   9481.488   5.468e-18 
   9483.035    1.23e-17 
   9484.582   2.392e-17 
   9486.129   3.932e-17 
   9487.676   1.703e-17 
   9489.223   2.199e-17 
    9490.77   2.025e-17 
   9492.317   2.561e-17 
   9493.864   2.835e-17 
   9495.411   1.575e-17 
   9496.958  -5.578e-18 
   9498.505   2.069e-17 
   9500.051   9.833e-18 
   9501.598   6.545e-17 
   9503.145   5.589e-17 
   9504.692   1.584e-17 
   9506.239   2.807e-17 
   9507.786   4.072e-17 
   9509.333   3.598e-17 
    9510.88   3.153e-17 
   9512.427   2.819e-17 
   9513.974   2.749e-17 
    9515.52   1.422e-17 
   9517.067   3.568e-17 
   9518.614   4.572e-17 
   9520.161   5.347e-17 
   9521.708   3.544e-17 
   9523.255   4.065e-17 
   9524.802   2.283e-17 
   9526.349   2.186e-17 
   9527.895   4.734e-17 
   9529.442   3.079e-17 
   9530.989   3.512e-17 
   9532.536   5.182e-17 
   9534.083   3.248e-17 
    9535.63   3.928e-17 
   9537.176   3.636e-17 
   9538.723   3.984e-17 
    9540.27   1.499e-17 
   9541.817   1.875e-17 
   9543.364   1.622e-17 
    9544.91   3.723e-17 
   9546.457   3.369e-17 
   9548.004   2.261e-17 
   9549.551   3.865e-17 
   9551.097   3.592e-17 
   9552.644   2.544e-17 
   9554.191   2.885e-17 
   9555.738   2.119e-19 
   9557.285   1.689e-17 
   9558.831   2.927e-17 
   9560.378    8.42e-18 
   9561.925   3.786e-17 
   9563.471   9.556e-18 
   9565.018   4.486e-17 
   9566.565   4.483e-17 
   9568.112    6.05e-17 
   9569.658   4.431e-17 
   9571.205   1.182e-17 
   9572.752   3.059e-17 
   9574.298   4.843e-17 
   9575.845   2.676e-17 
   9577.392   3.315e-17 
   9578.939    2.89e-17 
   9580.485   4.267e-17 
   9582.032   2.382e-17 
   9583.579   3.884e-17 
   9585.125   3.734e-17 
   9586.672   3.272e-17 
   9588.219   4.238e-17 
   9589.765   2.423e-17 
   9591.312   9.986e-18 
   9592.858   6.381e-18 
   9594.405    4.74e-17 
   9595.952    3.64e-17 
   9597.498   2.942e-17 
   9599.045   2.763e-17 
   9600.592   3.145e-17 
   9602.138   4.519e-17 
   9603.685   3.799e-17 
   9605.231   2.291e-17 
   9606.778   3.265e-17 
   9608.325   3.202e-17 
   9609.871   1.997e-17 
   9611.418   4.181e-17 
   9612.964   4.405e-17 
   9614.511   2.953e-17 
   9616.057   3.143e-17 
   9617.604   2.621e-17 
   9619.151   4.386e-17 
   9620.697   1.378e-17 
   9622.244   4.913e-17 
    9623.79   5.051e-17 
   9625.337    1.35e-17 
   9626.883   3.616e-17 
    9628.43   3.308e-17 
   9629.976    3.46e-17 
   9631.523   3.046e-17 
   9633.069   2.314e-17 
   9634.616   4.052e-17 
   9636.162    1.85e-17 
   9637.709   3.824e-17 
   9639.255   4.177e-17 
   9640.802   2.785e-17 
   9642.348   4.051e-17 
   9643.895   3.394e-17 
   9645.441   4.412e-17 
   9646.987   3.573e-17 
   9648.534    1.99e-17 
    9650.08     4.1e-17 
   9651.627   2.728e-17 
   9653.173   3.101e-17 
    9654.72   4.985e-17 
   9656.266   3.963e-17 
   9657.812   4.619e-17 
   9659.359   4.412e-17 
   9660.905   2.512e-17 
   9662.452   3.666e-17 
   9663.998    3.24e-17 
   9665.544   3.809e-17 
   9667.091   6.012e-17 
   9668.637   5.775e-17 
   9670.183   3.258e-17 
    9671.73   2.578e-17 
   9673.276   3.499e-17 
   9674.823   2.489e-17 
   9676.369   3.428e-17 
   9677.915   3.409e-17 
   9679.462   2.426e-17 
   9681.008   2.739e-17 
   9682.554   2.586e-17 
     9684.1   3.828e-17 
   9685.647   3.865e-17 
   9687.193   3.116e-17 
   9688.739   3.093e-17 
   9690.286    4.28e-17 
   9691.832   3.918e-17 
   9693.378   2.141e-17 
   9694.924     1.3e-17 
   9696.471   3.832e-17 
   9698.017   5.153e-17 
   9699.563   5.104e-17 
   9701.109   3.038e-17 
   9702.656   3.627e-17 
   9704.202   2.776e-17 
   9705.748   3.217e-17 
   9707.294   4.561e-17 
   9708.841   3.904e-17 
   9710.387   3.407e-17 
   9711.933   3.874e-17 
   9713.479   1.645e-17 
   9715.025   3.251e-17 
   9716.572    2.05e-17 
   9718.118   4.887e-17 
   9719.664   3.905e-17 
    9721.21   5.575e-17 
   9722.756   2.064e-17 
   9724.302   1.859e-17 
   9725.848   2.631e-17 
   9727.395   3.145e-17 
   9728.941   3.499e-17 
   9730.487   4.096e-17 
   9732.033   4.808e-17 
   9733.579   2.839e-17 
   9735.125   2.201e-17 
   9736.671   2.386e-17 
   9738.217   4.172e-17 
   9739.763   5.694e-17 
    9741.31   4.769e-17 
   9742.856   2.375e-17 
   9744.402   4.197e-17 
   9745.948   3.403e-17 
   9747.494   3.369e-17 
    9749.04   2.746e-17 
   9750.586   2.713e-17 
   9752.132   3.028e-17 
   9753.678   3.768e-17 
   9755.224   2.859e-17 
    9756.77   4.622e-17 
   9758.316   2.643e-17 
   9759.862   2.761e-17 
   9761.408   3.167e-17 
   9762.954   2.244e-17 
     9764.5   4.002e-17 
   9766.046   2.693e-17 
   9767.592   4.253e-17 
   9769.138   3.655e-17 
   9770.684   1.937e-17 
    9772.23   3.381e-17 
   9773.776   3.426e-17 
   9775.322   3.249e-17 
   9776.868   3.064e-17 
   9778.413    4.17e-17 
   9779.959   2.521e-17 
   9781.505   3.373e-17 
   9783.051    3.55e-17 
   9784.597   2.179e-17 
   9786.143   2.948e-17 
   9787.689   6.714e-17 
   9789.235   3.063e-17 
   9790.781   1.945e-17 
   9792.326   3.011e-17 
   9793.872   3.206e-17 
   9795.418   5.036e-18 
   9796.964   3.835e-17 
    9798.51   3.167e-17 
   9800.056   3.331e-17 
   9801.601   6.212e-17 
   9803.147   6.696e-17 
   9804.693   3.731e-17 
   9806.239   4.335e-17 
   9807.785   3.289e-17 
    9809.33   2.888e-17 
   9810.876   4.875e-17 
   9812.422   3.718e-17 
   9813.968    3.91e-17 
   9815.513   4.615e-17 
   9817.059   3.741e-17 
   9818.605   4.369e-17 
   9820.151   3.323e-17 
   9821.696   5.107e-17 
   9823.242   3.016e-17 
   9824.788   1.826e-17 
   9826.334   4.634e-17 
   9827.879   4.059e-17 
   9829.425   3.724e-17 
   9830.971   3.499e-17 
   9832.516   4.376e-17 
   9834.062   3.287e-17 
   9835.608   3.698e-17 
   9837.153   3.596e-17 
   9838.699   2.955e-17 
   9840.245    4.84e-17 
    9841.79   2.798e-17 
   9843.336   2.617e-17 
   9844.881   1.653e-17 
   9846.427   3.326e-17 
   9847.973   3.674e-17 
   9849.518   1.877e-17 
   9851.064   4.052e-17 
   9852.609   3.726e-17 
   9854.155    2.52e-17 
   9855.701   2.515e-17 
   9857.246   3.237e-17 
   9858.792   3.851e-17 
   9860.337   1.884e-17 
   9861.883   4.586e-17 
   9863.428   4.752e-17 
   9864.974   3.499e-17 
   9866.519   3.668e-17 
   9868.065   2.416e-17 
    9869.61   2.992e-17 
   9871.156   5.338e-17 
   9872.701   5.516e-17 
   9874.247   4.946e-17 
   9875.792   1.975e-17 
   9877.338   3.414e-17 
   9878.883   3.114e-17 
   9880.429   3.335e-17 
   9881.974   1.967e-17 
    9883.52   4.961e-17 
   9885.065    3.98e-17 
    9886.61   3.692e-17 
   9888.156   2.394e-17 
   9889.701   1.831e-17 
   9891.247   7.919e-18 
   9892.792   3.745e-17 
   9894.337   2.687e-17 
   9895.883   4.384e-17 
   9897.428   3.452e-17 
   9898.973   9.435e-18 
   9900.519   2.525e-17 
   9902.064    3.34e-17 
   9903.609   2.067e-17 
   9905.155   3.902e-17 
     9906.7   1.209e-17 
   9908.245   3.702e-17 
   9909.791   2.349e-17 
   9911.336    2.64e-17 
   9912.881  -1.634e-18 
   9914.427    9.95e-17 
   9915.972   4.293e-17 
   9917.517   6.554e-17 
   9919.062   2.001e-17 
   9920.608   1.434e-17 
   9922.153   2.385e-17 
   9923.698   2.719e-17 
   9925.243   2.068e-17 
   9926.788   4.512e-17 
   9928.334   3.428e-17 
   9929.879    3.16e-17 
   9931.424    1.47e-17 
   9932.969   3.899e-17 
   9934.514   2.503e-17 
    9936.06   1.478e-17 
   9937.605   2.737e-17 
    9939.15   5.752e-17 
   9940.695    1.07e-17 
    9942.24   3.405e-17 
   9943.785   3.197e-17 
    9945.33   4.675e-17 
   9946.875   7.033e-18 
   9948.421   4.657e-17 
   9949.966   7.629e-18 
   9951.511   -2.65e-17 
   9953.056   2.673e-17 
   9954.601    3.61e-17 
   9956.146   2.354e-17 
   9957.691   -8.54e-18 
   9959.236   3.765e-17 
   9960.781   -4.49e-19 
   9962.326   6.714e-18 
   9963.871   5.128e-18 
   9965.416    3.16e-17 
   9966.961   4.414e-18 
   9968.506   1.557e-17 
   9970.051   9.395e-18 
   9971.596   3.734e-17 
   9973.141   3.356e-17 
   9974.686     2.4e-17 
   9976.231  -1.232e-18 
   9977.776   2.784e-17 
   9979.321   3.023e-17 
   9980.866    2.78e-18 
   9982.411   5.418e-18 
   9983.956   2.344e-17 
     9985.5   1.875e-18 
   9987.045   3.472e-17 
    9988.59   2.374e-17 
   9990.135   2.363e-17 
    9991.68   3.135e-17 
   9993.225   2.388e-17 
    9994.77   2.766e-17 
   9996.314   7.041e-18 
   9997.859   2.602e-17 
   9999.404   1.539e-17 
