# STATUS =
# OBJECT = PS111bam
# TELESCOPE = Gemini-N
# INSTRUMENT = GMOS
# DATE-OBS = 2011-12-05
# MJD = 55900.0
# EXPTIME = 3000
# AIRMASS =
# SLIT = 1
# DISPERSER = R400
# SOURCE = 2012ApJ...755L..29B
# FILTER =
# RESOLUTION =
# FLUX_STANDARD =
# EXTINCTION_CORRECTED =
# PHOTOMETRY_CALIBRATED =
# TELLURIC_CORRECTED =
# FLUX_UNITS =
# WAVE_UNITS =
# QUALITY =
# MIN_WAVE =
# MAX_WAVE =
# COMMENT = Obtained from private comm. with Lunnan
 Wavelength         Flux 
    4803.37     0.020253 
    4804.74    0.0096995 
    4806.11   -0.0040213 
    4807.48     0.004189 
    4808.85      0.01487 
    4810.22    0.0026168 
    4811.59    0.0056523 
    4812.96    0.0063614 
    4814.33    0.0030231 
     4815.7     0.004982 
    4817.07     0.010792 
    4818.44   -0.0021615 
    4819.81   -0.0080734 
    4821.18   -0.0049705 
    4822.55    0.0017125 
    4823.92    0.0099648 
    4825.29     0.010047 
    4826.66     0.011909 
    4828.03    0.0051399 
     4829.4    0.0046549 
    4830.77     0.013087 
    4832.14       0.0135 
    4833.51     0.012662 
    4834.88     0.010103 
    4836.25     0.019407 
    4837.62     0.011838 
    4838.99    0.0084388 
    4840.36    0.0047844 
    4841.73     0.014809 
     4843.1    0.0080032 
    4844.47    0.0056338 
    4845.84    0.0073235 
    4847.21    0.0076288 
    4848.58   -0.0011495 
    4849.95     0.011103 
    4851.32    0.0072067 
    4852.69    0.0089915 
    4854.06     0.014043 
    4855.43     0.016941 
     4856.8     0.015204 
    4858.17     0.013467 
    4859.54     0.011729 
    4860.91     0.009992 
    4862.28     0.009992 
    4863.65     0.012527 
    4865.02     0.020119 
    4866.39     0.013969 
    4867.76    0.0082269 
    4869.13    0.0052484 
     4870.5    0.0053862 
    4871.87     0.018215 
    4873.24      0.01123 
    4874.61    0.0066345 
    4875.98     0.010177 
    4877.35     0.016549 
    4878.72     0.015094 
    4880.09     0.015897 
    4881.46     0.020718 
    4882.83     0.015274 
     4884.2    0.0053632 
    4885.57     0.009009 
    4886.94    0.0060962 
    4888.31    0.0034554 
    4889.68    0.0085738 
    4891.05     0.009953 
    4892.42     0.007069 
    4893.79     0.003242 
    4895.16    0.0055628 
    4896.53    0.0052137 
     4897.9    0.0046461 
    4899.27     0.010739 
    4900.64     0.011866 
    4902.01     0.014014 
    4903.38     0.014759 
    4904.75    0.0031961 
    4906.12    0.0060223 
    4907.49     0.010379 
    4908.86    0.0030667 
    4910.23    0.0059173 
     4911.6    0.0053071 
    4912.97    0.0056458 
    4914.34    0.0083474 
    4915.71    0.0037786 
    4917.08     0.010772 
    4918.45     0.011344 
    4919.82     0.006351 
    4921.19     0.011085 
    4922.56    0.0099707 
    4923.93    0.0057324 
     4925.3    0.0076305 
    4926.67     0.010043 
    4928.04    0.0085636 
    4929.41     0.010985 
    4930.78      0.01145 
    4932.15     0.009379 
    4933.52    0.0082863 
    4934.89     0.003415 
    4936.26     0.006186 
    4937.63    0.0053098 
     4939.0   0.00066036 
    4940.37    0.0039729 
    4941.74    0.0063828 
    4943.11     0.007213 
    4944.48    0.0064178 
    4945.85   5.8947e-05 
    4947.22    0.0031299 
    4948.59     0.013252 
    4949.96    0.0063837 
    4951.33     0.010359 
     4952.7     0.015296 
    4954.07    0.0092871 
    4955.44   0.00014749 
    4956.81    0.0076233 
    4958.18     0.012543 
    4959.55     0.008748 
    4960.92    0.0033882 
    4962.29    0.0064251 
    4963.66     0.014098 
    4965.03     0.010035 
     4966.4    0.0074024 
    4967.77    0.0049871 
    4969.14    0.0014867 
    4970.51    0.0064887 
    4971.88    0.0086522 
    4973.25     0.007543 
    4974.62    0.0074267 
    4975.99    0.0033535 
    4977.36    0.0039903 
    4978.73    0.0085236 
     4980.1    0.0056135 
    4981.47    0.0059586 
    4982.84    0.0096773 
    4984.21     0.011162 
    4985.58    0.0086105 
    4986.95     0.010343 
    4988.32     0.012027 
    4989.69    0.0076441 
    4991.06     0.012934 
    4992.43     0.015904 
     4993.8      0.00571 
    4995.17   0.00030611 
    4996.54    0.0038389 
    4997.91    0.0076532 
    4999.28    0.0078187 
    5000.65     0.006198 
    5002.02     0.006487 
    5003.39     0.011201 
    5004.76     0.010774 
    5006.13    0.0025746 
     5007.5    0.0044045 
    5008.87     0.012601 
    5010.24    0.0083986 
    5011.61    0.0021362 
    5012.98   -0.0019619 
    5014.35   -0.0042327 
    5015.72    0.0054864 
    5017.09    0.0069233 
    5018.46    0.0056979 
    5019.83     0.010018 
     5021.2     0.011153 
    5022.57     0.014007 
    5023.94     0.012136 
    5025.31     0.011115 
    5026.68     0.012278 
    5028.05    0.0099526 
    5029.42    0.0067512 
    5030.79    0.0068122 
    5032.16    0.0097641 
    5033.53     0.013189 
     5034.9     0.014921 
    5036.27     0.013232 
    5037.64    0.0085954 
    5039.01    0.0024079 
    5040.38    0.0046603 
    5041.75    0.0087595 
    5043.12    0.0050346 
    5044.49    0.0042506 
    5045.86    0.0062745 
    5047.23    0.0054572 
     5048.6  -0.00092293 
    5049.97     0.004975 
    5051.34     0.010182 
    5052.71     0.010056 
    5054.08     0.008648 
    5055.45     0.011946 
    5056.82    0.0036707 
    5058.19    0.0053311 
    5059.56    0.0087549 
    5060.93     0.011027 
     5062.3    0.0041458 
    5063.67    0.0057042 
    5065.04    0.0064386 
    5066.41     0.003795 
    5067.78    0.0061916 
    5069.15    0.0095605 
    5070.52    0.0065666 
    5071.89    0.0026499 
    5073.26    0.0074188 
    5074.63     0.011242 
     5076.0    0.0074545 
    5077.37      0.00841 
    5078.74    0.0073953 
    5080.11     0.012129 
    5081.48     0.011784 
    5082.85    0.0069136 
    5084.22    0.0091331 
    5085.59    0.0099188 
    5086.96    0.0073397 
    5088.33    0.0086994 
     5089.7    0.0091478 
    5091.07     0.010104 
    5092.44     0.014533 
    5093.81    0.0099417 
    5095.18     0.003718 
    5096.55     0.010111 
    5097.92     0.017704 
    5099.29     0.012794 
    5100.66     0.012095 
    5102.03    0.0066108 
     5103.4    0.0065378 
    5104.77    0.0093591 
    5106.14    0.0099842 
    5107.51     0.015401 
    5108.88     0.014614 
    5110.25     0.005382 
    5111.62    0.0043667 
    5112.99     0.009936 
    5114.36    0.0077809 
    5115.73     0.011153 
     5117.1     0.011355 
    5118.47    0.0042194 
    5119.84    0.0047804 
    5121.21    0.0053661 
    5122.58    0.0063031 
    5123.95    0.0060838 
    5125.32    0.0053335 
    5126.69    0.0083687 
    5128.06     0.013895 
    5129.43     0.011991 
     5130.8    0.0038627 
    5132.17    0.0070217 
    5133.54     0.011434 
    5134.91     0.011643 
    5136.28      0.00835 
    5137.65     0.010421 
    5139.02    0.0081608 
    5140.39    0.0051466 
    5141.76    0.0072813 
    5143.13    0.0071182 
     5144.5      0.01264 
    5145.87     0.012247 
    5147.24     0.007475 
    5148.61     0.004861 
    5149.98    0.0086212 
    5151.35     0.010292 
    5152.72    0.0083308 
    5154.09    0.0049798 
    5155.46    0.0056841 
    5156.83    0.0078181 
     5158.2    0.0063513 
    5159.57    0.0082497 
    5160.94    0.0066879 
    5162.31      0.01734 
    5163.68     0.011017 
    5165.05     0.010553 
    5166.42    0.0091478 
    5167.79    0.0067828 
    5169.16    0.0068021 
    5170.53    0.0054745 
     5171.9    0.0027994 
    5173.27    0.0062721 
    5174.64     0.003919 
    5176.01    0.0069331 
    5177.38     0.007437 
    5178.75    0.0060488 
    5180.12     0.006518 
    5181.49     0.011462 
    5182.86     0.005938 
    5184.23    0.0047692 
     5185.6     0.008195 
    5186.97    0.0080184 
    5188.34     0.010988 
    5189.71     0.010477 
    5191.08     0.011097 
    5192.45     0.009514 
    5193.82    0.0074784 
    5195.19    0.0087267 
    5196.56    0.0072005 
    5197.93    0.0074786 
     5199.3      0.01103 
    5200.67    0.0065064 
    5202.04    0.0073986 
    5203.41     0.013263 
    5204.78     0.013691 
    5206.15     0.012648 
    5207.52     0.013453 
    5208.89      0.01501 
    5210.26    0.0096753 
    5211.63     0.011286 
     5213.0     0.012563 
    5214.37     0.011086 
    5215.74     0.012033 
    5217.11     0.010965 
    5218.48     0.010696 
    5219.85      0.01062 
    5221.22    0.0085033 
    5222.59    0.0079491 
    5223.96    0.0095645 
    5225.33    0.0067713 
     5226.7    0.0079804 
    5228.07     0.007157 
    5229.44    0.0065809 
    5230.81    0.0093014 
    5232.18    0.0070551 
    5233.55    0.0093781 
    5234.92      0.01243 
    5236.29    0.0074826 
    5237.66     0.010032 
    5239.03    0.0082938 
     5240.4    0.0043918 
    5241.77    0.0039714 
    5243.14    0.0065125 
    5244.51     0.010282 
    5245.88    0.0071763 
    5247.25     0.011184 
    5248.62    0.0095141 
    5249.99    0.0065126 
    5251.36    0.0080915 
    5252.73     0.014063 
     5254.1     0.011477 
    5255.47    0.0088047 
    5256.84     0.010904 
    5258.21     0.011178 
    5259.58     0.011901 
    5260.95     0.011793 
    5262.32     0.011904 
    5263.69     0.011125 
    5265.06    0.0044247 
    5266.43     0.007058 
     5267.8    0.0094614 
    5269.17    0.0091075 
    5270.54    0.0045103 
    5271.91    0.0057761 
    5273.28     0.009254 
    5274.65    0.0082322 
    5276.02    0.0084013 
    5277.39    0.0066328 
    5278.76    0.0099959 
    5280.13     0.011335 
     5281.5     0.012309 
    5282.87    0.0085149 
    5284.24     0.010259 
    5285.61     0.011858 
    5286.98    0.0071794 
    5288.35    0.0095132 
    5289.72    0.0098553 
    5291.09    0.0098561 
    5292.46    0.0057186 
    5293.83    0.0073978 
     5295.2    0.0093412 
    5296.57     0.010899 
    5297.94    0.0065587 
    5299.31     0.011483 
    5300.68     0.010958 
    5302.05      0.01043 
    5303.42    0.0099142 
    5304.79    0.0087968 
    5306.16    0.0094627 
    5307.53    0.0088543 
     5308.9    0.0060793 
    5310.27    0.0099795 
    5311.64     0.011077 
    5313.01    0.0094242 
    5314.38    0.0079622 
    5315.75    0.0092069 
    5317.12     0.010441 
    5318.49     0.010505 
    5319.86    0.0081904 
    5321.23    0.0082701 
     5322.6    0.0088721 
    5323.97     0.011033 
    5325.34     0.011226 
    5326.71      0.00937 
    5328.08    0.0084842 
    5329.45    0.0095433 
    5330.82    0.0075125 
    5332.19    0.0072945 
    5333.56     0.010192 
    5334.93    0.0095879 
     5336.3    0.0089701 
    5337.67    0.0092423 
    5339.04    0.0064678 
    5340.41    0.0063629 
    5341.78     0.010796 
    5343.15     0.010676 
    5344.52    0.0079935 
    5345.89    0.0098141 
    5347.26    0.0087904 
    5348.63    0.0044722 
     5350.0    0.0063792 
    5351.37    0.0079434 
    5352.74     0.010158 
    5354.11     0.012305 
    5355.48     0.010751 
    5356.85    0.0086788 
    5358.22    0.0070804 
    5359.59    0.0094923 
    5360.96     0.010752 
    5362.33     0.008455 
     5363.7    0.0082566 
    5365.07    0.0099941 
    5366.44    0.0079069 
    5367.81    0.0052522 
    5369.18    0.0078103 
    5370.55    0.0089516 
    5371.92     0.009507 
    5373.29    0.0093595 
    5374.66      0.01069 
    5376.03     0.012085 
     5377.4     0.011001 
    5378.77     0.007898 
    5380.14    0.0098769 
    5381.51     0.010729 
    5382.88    0.0068218 
    5384.25    0.0075408 
    5385.62    0.0088673 
    5386.99    0.0094823 
    5388.36      0.00903 
    5389.73    0.0095139 
     5391.1       0.0102 
    5392.47    0.0092598 
    5393.84     0.010229 
    5395.21    0.0090644 
    5396.58     0.007873 
    5397.95    0.0063674 
    5399.32    0.0060089 
    5400.69    0.0074462 
    5402.06     0.006867 
    5403.43    0.0077704 
     5404.8    0.0069042 
    5406.17    0.0075802 
    5407.54     0.011174 
    5408.91    0.0098613 
    5410.28    0.0090793 
    5411.65     0.010589 
    5413.02     0.012192 
    5414.39     0.012049 
    5415.76       0.0089 
    5417.13    0.0079434 
     5418.5    0.0085926 
    5419.87    0.0081876 
    5421.24    0.0077076 
    5422.61     0.007478 
    5423.98    0.0082536 
    5425.35    0.0085189 
    5426.72    0.0087155 
    5428.09     0.009858 
    5429.46    0.0093925 
    5430.83    0.0096872 
     5432.2    0.0089313 
    5433.57    0.0065469 
    5434.94    0.0054098 
    5436.31    0.0049855 
    5437.68    0.0082966 
    5439.05    0.0098579 
    5440.42     0.010442 
    5441.79    0.0097714 
    5443.16    0.0094532 
    5444.53     0.011287 
     5445.9    0.0082977 
    5447.27    0.0055477 
    5448.64    0.0061183 
    5450.01    0.0094818 
    5451.38     0.012021 
    5452.75     0.010222 
    5454.12     0.008922 
    5455.49    0.0072515 
    5456.86    0.0059264 
    5458.23    0.0071019 
     5459.6     0.007602 
    5460.97    0.0065672 
    5462.34    0.0090752 
    5463.71     0.011475 
    5465.08     0.010459 
    5466.45    0.0065149 
    5467.82     0.006286 
    5469.19    0.0084293 
    5470.56    0.0063111 
    5471.93    0.0050439 
     5473.3    0.0055711 
    5474.67    0.0057888 
    5476.04    0.0063121 
    5477.41    0.0070639 
    5478.78    0.0081802 
    5480.15    0.0089202 
    5481.52    0.0082025 
    5482.89    0.0076045 
    5484.26    0.0083231 
    5485.63    0.0079128 
     5487.0    0.0067982 
    5488.37    0.0063113 
    5489.74    0.0051022 
    5491.11    0.0072648 
    5492.48    0.0069601 
    5493.85    0.0055994 
    5495.22    0.0070302 
    5496.59    0.0058299 
    5497.96    0.0052327 
    5499.33    0.0056807 
     5500.7     0.005127 
    5502.07    0.0054305 
    5503.44     0.006997 
    5504.81    0.0093023 
    5506.18     0.012289 
    5507.55     0.009584 
    5508.92     0.006524 
    5510.29    0.0069681 
    5511.66    0.0085701 
    5513.03      0.00933 
     5514.4     0.006265 
    5515.77    0.0055265 
    5517.14    0.0064016 
    5518.51    0.0077143 
    5519.88      0.00712 
    5521.25     0.010519 
    5522.62    0.0090171 
    5523.99    0.0072059 
    5525.36    0.0068827 
    5526.73    0.0066619 
     5528.1    0.0080424 
    5529.47    0.0075628 
    5530.84    0.0058619 
    5532.21    0.0063183 
    5533.58    0.0073942 
    5534.95     0.010441 
    5536.32     0.011057 
    5537.69    0.0099214 
    5539.06     0.010033 
    5540.43    0.0096112 
     5541.8     0.014656 
    5543.17     0.011073 
    5544.54    0.0083338 
    5545.91    0.0062518 
    5547.28    0.0057159 
    5548.65    0.0053881 
    5550.02     0.004401 
    5551.39    0.0066928 
    5552.76    0.0074611 
    5554.13    0.0081154 
     5555.5     0.010119 
    5556.87    0.0078579 
    5558.24    0.0067666 
    5559.61    0.0071709 
    5560.98    0.0081466 
    5562.35    0.0093005 
    5563.72    0.0068673 
    5565.09    0.0068903 
    5566.46    0.0064017 
    5567.83    0.0064068 
     5569.2    0.0065672 
    5570.57    0.0064604 
    5571.94    0.0056916 
    5573.31    0.0070034 
    5574.68    0.0053966 
    5576.05    0.0051956 
    5577.42    0.0049946 
    5578.79    0.0047936 
    5580.16    0.0045926 
    5581.53    0.0043915 
     5582.9    0.0043915 
    5584.27    0.0076192 
    5585.64    0.0051455 
    5587.01    0.0050482 
    5588.38    0.0072552 
    5589.75     0.003932 
    5591.12     0.004152 
    5592.49    0.0063115 
    5593.86    0.0074786 
    5595.23    0.0079976 
     5596.6    0.0080747 
    5597.97    0.0059951 
    5599.34    0.0062548 
    5600.71    0.0056332 
    5602.08    0.0071096 
    5603.45    0.0083105 
    5604.82    0.0035906 
    5606.19    0.0041586 
    5607.56    0.0044916 
    5608.93    0.0049922 
     5610.3    0.0053023 
    5611.67    0.0073168 
    5613.04    0.0083309 
    5614.41    0.0047006 
    5615.78    0.0063834 
    5617.15    0.0054006 
    5618.52    0.0051699 
    5619.89     0.007185 
    5621.26    0.0076068 
    5622.63    0.0068107 
     5624.0    0.0074428 
    5625.37    0.0071697 
    5626.74    0.0055793 
    5628.11      0.00682 
    5629.48    0.0080655 
    5630.85    0.0086378 
    5632.22    0.0052937 
    5633.59    0.0055277 
    5634.96    0.0067821 
    5636.33    0.0063954 
     5637.7    0.0091384 
    5639.07    0.0066257 
    5640.44     0.004792 
    5641.81     0.005316 
    5643.18    0.0041078 
    5644.55    0.0051481 
    5645.92    0.0075849 
    5647.29    0.0067581 
    5648.66     0.005812 
    5650.03    0.0052293 
     5651.4     0.006284 
    5652.77    0.0071012 
    5654.14    0.0068868 
    5655.51    0.0057869 
    5656.88    0.0079739 
    5658.25    0.0070558 
    5659.62    0.0054247 
    5660.99    0.0055565 
    5662.36    0.0051714 
    5663.73    0.0055909 
     5665.1    0.0079382 
    5666.47    0.0064814 
    5667.84    0.0078204 
    5669.21    0.0069581 
    5670.58    0.0041212 
    5671.95    0.0048956 
    5673.32    0.0054929 
    5674.69      0.00606 
    5676.06    0.0066538 
    5677.43    0.0048636 
     5678.8     0.005432 
    5680.17      0.00712 
    5681.54    0.0070136 
    5682.91    0.0067131 
    5684.28    0.0064853 
    5685.65    0.0056624 
    5687.02    0.0071656 
    5688.39    0.0077072 
    5689.76    0.0074474 
    5691.13    0.0043411 
     5692.5    0.0053499 
    5693.87     0.004978 
    5695.24    0.0035836 
    5696.61    0.0053545 
    5697.98    0.0058807 
    5699.35    0.0071688 
    5700.72    0.0081146 
    5702.09    0.0081795 
    5703.46    0.0091057 
    5704.83    0.0099236 
     5706.2    0.0077541 
    5707.57    0.0049162 
    5708.94    0.0056196 
    5710.31    0.0069561 
    5711.68    0.0064172 
    5713.05    0.0069862 
    5714.42    0.0068956 
    5715.79    0.0080665 
    5717.16    0.0044337 
    5718.53    0.0061582 
     5719.9    0.0069435 
    5721.27    0.0094676 
    5722.64    0.0079736 
    5724.01    0.0076542 
    5725.38    0.0075472 
    5726.75    0.0075142 
    5728.12    0.0063934 
    5729.49    0.0076372 
    5730.86    0.0066245 
    5732.23    0.0064033 
     5733.6     0.006801 
    5734.97    0.0070424 
    5736.34     0.008209 
    5737.71    0.0071735 
    5739.08    0.0058854 
    5740.45     0.006724 
    5741.82    0.0088188 
    5743.19    0.0084552 
    5744.56    0.0048622 
    5745.93    0.0054019 
     5747.3    0.0078431 
    5748.67    0.0083496 
    5750.04     0.008041 
    5751.41    0.0079028 
    5752.78    0.0056626 
    5754.15    0.0061404 
    5755.52    0.0077654 
    5756.89    0.0073715 
    5758.26    0.0059795 
    5759.63    0.0062044 
     5761.0    0.0082562 
    5762.37    0.0083993 
    5763.74    0.0081661 
    5765.11    0.0072895 
    5766.48    0.0062838 
    5767.85    0.0061476 
    5769.22    0.0090434 
    5770.59     0.009367 
    5771.96    0.0063216 
    5773.33    0.0074973 
     5774.7    0.0079055 
    5776.07    0.0062618 
    5777.44    0.0071499 
    5778.81    0.0079371 
    5780.18    0.0068966 
    5781.55    0.0072757 
    5782.92    0.0072702 
    5784.29    0.0071613 
    5785.66    0.0065353 
    5787.03    0.0065764 
     5788.4     0.006561 
    5789.77     0.007593 
    5791.14    0.0088302 
    5792.51    0.0068987 
    5793.88    0.0080179 
    5795.25    0.0077233 
    5796.62    0.0070902 
    5797.99    0.0093968 
    5799.36    0.0090318 
    5800.73    0.0070455 
     5802.1    0.0084669 
    5803.47    0.0090328 
    5804.84     0.008684 
    5806.21    0.0085415 
    5807.58    0.0092549 
    5808.95    0.0082415 
    5810.32    0.0084048 
    5811.69    0.0080447 
    5813.06    0.0079547 
    5814.43    0.0073965 
     5815.8    0.0073297 
    5817.17    0.0078666 
    5818.54    0.0077159 
    5819.91    0.0076316 
    5821.28    0.0086962 
    5822.65     0.010023 
    5824.02    0.0091526 
    5825.39    0.0079569 
    5826.76    0.0072331 
    5828.13    0.0074665 
     5829.5    0.0071065 
    5830.87    0.0076663 
    5832.24    0.0090355 
    5833.61    0.0087124 
    5834.98    0.0074551 
    5836.35    0.0075942 
    5837.72    0.0089408 
    5839.09    0.0078615 
    5840.46    0.0067507 
    5841.83    0.0068769 
     5843.2    0.0076969 
    5844.57    0.0082097 
    5845.94    0.0083514 
    5847.31    0.0090275 
    5848.68    0.0086347 
    5850.05    0.0095604 
    5851.42    0.0098702 
    5852.79    0.0092386 
    5854.16     0.008607 
    5855.53    0.0079753 
     5856.9    0.0079753 
    5858.27    0.0095008 
    5859.64    0.0073195 
    5861.01    0.0066721 
    5862.38    0.0090032 
    5863.75    0.0095935 
    5865.12    0.0079875 
    5866.49    0.0068539 
    5867.86    0.0078519 
    5869.23    0.0077086 
     5870.6     0.006157 
    5871.97     0.007267 
    5873.34    0.0098849 
    5874.71     0.011368 
    5876.08     0.010967 
    5877.45    0.0095579 
    5878.82    0.0090581 
    5880.19    0.0086823 
    5881.56    0.0081802 
    5882.93    0.0072904 
     5884.3    0.0091932 
    5885.67     0.010639 
    5887.04      0.00832 
    5888.41    0.0078982 
    5889.78     0.010687 
    5891.15     0.010004 
    5892.52    0.0079516 
    5893.89    0.0090179 
    5895.26    0.0082398 
    5896.63    0.0088748 
     5898.0    0.0099122 
    5899.37    0.0077878 
    5900.74    0.0085045 
    5902.11    0.0085477 
    5903.48    0.0071019 
    5904.85    0.0081351 
    5906.22    0.0082765 
    5907.59    0.0074283 
    5908.96    0.0079018 
    5910.33    0.0087111 
     5911.7    0.0097685 
    5913.07    0.0097111 
    5914.44    0.0090491 
    5915.81    0.0087842 
    5917.18    0.0076769 
    5918.55    0.0087278 
    5919.92     0.010254 
    5921.29    0.0084553 
    5922.66     0.008446 
    5924.03    0.0090663 
     5925.4    0.0080312 
    5926.77    0.0084174 
    5928.14    0.0080007 
    5929.51     0.008526 
    5930.88    0.0087064 
    5932.25    0.0085835 
    5933.62    0.0085717 
    5934.99    0.0080064 
    5936.36    0.0081667 
    5937.73    0.0085262 
     5939.1    0.0074808 
    5940.47     0.007879 
    5941.84    0.0087463 
    5943.21    0.0083043 
    5944.58    0.0081696 
    5945.95    0.0082064 
    5947.32    0.0072666 
    5948.69    0.0080538 
    5950.06    0.0095733 
    5951.43    0.0098318 
     5952.8    0.0088916 
    5954.17     0.008053 
    5955.54    0.0079946 
    5956.91    0.0072929 
    5958.28    0.0078639 
    5959.65    0.0085059 
    5961.02     0.008943 
    5962.39    0.0084173 
    5963.76    0.0084398 
    5965.13    0.0091839 
     5966.5    0.0087471 
    5967.87    0.0093777 
    5969.24    0.0094528 
    5970.61    0.0089846 
    5971.98    0.0088538 
    5973.35    0.0093764 
    5974.72    0.0089964 
    5976.09    0.0078356 
    5977.46    0.0084187 
    5978.83    0.0085559 
     5980.2    0.0087912 
    5981.57    0.0071478 
    5982.94     0.006078 
    5984.31     0.006003 
    5985.68     0.007028 
    5987.05    0.0075918 
    5988.42    0.0066591 
    5989.79    0.0070452 
    5991.16    0.0063922 
    5992.53    0.0064368 
     5993.9    0.0073993 
    5995.27    0.0080532 
    5996.64    0.0082089 
    5998.01    0.0085518 
    5999.38     0.007157 
    6000.75    0.0071944 
    6002.12    0.0075521 
    6003.49    0.0069463 
    6004.86    0.0070415 
    6006.23    0.0086296 
     6007.6    0.0073765 
    6008.97    0.0076049 
    6010.34    0.0051567 
    6011.71    0.0053464 
    6013.08    0.0051787 
    6014.45    0.0060385 
    6015.82    0.0070901 
    6017.19    0.0068702 
    6018.56    0.0063654 
    6019.93    0.0076131 
     6021.3    0.0077993 
    6022.67    0.0086712 
    6024.04    0.0080945 
    6025.41    0.0084777 
    6026.78    0.0076637 
    6028.15    0.0066956 
    6029.52    0.0081102 
    6030.89    0.0086977 
    6032.26     0.006434 
    6033.63    0.0060405 
     6035.0    0.0069683 
    6036.37    0.0058486 
    6037.74    0.0070013 
    6039.11    0.0072529 
    6040.48    0.0083803 
    6041.85    0.0064925 
    6043.22    0.0070246 
    6044.59    0.0077302 
    6045.96    0.0077195 
    6047.33    0.0069355 
     6048.7    0.0070289 
    6050.07    0.0075672 
    6051.44    0.0072151 
    6052.81    0.0050388 
    6054.18     0.006141 
    6055.55    0.0089246 
    6056.92    0.0065385 
    6058.29    0.0058562 
    6059.66    0.0064793 
    6061.03    0.0067222 
     6062.4    0.0071581 
    6063.77     0.005302 
    6065.14    0.0045037 
    6066.51    0.0064401 
    6067.88    0.0077817 
    6069.25    0.0076637 
    6070.62    0.0075376 
    6071.99    0.0062946 
    6073.36    0.0072854 
    6074.73    0.0083517 
     6076.1    0.0069827 
    6077.47    0.0065437 
    6078.84    0.0071633 
    6080.21    0.0084604 
    6081.58    0.0072493 
    6082.95    0.0063585 
    6084.32    0.0073466 
    6085.69    0.0071218 
    6087.06    0.0060962 
    6088.43    0.0066657 
     6089.8    0.0055942 
    6091.17     0.004163 
    6092.54    0.0057382 
    6093.91    0.0063515 
    6095.28    0.0050459 
    6096.65    0.0067552 
    6098.02     0.006638 
    6099.39    0.0074805 
    6100.76    0.0069754 
    6102.13    0.0054111 
     6103.5    0.0050431 
    6104.87    0.0068046 
    6106.24    0.0062539 
    6107.61    0.0061705 
    6108.98    0.0077677 
    6110.35      0.00622 
    6111.72    0.0042061 
    6113.09    0.0040509 
    6114.46    0.0051261 
    6115.83    0.0066901 
     6117.2    0.0066539 
    6118.57    0.0067872 
    6119.94    0.0069823 
    6121.31    0.0070804 
    6122.68    0.0062437 
    6124.05    0.0055151 
    6125.42    0.0073893 
    6126.79    0.0067947 
    6128.16    0.0053266 
    6129.53    0.0079361 
     6130.9     0.008418 
    6132.27     0.010009 
    6133.64    0.0084828 
    6135.01    0.0065946 
    6136.38    0.0077937 
    6137.75    0.0072858 
    6139.12       0.0061 
    6140.49    0.0060106 
    6141.86     0.006592 
    6143.23    0.0066265 
     6144.6    0.0069375 
    6145.97    0.0079942 
    6147.34    0.0067546 
    6148.71     0.007579 
    6150.08    0.0065558 
    6151.45    0.0070415 
    6152.82    0.0074242 
    6154.19    0.0063765 
    6155.56    0.0067219 
    6156.93    0.0074233 
     6158.3    0.0074512 
    6159.67    0.0065524 
    6161.04    0.0072583 
    6162.41    0.0057092 
    6163.78    0.0059865 
    6165.15    0.0067646 
    6166.52    0.0069487 
    6167.89     0.006604 
    6169.26    0.0056852 
    6170.63    0.0058195 
     6172.0    0.0068407 
    6173.37    0.0072765 
    6174.74    0.0062557 
    6176.11    0.0063109 
    6177.48    0.0063083 
    6178.85    0.0062989 
    6180.22    0.0062913 
    6181.59    0.0062836 
    6182.96    0.0062758 
    6184.33     0.006268 
     6185.7    0.0062601 
    6187.07    0.0062522 
    6188.44    0.0062442 
    6189.81    0.0062361 
    6191.18     0.006228 
    6192.55    0.0062198 
    6193.92    0.0062116 
    6195.29    0.0062033 
    6196.66    0.0061949 
    6198.03    0.0061867 
     6199.4    0.0061732 
    6200.77    0.0062038 
    6202.14    0.0060662 
    6203.51    0.0057118 
    6204.88    0.0063722 
    6206.25    0.0068026 
    6207.62    0.0061092 
    6208.99    0.0057836 
    6210.36    0.0062258 
    6211.73    0.0073136 
     6213.1    0.0070556 
    6214.47     0.006882 
    6215.84    0.0069442 
    6217.21    0.0064245 
    6218.58    0.0074083 
    6219.95    0.0084562 
    6221.32    0.0077048 
    6222.69    0.0067417 
    6224.06    0.0078176 
    6225.43    0.0080534 
     6226.8    0.0054873 
    6228.17    0.0057832 
    6229.54    0.0066358 
    6230.91    0.0058511 
    6232.28    0.0060697 
    6233.65     0.007165 
    6235.02    0.0072318 
    6236.39    0.0069219 
    6237.76    0.0063038 
    6239.13    0.0055341 
     6240.5    0.0068338 
    6241.87    0.0069883 
    6243.24    0.0062928 
    6244.61     0.006947 
    6245.98    0.0070595 
    6247.35    0.0071378 
    6248.72    0.0064249 
    6250.09    0.0069344 
    6251.46    0.0066381 
    6252.83    0.0057075 
     6254.2    0.0074394 
    6255.57     0.007334 
    6256.94    0.0063117 
    6258.31    0.0065857 
    6259.68    0.0064348 
    6261.05    0.0062527 
    6262.42    0.0062868 
    6263.79    0.0062343 
    6265.16    0.0070271 
    6266.53    0.0074122 
     6267.9    0.0069514 
    6269.27    0.0064602 
    6270.64    0.0069568 
    6272.01    0.0065883 
    6273.38    0.0067134 
    6274.75    0.0072546 
    6276.12    0.0075253 
    6277.49    0.0070789 
    6278.86    0.0057112 
    6280.23    0.0058001 
     6281.6     0.006935 
    6282.97    0.0070436 
    6284.34    0.0062311 
    6285.71    0.0061834 
    6287.08    0.0060119 
    6288.45    0.0065069 
    6289.82    0.0072901 
    6291.19    0.0070654 
    6292.56    0.0074097 
    6293.93    0.0077302 
     6295.3    0.0068996 
    6296.67    0.0060587 
    6298.04    0.0069097 
    6299.41    0.0075013 
    6300.78    0.0070768 
    6302.15    0.0073958 
    6303.52    0.0072401 
    6304.89    0.0069725 
    6306.26    0.0063435 
    6307.63    0.0057802 
     6309.0    0.0060531 
    6310.37    0.0066546 
    6311.74     0.006879 
    6313.11    0.0064989 
    6314.48    0.0064461 
    6315.85    0.0057236 
    6317.22    0.0054437 
    6318.59    0.0063189 
    6319.96    0.0068183 
    6321.33    0.0071033 
     6322.7    0.0071102 
    6324.07    0.0068748 
    6325.44    0.0071458 
    6326.81    0.0075619 
    6328.18     0.007255 
    6329.55    0.0069675 
    6330.92    0.0073882 
    6332.29    0.0071451 
    6333.66    0.0070175 
    6335.03    0.0075005 
     6336.4    0.0066038 
    6337.77    0.0059901 
    6339.14    0.0070089 
    6340.51     0.007186 
    6341.88    0.0064412 
    6343.25    0.0065939 
    6344.62    0.0077315 
    6345.99      0.00767 
    6347.36    0.0075475 
    6348.73    0.0073603 
     6350.1    0.0073337 
    6351.47    0.0071943 
    6352.84    0.0070955 
    6354.21    0.0063538 
    6355.58     0.006392 
    6356.95    0.0066575 
    6358.32    0.0064271 
    6359.69    0.0063579 
    6361.06    0.0068838 
    6362.43    0.0068897 
     6363.8    0.0061317 
    6365.17    0.0066165 
    6366.54    0.0062616 
    6367.91    0.0068345 
    6369.28    0.0071169 
    6370.65    0.0062034 
    6372.02    0.0064836 
    6373.39    0.0069658 
    6374.76    0.0064969 
    6376.13    0.0069839 
     6377.5    0.0070065 
    6378.87    0.0065805 
    6380.24    0.0077847 
    6381.61    0.0073643 
    6382.98    0.0067736 
    6384.35     0.006406 
    6385.72     0.006876 
    6387.09    0.0070756 
    6388.46    0.0061133 
    6389.83    0.0062884 
     6391.2    0.0072193 
    6392.57    0.0069349 
    6393.94    0.0072348 
    6395.31    0.0084735 
    6396.68    0.0075951 
    6398.05    0.0068587 
    6399.42    0.0068257 
    6400.79    0.0071457 
    6402.16    0.0069556 
    6403.53    0.0068121 
     6404.9    0.0068411 
    6406.27    0.0062499 
    6407.64     0.007313 
    6409.01    0.0070802 
    6410.38    0.0067697 
    6411.75    0.0073796 
    6413.12    0.0065803 
    6414.49    0.0068799 
    6415.86    0.0077637 
    6417.23     0.007287 
     6418.6    0.0071468 
    6419.97    0.0075048 
    6421.34     0.007795 
    6422.71    0.0075745 
    6424.08     0.007216 
    6425.45    0.0079559 
    6426.82    0.0074811 
    6428.19    0.0073582 
    6429.56     0.007807 
    6430.93    0.0072222 
     6432.3    0.0065443 
    6433.67    0.0059428 
    6435.04    0.0072538 
    6436.41    0.0078521 
    6437.78     0.006994 
    6439.15    0.0061223 
    6440.52    0.0066634 
    6441.89    0.0075797 
    6443.26    0.0069225 
    6444.63    0.0068648 
     6446.0    0.0068578 
    6447.37    0.0077536 
    6448.74    0.0075876 
    6450.11    0.0074527 
    6451.48    0.0081236 
    6452.85    0.0079069 
    6454.22    0.0081166 
    6455.59    0.0077509 
    6456.96    0.0071261 
    6458.33    0.0073678 
     6459.7    0.0075549 
    6461.07     0.006768 
    6462.44    0.0084613 
    6463.81    0.0083417 
    6465.18    0.0064551 
    6466.55    0.0063356 
    6467.92    0.0059176 
    6469.29    0.0062689 
    6470.66    0.0064709 
    6472.03     0.006799 
     6473.4    0.0071102 
    6474.77     0.007318 
    6476.14    0.0077152 
    6477.51    0.0077068 
    6478.88    0.0073873 
    6480.25    0.0066678 
    6481.62    0.0071551 
    6482.99    0.0080858 
    6484.36    0.0080392 
    6485.73    0.0077368 
     6487.1    0.0073401 
    6488.47    0.0075533 
    6489.84    0.0081558 
    6491.21    0.0082214 
    6492.58    0.0074827 
    6493.95    0.0067448 
    6495.32    0.0058289 
    6496.69    0.0071907 
    6498.06     0.009427 
    6499.43    0.0081873 
     6500.8    0.0060245 
    6502.17    0.0062472 
    6503.54    0.0078241 
    6504.91    0.0083707 
    6506.28    0.0075977 
    6507.65    0.0081705 
    6509.02    0.0071861 
    6510.39    0.0070815 
    6511.76    0.0077571 
    6513.13    0.0071436 
     6514.5    0.0091262 
    6515.87    0.0080862 
    6517.24    0.0074262 
    6518.61    0.0066928 
    6519.98    0.0058908 
    6521.35    0.0068738 
    6522.72    0.0066982 
    6524.09    0.0080621 
    6525.46    0.0074121 
    6526.83    0.0069081 
     6528.2    0.0068173 
    6529.57    0.0083803 
    6530.94    0.0081552 
    6532.31    0.0069178 
    6533.68     0.005256 
    6535.05    0.0070551 
    6536.42      0.00829 
    6537.79    0.0078471 
    6539.16    0.0075292 
    6540.53    0.0067909 
     6541.9    0.0066489 
    6543.27    0.0077876 
    6544.64     0.006836 
    6546.01    0.0062017 
    6547.38    0.0066777 
    6548.75    0.0068331 
    6550.12    0.0073625 
    6551.49    0.0079757 
    6552.86    0.0066378 
    6554.23    0.0078508 
     6555.6    0.0082972 
    6556.97    0.0069018 
    6558.34    0.0062831 
    6559.71    0.0081027 
    6561.08    0.0073043 
    6562.45    0.0070161 
    6563.82    0.0067684 
    6565.19    0.0069192 
    6566.56    0.0070561 
    6567.93    0.0073217 
     6569.3    0.0064293 
    6570.67    0.0062716 
    6572.04    0.0057239 
    6573.41    0.0056997 
    6574.78    0.0060444 
    6576.15    0.0056396 
    6577.52    0.0069898 
    6578.89     0.007292 
    6580.26    0.0060468 
    6581.63    0.0056014 
     6583.0    0.0055146 
    6584.37    0.0057314 
    6585.74    0.0054915 
    6587.11    0.0066952 
    6588.48    0.0071331 
    6589.85    0.0072577 
    6591.22    0.0060444 
    6592.59    0.0063213 
    6593.96    0.0070945 
    6595.33    0.0068553 
     6596.7    0.0061132 
    6598.07    0.0061848 
    6599.44     0.007012 
    6600.81    0.0073688 
    6602.18    0.0061044 
    6603.55    0.0059743 
    6604.92    0.0067634 
    6606.29    0.0069482 
    6607.66    0.0074039 
    6609.03    0.0067352 
     6610.4     0.006838 
    6611.77    0.0066317 
    6613.14    0.0060266 
    6614.51    0.0064133 
    6615.88    0.0062948 
    6617.25    0.0070702 
    6618.62    0.0071073 
    6619.99    0.0058213 
    6621.36    0.0061148 
    6622.73    0.0060137 
     6624.1    0.0064928 
    6625.47    0.0065218 
    6626.84     0.006769 
    6628.21    0.0062559 
    6629.58    0.0054259 
    6630.95      0.00506 
    6632.32    0.0051638 
    6633.69    0.0049215 
    6635.06    0.0044421 
    6636.43    0.0046378 
     6637.8    0.0036226 
    6639.17    0.0042506 
    6640.54    0.0056865 
    6641.91    0.0056311 
    6643.28    0.0057247 
    6644.65    0.0055456 
    6646.02    0.0049933 
    6647.39    0.0060903 
    6648.76    0.0060239 
    6650.13    0.0060073 
     6651.5    0.0062165 
    6652.87    0.0058606 
    6654.24    0.0052516 
    6655.61     0.005493 
    6656.98    0.0059127 
    6658.35     0.007246 
    6659.72     0.007185 
    6661.09    0.0056154 
    6662.46    0.0053258 
    6663.83    0.0059608 
     6665.2    0.0065958 
    6666.57    0.0052393 
    6667.94    0.0031626 
    6669.31    0.0021624 
    6670.68    0.0024902 
    6672.05    0.0037304 
    6673.42    0.0046964 
    6674.79    0.0050745 
    6676.16    0.0054472 
    6677.53    0.0047503 
     6678.9    0.0048956 
    6680.27     0.005436 
    6681.64    0.0056161 
    6683.01    0.0056217 
    6684.38    0.0055173 
    6685.75     0.006012 
    6687.12    0.0060178 
    6688.49    0.0059277 
    6689.86      0.00621 
    6691.23    0.0059623 
     6692.6    0.0059849 
    6693.97    0.0058924 
    6695.34    0.0049679 
    6696.71    0.0043897 
    6698.08    0.0054354 
    6699.45    0.0058197 
    6700.82    0.0057219 
    6702.19    0.0056659 
    6703.56    0.0061005 
    6704.93    0.0062422 
     6706.3    0.0057667 
    6707.67    0.0060535 
    6709.04    0.0061437 
    6710.41    0.0062445 
    6711.78    0.0060274 
    6713.15    0.0053339 
    6714.52    0.0060164 
    6715.89     0.006416 
    6717.26    0.0054136 
    6718.63    0.0049981 
     6720.0    0.0066437 
    6721.37    0.0073285 
    6722.74    0.0065009 
    6724.11    0.0058587 
    6725.48    0.0060249 
    6726.85    0.0062357 
    6728.22    0.0058999 
    6729.59    0.0057011 
    6730.96     0.005777 
    6732.33    0.0052997 
     6733.7    0.0050617 
    6735.07    0.0057175 
    6736.44    0.0063241 
    6737.81    0.0064427 
    6739.18    0.0063633 
    6740.55    0.0060863 
    6741.92    0.0054574 
    6743.29    0.0056392 
    6744.66    0.0058217 
    6746.03    0.0055558 
     6747.4    0.0055731 
    6748.77    0.0059827 
    6750.14    0.0051217 
    6751.51    0.0043898 
    6752.88    0.0055401 
    6754.25     0.006028 
    6755.62    0.0057431 
    6756.99    0.0058785 
    6758.36    0.0051698 
    6759.73    0.0048709 
     6761.1    0.0060219 
    6762.47    0.0061513 
    6763.84    0.0061563 
    6765.21    0.0053057 
    6766.58    0.0044551 
    6767.95    0.0053598 
    6769.32    0.0058391 
    6770.69    0.0052567 
    6772.06    0.0047174 
    6773.43    0.0054398 
     6774.8    0.0062838 
    6776.17    0.0056497 
    6777.54     0.005061 
    6778.91    0.0051573 
    6780.28    0.0056135 
    6781.65    0.0058441 
    6783.02    0.0056577 
    6784.39    0.0053804 
    6785.76    0.0046067 
    6787.13    0.0048781 
     6788.5    0.0053001 
    6789.87    0.0056109 
    6791.24    0.0055457 
    6792.61     0.005517 
    6793.98    0.0058378 
    6795.35    0.0055825 
    6796.72    0.0049873 
    6798.09    0.0051079 
    6799.46    0.0060331 
    6800.83    0.0061102 
     6802.2    0.0055977 
    6803.57      0.00416 
    6804.94     0.004008 
    6806.31    0.0053203 
    6807.68    0.0061298 
    6809.05    0.0057442 
    6810.42    0.0045655 
    6811.79    0.0046576 
    6813.16    0.0056678 
    6814.53    0.0057639 
     6815.9    0.0057807 
    6817.27    0.0050081 
    6818.64    0.0055606 
    6820.01     0.005779 
    6821.38    0.0051337 
    6822.75    0.0059375 
    6824.12    0.0048642 
    6825.49    0.0052969 
    6826.86    0.0068318 
    6828.23    0.0060467 
     6829.6     0.005529 
    6830.97    0.0061886 
    6832.34    0.0059473 
    6833.71    0.0058736 
    6835.08    0.0051897 
    6836.45    0.0043581 
    6837.82    0.0045197 
    6839.19    0.0059612 
    6840.56    0.0067287 
    6841.93    0.0059251 
     6843.3    0.0052094 
    6844.67    0.0052909 
    6846.04    0.0057177 
    6847.41    0.0049623 
    6848.78    0.0054436 
    6850.15    0.0063533 
    6851.52    0.0067121 
    6852.89    0.0061808 
    6854.26     0.006232 
    6855.63    0.0055953 
     6857.0     0.005838 
    6858.37     0.006854 
    6859.74    0.0068488 
    6861.11    0.0063514 
    6862.48     0.006391 
    6863.85    0.0064227 
    6865.22     0.005757 
    6866.59    0.0046236 
    6867.96    0.0038077 
    6869.33    0.0048319 
     6870.7    0.0050414 
    6872.07    0.0058293 
    6873.44    0.0062471 
    6874.81    0.0050071 
    6876.18    0.0053004 
    6877.55    0.0058072 
    6878.92    0.0055039 
    6880.29    0.0060708 
    6881.66    0.0052319 
    6883.03    0.0048984 
     6884.4    0.0067988 
    6885.77    0.0064896 
    6887.14    0.0052198 
    6888.51    0.0057205 
    6889.88    0.0050869 
    6891.25    0.0050133 
    6892.62    0.0058557 
    6893.99    0.0057656 
    6895.36    0.0058437 
    6896.73    0.0063963 
     6898.1    0.0066316 
    6899.47    0.0052986 
    6900.84    0.0046942 
    6902.21    0.0048981 
    6903.58    0.0061287 
    6904.95    0.0059847 
    6906.32    0.0060796 
    6907.69    0.0055015 
    6909.06    0.0054026 
    6910.43    0.0064868 
     6911.8    0.0068472 
    6913.17    0.0066265 
    6914.54    0.0076821 
    6915.91    0.0062331 
    6917.28    0.0059925 
    6918.65    0.0066611 
    6920.02    0.0069098 
    6921.39    0.0061814 
    6922.76    0.0058279 
    6924.13    0.0060065 
     6925.5    0.0065381 
    6926.87    0.0062097 
    6928.24    0.0059371 
    6929.61    0.0062047 
    6930.98    0.0055686 
    6932.35    0.0058023 
    6933.72    0.0053678 
    6935.09    0.0047701 
    6936.46    0.0050852 
    6937.83    0.0050754 
     6939.2    0.0057606 
    6940.57    0.0062288 
    6941.94    0.0056503 
    6943.31    0.0058546 
    6944.68    0.0064049 
    6946.05    0.0065038 
    6947.42    0.0064869 
    6948.79    0.0057124 
    6950.16    0.0049092 
    6951.53    0.0064095 
     6952.9    0.0060362 
    6954.27    0.0057751 
    6955.64    0.0052714 
    6957.01    0.0067251 
    6958.38     0.005421 
    6959.75    0.0059883 
    6961.12    0.0064354 
    6962.49    0.0054763 
    6963.86    0.0061908 
    6965.23     0.005975 
     6966.6    0.0055566 
    6967.97    0.0058155 
    6969.34    0.0062648 
    6970.71    0.0060368 
    6972.08    0.0063879 
    6973.45    0.0065064 
    6974.82     0.006313 
    6976.19    0.0065574 
    6977.56    0.0070471 
    6978.93    0.0074401 
     6980.3    0.0058298 
    6981.67    0.0063514 
    6983.04    0.0062169 
    6984.41    0.0063844 
    6985.78    0.0070722 
    6987.15    0.0056409 
    6988.52    0.0048866 
    6989.89    0.0058833 
    6991.26    0.0064618 
    6992.63     0.006622 
     6994.0    0.0066443 
    6995.37    0.0068407 
    6996.74    0.0058143 
    6998.11    0.0067759 
    6999.48    0.0066038 
    7000.85    0.0063441 
    7002.22    0.0062918 
    7003.59    0.0064831 
    7004.96    0.0061864 
    7006.33     0.006118 
     7007.7    0.0051672 
    7009.07    0.0065961 
    7010.44    0.0069649 
    7011.81    0.0072174 
    7013.18    0.0067374 
    7014.55    0.0067517 
    7015.92    0.0066819 
    7017.29    0.0066315 
    7018.66    0.0060308 
    7020.03    0.0069265 
     7021.4    0.0065161 
    7022.77    0.0062893 
    7024.14    0.0066267 
    7025.51    0.0062771 
    7026.88     0.006361 
    7028.25    0.0067073 
    7029.62    0.0067252 
    7030.99    0.0063684 
    7032.36    0.0063104 
    7033.73    0.0060911 
     7035.1    0.0062971 
    7036.47    0.0069095 
    7037.84    0.0071303 
    7039.21    0.0071057 
    7040.58    0.0071076 
    7041.95    0.0064099 
    7043.32    0.0057969 
    7044.69    0.0060213 
    7046.06    0.0058529 
    7047.43    0.0064868 
     7048.8    0.0074585 
    7050.17    0.0068899 
    7051.54    0.0064984 
    7052.91    0.0066033 
    7054.28    0.0056265 
    7055.65    0.0060136 
    7057.02    0.0069563 
    7058.39    0.0066475 
    7059.76    0.0066802 
    7061.13    0.0067185 
     7062.5    0.0070106 
    7063.87    0.0064921 
    7065.24    0.0059373 
    7066.61    0.0058868 
    7067.98    0.0058913 
    7069.35    0.0053517 
    7070.72    0.0053808 
    7072.09    0.0069772 
    7073.46    0.0072953 
    7074.83    0.0063199 
     7076.2    0.0063178 
    7077.57     0.005711 
    7078.94    0.0057705 
    7080.31     0.006462 
    7081.68    0.0064023 
    7083.05    0.0065469 
    7084.42     0.006168 
    7085.79    0.0071599 
    7087.16    0.0071108 
    7088.53    0.0064463 
     7089.9    0.0071228 
    7091.27    0.0075273 
    7092.64    0.0069841 
    7094.01    0.0078972 
    7095.38     0.007299 
    7096.75    0.0065311 
    7098.12    0.0067048 
    7099.49    0.0069289 
    7100.86    0.0070957 
    7102.23    0.0066748 
     7103.6    0.0065049 
    7104.97    0.0062682 
    7106.34    0.0071939 
    7107.71    0.0074793 
    7109.08    0.0067811 
    7110.45     0.006246 
    7111.82    0.0065111 
    7113.19    0.0067815 
    7114.56     0.006388 
    7115.93    0.0055519 
     7117.3      0.00599 
    7118.67    0.0067723 
    7120.04     0.006532 
    7121.41    0.0070944 
    7122.78    0.0067154 
    7124.15    0.0061357 
    7125.52    0.0070647 
    7126.89    0.0071989 
    7128.26    0.0069437 
    7129.63    0.0061921 
     7131.0    0.0064577 
    7132.37    0.0068581 
    7133.74    0.0072944 
    7135.11    0.0073705 
    7136.48    0.0067837 
    7137.85    0.0067588 
    7139.22    0.0068366 
    7140.59    0.0069007 
    7141.96    0.0070508 
    7143.33    0.0065108 
     7144.7    0.0063499 
    7146.07    0.0071126 
    7147.44    0.0072762 
    7148.81    0.0073271 
    7150.18    0.0074683 
    7151.55    0.0074375 
    7152.92    0.0075694 
    7154.29    0.0068102 
    7155.66    0.0063738 
    7157.03    0.0069107 
     7158.4    0.0073685 
    7159.77    0.0071391 
    7161.14    0.0064913 
    7162.51    0.0064231 
    7163.88    0.0064683 
    7165.25    0.0064892 
    7166.62     0.006498 
    7167.99    0.0060991 
    7169.36    0.0055559 
    7170.73    0.0048902 
     7172.1    0.0043915 
    7173.47     0.004367 
    7174.84    0.0052718 
    7176.21    0.0060362 
    7177.58    0.0068291 
    7178.95    0.0080142 
    7180.32    0.0078985 
    7181.69    0.0072386 
    7183.06     0.006971 
    7184.43    0.0067434 
     7185.8    0.0064406 
    7187.17    0.0057297 
    7188.54    0.0045254 
    7189.91    0.0033154 
    7191.28    0.0031576 
    7192.65    0.0041022 
    7194.02    0.0050138 
    7195.39    0.0056254 
    7196.76    0.0065763 
    7198.13    0.0070387 
     7199.5    0.0067058 
    7200.87     0.007003 
    7202.24    0.0072969 
    7203.61     0.006457 
    7204.98    0.0059073 
    7206.35    0.0059946 
    7207.72    0.0062891 
    7209.09    0.0068176 
    7210.46    0.0070137 
    7211.83    0.0069144 
     7213.2    0.0069053 
    7214.57    0.0064542 
    7215.94    0.0061802 
    7217.31    0.0070864 
    7218.68    0.0069672 
    7220.05    0.0060224 
    7221.42    0.0066534 
    7222.79    0.0068821 
    7224.16    0.0058002 
    7225.53    0.0055927 
     7226.9    0.0063831 
    7228.27    0.0066172 
    7229.64    0.0060282 
    7231.01    0.0063376 
    7232.38    0.0067122 
    7233.75    0.0061377 
    7235.12    0.0057744 
    7236.49    0.0059258 
    7237.86    0.0059365 
    7239.23    0.0060429 
     7240.6    0.0064766 
    7241.97    0.0057424 
    7243.34    0.0062194 
    7244.71    0.0071419 
    7246.08    0.0063376 
    7247.45    0.0059356 
    7248.82    0.0059199 
    7250.19    0.0052111 
    7251.56     0.005634 
    7252.93    0.0059801 
     7254.3    0.0067884 
    7255.67    0.0070405 
    7257.04    0.0064897 
    7258.41    0.0064323 
    7259.78    0.0073404 
    7261.15    0.0071589 
    7262.52    0.0064634 
    7263.89    0.0060514 
    7265.26    0.0060375 
    7266.63    0.0066466 
     7268.0    0.0065843 
    7269.37    0.0070808 
    7270.74    0.0081826 
    7272.11    0.0065876 
    7273.48    0.0062276 
    7274.85    0.0065247 
    7276.22    0.0066046 
    7277.59    0.0078706 
    7278.96    0.0075089 
    7280.33    0.0075146 
     7281.7    0.0064669 
    7283.07    0.0060819 
    7284.44    0.0063584 
    7285.81    0.0057357 
    7287.18    0.0061309 
    7288.55     0.006284 
    7289.92    0.0057912 
    7291.29    0.0059369 
    7292.66    0.0063729 
    7294.03    0.0060301 
     7295.4    0.0059722 
    7296.77    0.0074855 
    7298.14    0.0069101 
    7299.51    0.0062693 
    7300.88    0.0066846 
    7302.25      0.00661 
    7303.62     0.005646 
    7304.99    0.0063406 
    7306.36    0.0060916 
    7307.73    0.0068731 
     7309.1    0.0072259 
    7310.47     0.006972 
    7311.84    0.0067779 
    7313.21    0.0076498 
    7314.58    0.0089855 
    7315.95    0.0071604 
    7317.32     0.005214 
    7318.69    0.0055999 
    7320.06    0.0058755 
    7321.43    0.0064168 
     7322.8    0.0060509 
    7324.17    0.0069978 
    7325.54    0.0073023 
    7326.91    0.0067048 
    7328.28    0.0057396 
    7329.65    0.0059765 
    7331.02    0.0076764 
    7332.39    0.0071801 
    7333.76     0.005755 
    7335.13    0.0060189 
     7336.5    0.0060276 
    7337.87    0.0062788 
    7339.24    0.0079233 
    7340.61    0.0075693 
    7341.98    0.0080311 
    7343.35    0.0081291 
    7344.72    0.0072918 
    7346.09    0.0068661 
    7347.46    0.0064752 
    7348.83    0.0067741 
     7350.2    0.0068897 
    7351.57    0.0061879 
    7352.94    0.0069209 
    7354.31    0.0069858 
    7355.68    0.0069009 
    7357.05    0.0073627 
    7358.42    0.0073543 
    7359.79    0.0070357 
    7361.16    0.0058575 
    7362.53    0.0060298 
     7363.9    0.0067111 
    7365.27    0.0073291 
    7366.64    0.0065552 
    7368.01    0.0068194 
    7369.38    0.0081486 
    7370.75    0.0066594 
    7372.12    0.0067465 
    7373.49     0.007172 
    7374.86    0.0067449 
    7376.23    0.0065285 
     7377.6    0.0068543 
    7378.97    0.0070036 
    7380.34    0.0065468 
    7381.71    0.0062799 
    7383.08    0.0066828 
    7384.45    0.0068342 
    7385.82    0.0065556 
    7387.19    0.0061878 
    7388.56    0.0068078 
    7389.93    0.0064636 
     7391.3    0.0069807 
    7392.67     0.006401 
    7394.04    0.0058004 
    7395.41      0.00651 
    7396.78    0.0073822 
    7398.15    0.0074335 
    7399.52    0.0063064 
    7400.89    0.0071316 
    7402.26     0.007405 
    7403.63    0.0062649 
     7405.0    0.0056928 
    7406.37    0.0060611 
    7407.74    0.0061719 
    7409.11    0.0063497 
    7410.48    0.0071687 
    7411.85     0.007475 
    7413.22    0.0078069 
    7414.59    0.0067924 
    7415.96    0.0067205 
    7417.33    0.0071715 
     7418.7    0.0072105 
    7420.07     0.007208 
    7421.44    0.0067481 
    7422.81    0.0069188 
    7424.18    0.0063382 
    7425.55    0.0071237 
    7426.92     0.007861 
    7428.29    0.0068207 
    7429.66     0.007033 
    7431.03    0.0077099 
     7432.4    0.0075245 
    7433.77    0.0076745 
    7435.14    0.0075926 
    7436.51    0.0070764 
    7437.88     0.007237 
    7439.25    0.0067538 
    7440.62    0.0065261 
    7441.99    0.0074347 
    7443.36    0.0074904 
    7444.73     0.007013 
     7446.1    0.0074022 
    7447.47    0.0073129 
    7448.84    0.0067856 
    7450.21    0.0063628 
    7451.58    0.0073598 
    7452.95    0.0077704 
    7454.32    0.0068478 
    7455.69    0.0063895 
    7457.06     0.006576 
    7458.43    0.0070214 
     7459.8    0.0075204 
    7461.17    0.0071028 
    7462.54    0.0072228 
    7463.91     0.006462 
    7465.28    0.0060623 
    7466.65    0.0071222 
    7468.02    0.0073708 
    7469.39    0.0059158 
    7470.76    0.0055579 
    7472.13     0.006172 
     7473.5    0.0073476 
    7474.87    0.0071083 
    7476.24    0.0070191 
    7477.61    0.0061583 
    7478.98    0.0054769 
    7480.35     0.006572 
    7481.72    0.0061593 
    7483.09     0.006971 
    7484.46    0.0062783 
    7485.83    0.0068915 
     7487.2    0.0069022 
    7488.57    0.0067661 
    7489.94    0.0070787 
    7491.31    0.0069732 
    7492.68    0.0068239 
    7494.05    0.0069818 
    7495.42    0.0070085 
    7496.79    0.0070923 
    7498.16    0.0061951 
    7499.53    0.0064896 
     7500.9    0.0061638 
    7502.27    0.0062399 
    7503.64    0.0063662 
    7505.01    0.0066214 
    7506.38    0.0065801 
    7507.75    0.0069831 
    7509.12    0.0067408 
    7510.49    0.0063261 
    7511.86     0.006114 
    7513.23      0.00637 
     7514.6    0.0064785 
    7515.97    0.0063195 
    7517.34    0.0066013 
    7518.71    0.0067424 
    7520.08    0.0069447 
    7521.45    0.0071087 
    7522.82    0.0074132 
    7524.19    0.0072707 
    7525.56    0.0063443 
    7526.93    0.0070842 
     7528.3    0.0075431 
    7529.67     0.006066 
    7531.04    0.0063772 
    7532.41    0.0060228 
    7533.78     0.006559 
    7535.15     0.007116 
    7536.52    0.0072643 
    7537.89     0.006775 
    7539.26    0.0064653 
    7540.63    0.0061776 
     7542.0    0.0062761 
    7543.37    0.0068015 
    7544.74    0.0068696 
    7546.11    0.0062824 
    7547.48     0.006725 
    7548.85    0.0071393 
    7550.22    0.0069527 
    7551.59    0.0067686 
    7552.96    0.0065814 
    7554.33    0.0068202 
     7555.7    0.0063714 
    7557.07    0.0063076 
    7558.44    0.0070547 
    7559.81    0.0071325 
    7561.18    0.0066754 
    7562.55    0.0062603 
    7563.92    0.0062334 
    7565.29    0.0066955 
    7566.66    0.0065877 
    7568.03    0.0062612 
     7569.4    0.0068589 
    7570.77    0.0071135 
    7572.14    0.0072844 
    7573.51    0.0075171 
    7574.88    0.0064957 
    7576.25    0.0060918 
    7577.62    0.0063317 
    7578.99    0.0062968 
    7580.36    0.0064564 
    7581.73    0.0065563 
     7583.1    0.0064061 
    7584.47    0.0064466 
    7585.84    0.0068736 
    7587.21      0.00661 
    7588.58    0.0057878 
    7589.95    0.0059628 
    7591.32    0.0067216 
    7592.69    0.0071139 
    7594.06    0.0067873 
    7595.43    0.0067246 
     7596.8    0.0064392 
    7598.17    0.0064316 
    7599.54    0.0064241 
    7600.91    0.0064166 
    7602.28     0.006409 
    7603.65    0.0064015 
    7605.02     0.006394 
    7606.39    0.0063864 
    7607.76    0.0063789 
    7609.13    0.0063713 
     7610.5    0.0063638 
    7611.87    0.0063563 
    7613.24    0.0063487 
    7614.61    0.0063412 
    7615.98    0.0063337 
    7617.35    0.0063261 
    7618.72    0.0063186 
    7620.09    0.0063111 
    7621.46    0.0063035 
    7622.83    0.0063035 
     7624.2    0.0065771 
    7625.57    0.0067474 
    7626.94    0.0068877 
    7628.31    0.0067673 
    7629.68    0.0055095 
    7631.05    0.0053162 
    7632.42    0.0067921 
    7633.79     0.006378 
    7635.16    0.0056752 
    7636.53    0.0063244 
     7637.9    0.0065447 
    7639.27    0.0061418 
    7640.64    0.0057301 
    7642.01    0.0051854 
    7643.38    0.0055463 
    7644.75    0.0059139 
    7646.12    0.0061006 
    7647.49    0.0063707 
    7648.86    0.0058071 
    7650.23    0.0060056 
     7651.6    0.0061915 
    7652.97    0.0056071 
    7654.34    0.0057035 
    7655.71    0.0063611 
    7657.08    0.0063679 
    7658.45    0.0055881 
    7659.82    0.0046833 
    7661.19     0.005055 
    7662.56    0.0056302 
    7663.93    0.0054455 
     7665.3    0.0057045 
    7666.67    0.0061821 
    7668.04    0.0061459 
    7669.41    0.0056496 
    7670.78    0.0057573 
    7672.15    0.0057976 
    7673.52    0.0058244 
    7674.89    0.0059551 
    7676.26    0.0059065 
    7677.63    0.0055363 
     7679.0    0.0058037 
    7680.37    0.0061746 
    7681.74    0.0051793 
    7683.11    0.0050704 
    7684.48    0.0055132 
    7685.85    0.0058838 
    7687.22    0.0058081 
    7688.59    0.0058134 
    7689.96    0.0058109 
    7691.33    0.0053739 
     7692.7    0.0053543 
    7694.07    0.0053242 
    7695.44    0.0053857 
    7696.81    0.0053847 
    7698.18    0.0058541 
    7699.55    0.0058266 
    7700.92    0.0054055 
    7702.29     0.005729 
    7703.66    0.0059414 
    7705.03    0.0058301 
     7706.4    0.0057983 
    7707.77     0.005586 
    7709.14    0.0061042 
    7710.51    0.0069099 
    7711.88    0.0058721 
    7713.25    0.0041869 
    7714.62    0.0047365 
    7715.99    0.0050655 
    7717.36    0.0053878 
    7718.73    0.0078654 
     7720.1    0.0063583 
    7721.47       0.0042 
    7722.84    0.0050631 
    7724.21    0.0051854 
    7725.58    0.0051327 
    7726.95    0.0053848 
    7728.32    0.0060186 
    7729.69    0.0056413 
    7731.06     0.005647 
    7732.43     0.005512 
     7733.8    0.0056928 
    7735.17     0.005952 
    7736.54      0.00547 
    7737.91     0.005339 
    7739.28    0.0056576 
    7740.65    0.0055542 
    7742.02    0.0052667 
    7743.39    0.0053067 
    7744.76    0.0054741 
    7746.13    0.0048671 
     7747.5    0.0044637 
    7748.87    0.0047223 
    7750.24    0.0047817 
    7751.61    0.0060304 
    7752.98     0.005817 
    7754.35    0.0051924 
    7755.72    0.0051334 
    7757.09    0.0055634 
    7758.46    0.0061641 
    7759.83    0.0053228 
     7761.2    0.0056182 
    7762.57    0.0060181 
    7763.94     0.004997 
    7765.31    0.0051109 
    7766.68    0.0056526 
    7768.05     0.006117 
    7769.42    0.0058864 
    7770.79    0.0051741 
    7772.16    0.0053062 
    7773.53    0.0047424 
     7774.9    0.0050142 
    7776.27    0.0054949 
    7777.64    0.0051223 
    7779.01    0.0057059 
    7780.38     0.005289 
    7781.75    0.0049827 
    7783.12    0.0048066 
    7784.49    0.0053661 
    7785.86    0.0054978 
    7787.23    0.0055776 
     7788.6    0.0049486 
    7789.97    0.0044523 
    7791.34    0.0048202 
    7792.71    0.0050975 
    7794.08    0.0066753 
    7795.45    0.0075122 
    7796.82    0.0059815 
    7798.19    0.0054564 
    7799.56    0.0061894 
    7800.93    0.0056632 
     7802.3    0.0050018 
    7803.67    0.0059403 
    7805.04    0.0061479 
    7806.41    0.0060156 
    7807.78    0.0053212 
    7809.15    0.0042781 
    7810.52    0.0053747 
    7811.89    0.0058325 
    7813.26    0.0050026 
    7814.63    0.0050629 
     7816.0    0.0055693 
    7817.37     0.005578 
    7818.74    0.0053362 
    7820.11    0.0054249 
    7821.48    0.0058944 
    7822.85    0.0053916 
    7824.22    0.0051133 
    7825.59     0.004818 
    7826.96    0.0047378 
    7828.33    0.0059969 
     7829.7    0.0058766 
    7831.07    0.0052142 
    7832.44     0.005013 
    7833.81    0.0051109 
    7835.18    0.0059652 
    7836.55    0.0055824 
    7837.92    0.0050975 
    7839.29    0.0049532 
    7840.66    0.0050684 
    7842.03     0.005942 
     7843.4     0.006245 
    7844.77    0.0055154 
    7846.14    0.0042252 
    7847.51    0.0053016 
    7848.88    0.0052755 
    7850.25    0.0049193 
    7851.62    0.0054443 
    7852.99    0.0068945 
    7854.36    0.0059925 
    7855.73    0.0058692 
     7857.1    0.0055304 
    7858.47    0.0051095 
    7859.84    0.0050028 
    7861.21     0.005162 
    7862.58    0.0046843 
    7863.95    0.0050205 
    7865.32    0.0054617 
    7866.69    0.0060392 
    7868.06    0.0047116 
    7869.43    0.0065255 
     7870.8    0.0073844 
    7872.17    0.0053765 
    7873.54    0.0054174 
    7874.91    0.0039689 
    7876.28    0.0047244 
    7877.65    0.0051625 
    7879.02    0.0053046 
    7880.39    0.0059081 
    7881.76    0.0052131 
    7883.13    0.0044988 
     7884.5    0.0046927 
    7885.87    0.0042414 
    7887.24    0.0057387 
    7888.61    0.0067319 
    7889.98    0.0056045 
    7891.35    0.0065412 
    7892.72    0.0060534 
    7894.09    0.0051976 
    7895.46    0.0047838 
    7896.83    0.0049429 
     7898.2    0.0055072 
    7899.57    0.0052918 
    7900.94    0.0053063 
    7902.31     0.005186 
    7903.68    0.0050935 
    7905.05    0.0053771 
    7906.42    0.0050803 
    7907.79    0.0049987 
    7909.16    0.0050398 
    7910.53    0.0061583 
     7911.9    0.0054238 
    7913.27    0.0056155 
    7914.64    0.0060267 
    7916.01    0.0062095 
    7917.38    0.0050008 
    7918.75    0.0043465 
    7920.12    0.0047867 
    7921.49    0.0057523 
    7922.86    0.0062119 
    7924.23    0.0062634 
     7925.6    0.0056112 
    7926.97    0.0050811 
    7928.34    0.0052682 
    7929.71    0.0052201 
    7931.08    0.0044457 
    7932.45      0.00452 
    7933.82    0.0045227 
    7935.19    0.0044174 
    7936.56    0.0050694 
    7937.93    0.0054077 
     7939.3    0.0043668 
    7940.67    0.0036568 
    7942.04    0.0048758 
    7943.41    0.0055948 
    7944.78    0.0054207 
    7946.15    0.0048263 
    7947.52    0.0046856 
    7948.89    0.0050664 
    7950.26     0.004821 
    7951.63    0.0051471 
     7953.0    0.0053222 
    7954.37     0.004936 
    7955.74    0.0052053 
    7957.11    0.0058976 
    7958.48    0.0052829 
    7959.85    0.0048166 
    7961.22    0.0043541 
    7962.59    0.0046028 
    7963.96     0.006276 
    7965.33    0.0055566 
     7966.7    0.0037078 
    7968.07    0.0038259 
    7969.44    0.0046198 
    7970.81    0.0050078 
    7972.18    0.0051556 
    7973.55    0.0049371 
    7974.92    0.0049945 
    7976.29    0.0056543 
    7977.66    0.0057473 
    7979.03    0.0054524 
     7980.4    0.0055864 
    7981.77    0.0050658 
    7983.14    0.0044281 
    7984.51    0.0051171 
    7985.88    0.0047355 
    7987.25     0.005088 
    7988.62    0.0060606 
    7989.99    0.0053239 
    7991.36    0.0044087 
    7992.73     0.004917 
     7994.1    0.0048889 
    7995.47    0.0046396 
    7996.84    0.0053675 
    7998.21    0.0051867 
    7999.58      0.00511 
    8000.95    0.0054183 
    8002.32    0.0049982 
    8003.69    0.0049874 
    8005.06     0.004677 
    8006.43    0.0046758 
     8007.8    0.0054191 
    8009.17    0.0054134 
    8010.54    0.0048563 
    8011.91    0.0051586 
    8013.28    0.0059522 
    8014.65    0.0056038 
    8016.02    0.0058502 
    8017.39    0.0061021 
    8018.76    0.0057364 
    8020.13    0.0049699 
     8021.5    0.0044334 
    8022.87    0.0049432 
    8024.24    0.0059029 
    8025.61    0.0058504 
    8026.98    0.0054096 
    8028.35    0.0049987 
    8029.72    0.0044891 
    8031.09    0.0043875 
    8032.46    0.0048654 
    8033.83    0.0052085 
     8035.2    0.0051596 
    8036.57    0.0048478 
    8037.94    0.0048421 
    8039.31    0.0048435 
    8040.68     0.004756 
    8042.05    0.0054894 
    8043.42    0.0057797 
    8044.79    0.0051149 
    8046.16    0.0046133 
    8047.53    0.0045226 
     8048.9    0.0051929 
    8050.27    0.0054622 
    8051.64    0.0054544 
    8053.01    0.0053509 
    8054.38    0.0049352 
    8055.75    0.0051826 
    8057.12     0.005338 
    8058.49    0.0054044 
    8059.86     0.005298 
    8061.23     0.004689 
     8062.6    0.0050335 
    8063.97    0.0054426 
    8065.34    0.0039017 
    8066.71    0.0039124 
    8068.08    0.0046672 
    8069.45    0.0045903 
    8070.82    0.0048002 
    8072.19    0.0048582 
    8073.56    0.0049067 
    8074.93    0.0049253 
     8076.3    0.0047668 
    8077.67    0.0049127 
    8079.04    0.0053771 
    8080.41    0.0051321 
    8081.78    0.0050645 
    8083.15    0.0051392 
    8084.52    0.0055848 
    8085.89    0.0059064 
    8087.26    0.0054025 
    8088.63    0.0044555 
     8090.0    0.0044015 
    8091.37    0.0051183 
    8092.74    0.0049203 
    8094.11    0.0046259 
    8095.48    0.0048497 
    8096.85    0.0049439 
    8098.22    0.0051749 
    8099.59    0.0048428 
    8100.96    0.0042451 
    8102.33    0.0045347 
     8103.7    0.0050133 
    8105.07    0.0054194 
    8106.44    0.0055983 
    8107.81    0.0051383 
    8109.18    0.0047788 
    8110.55     0.004963 
    8111.92    0.0051532 
    8113.29    0.0051968 
    8114.66    0.0048441 
    8116.03    0.0051858 
     8117.4    0.0054347 
    8118.77    0.0047049 
    8120.14    0.0049169 
    8121.51    0.0053292 
    8122.88     0.004918 
    8124.25    0.0046026 
    8125.62    0.0053471 
    8126.99    0.0057913 
    8128.36    0.0050216 
    8129.73    0.0046642 
     8131.1     0.005032 
    8132.47    0.0049219 
    8133.84    0.0048438 
    8135.21    0.0049322 
    8136.58    0.0043141 
    8137.95    0.0046491 
    8139.32    0.0052885 
    8140.69    0.0048324 
    8142.06    0.0043714 
    8143.43    0.0041202 
     8144.8    0.0045149 
    8146.17    0.0047793 
    8147.54    0.0046061 
    8148.91    0.0040984 
    8150.28    0.0039355 
    8151.65    0.0047668 
    8153.02    0.0048987 
    8154.39    0.0045554 
    8155.76    0.0047241 
    8157.13    0.0046379 
     8158.5      0.00466 
    8159.87    0.0043707 
    8161.24    0.0044068 
    8162.61    0.0048717 
    8163.98    0.0046467 
    8165.35    0.0042944 
    8166.72    0.0047256 
    8168.09    0.0052637 
    8169.46    0.0046986 
    8170.83    0.0044634 
     8172.2    0.0046187 
    8173.57    0.0047469 
    8174.94    0.0044549 
    8176.31    0.0034255 
    8177.68    0.0038714 
    8179.05    0.0049327 
    8180.42    0.0051734 
    8181.79    0.0054921 
    8183.16     0.004939 
    8184.53    0.0044827 
     8185.9    0.0051234 
    8187.27    0.0053079 
    8188.64    0.0046128 
    8190.01    0.0038934 
    8191.38    0.0040773 
    8192.75    0.0049178 
    8194.12    0.0049186 
    8195.49    0.0044915 
    8196.86    0.0042117 
    8198.23    0.0039047 
     8199.6    0.0046564 
    8200.97    0.0049981 
    8202.34    0.0048764 
    8203.71    0.0045599 
    8205.08    0.0047472 
    8206.45    0.0051237 
    8207.82    0.0051152 
    8209.19    0.0052007 
    8210.56    0.0050189 
    8211.93    0.0046028 
     8213.3    0.0046675 
    8214.67    0.0048049 
    8216.04    0.0047535 
    8217.41    0.0044713 
    8218.78    0.0047589 
    8220.15    0.0049943 
    8221.52    0.0044551 
    8222.89    0.0042961 
    8224.26    0.0040008 
    8225.63    0.0040846 
     8227.0    0.0043234 
    8228.37    0.0043391 
    8229.74    0.0043729 
    8231.11    0.0039904 
    8232.48    0.0041948 
    8233.85    0.0043782 
    8235.22    0.0049486 
    8236.59    0.0041035 
    8237.96    0.0043634 
    8239.33    0.0042964 
     8240.7    0.0046412 
    8242.07     0.004755 
    8243.44    0.0045067 
    8244.81    0.0042863 
    8246.18    0.0042996 
    8247.55    0.0042218 
    8248.92     0.004672 
    8250.29    0.0050966 
    8251.66    0.0048934 
    8253.03    0.0048692 
     8254.4     0.004787 
    8255.77    0.0042776 
    8257.14    0.0045537 
    8258.51      0.00495 
    8259.88     0.004303 
    8261.25    0.0046468 
    8262.62    0.0048714 
    8263.99    0.0042193 
    8265.36    0.0044875 
    8266.73    0.0048982 
     8268.1    0.0048521 
    8269.47    0.0047511 
    8270.84    0.0045306 
    8272.21     0.005259 
    8273.58    0.0044202 
    8274.95    0.0041115 
    8276.32     0.005188 
    8277.69    0.0052639 
    8279.06    0.0056717 
    8280.43    0.0060497 
     8281.8    0.0035651 
    8283.17    0.0038747 
    8284.54    0.0060788 
    8285.91    0.0054179 
    8287.28    0.0046116 
    8288.65    0.0045765 
    8290.02    0.0040943 
    8291.39     0.004204 
    8292.76    0.0049615 
    8294.13    0.0047654 
     8295.5     0.003506 
    8296.87      0.00313 
    8298.24    0.0041227 
    8299.61    0.0047151 
    8300.98    0.0056739 
    8302.35    0.0062424 
    8303.72    0.0054881 
    8305.09    0.0046872 
    8306.46    0.0048977 
    8307.83    0.0056147 
     8309.2    0.0052054 
    8310.57    0.0049021 
    8311.94    0.0053736 
    8313.31    0.0050024 
    8314.68    0.0045857 
    8316.05    0.0048607 
    8317.42    0.0047616 
    8318.79    0.0052101 
    8320.16    0.0051116 
    8321.53    0.0046266 
     8322.9    0.0051926 
    8324.27    0.0051782 
    8325.64    0.0048221 
    8327.01    0.0049204 
    8328.38     0.005074 
    8329.75    0.0046335 
    8331.12    0.0048235 
    8332.49    0.0045979 
    8333.86    0.0051269 
    8335.23    0.0048187 
     8336.6    0.0045207 
    8337.97    0.0046505 
    8339.34    0.0044041 
    8340.71    0.0035307 
    8342.08    0.0021142 
    8343.45    0.0020921 
    8344.82    0.0049746 
    8346.19    0.0063119 
    8347.56      0.00391 
    8348.93     0.003457 
     8350.3    0.0049277 
    8351.67    0.0049649 
    8353.04    0.0052751 
    8354.41    0.0059252 
    8355.78    0.0056784 
    8357.15    0.0055739 
    8358.52     0.005361 
    8359.89    0.0046051 
    8361.26    0.0051349 
    8362.63    0.0054806 
     8364.0    0.0058991 
    8365.37     0.005259 
    8366.74    0.0052916 
    8368.11    0.0048924 
    8369.48    0.0047947 
    8370.85    0.0045983 
    8372.22    0.0051374 
    8373.59    0.0052539 
    8374.96    0.0053169 
    8376.33    0.0051031 
     8377.7    0.0048085 
    8379.07    0.0053057 
    8380.44    0.0049154 
    8381.81    0.0042756 
    8383.18    0.0053082 
    8384.55    0.0058629 
    8385.92    0.0050508 
    8387.29    0.0045406 
    8388.66    0.0049882 
    8390.03    0.0054203 
     8391.4    0.0049471 
    8392.77    0.0046645 
    8394.14     0.005231 
    8395.51    0.0067428 
    8396.88    0.0075459 
    8398.25    0.0061717 
    8399.62     0.005437 
    8400.99    0.0054493 
    8402.36    0.0047116 
    8403.73    0.0048392 
     8405.1    0.0047731 
    8406.47    0.0053291 
    8407.84     0.005587 
    8409.21      0.00522 
    8410.58    0.0054754 
    8411.95    0.0052842 
    8413.32    0.0043888 
    8414.69    0.0048788 
    8416.06     0.004631 
    8417.43    0.0047612 
     8418.8    0.0056018 
    8420.17    0.0055417 
    8421.54    0.0048019 
    8422.91    0.0045398 
    8424.28    0.0048164 
    8425.65    0.0051508 
    8427.02    0.0057111 
    8428.39    0.0052787 
    8429.76    0.0056198 
    8431.13    0.0047892 
     8432.5    0.0036776 
    8433.87    0.0041132 
    8435.24    0.0040434 
    8436.61    0.0050203 
    8437.98    0.0051963 
    8439.35    0.0051019 
    8440.72    0.0057307 
    8442.09     0.005352 
    8443.46    0.0051265 
    8444.83    0.0050127 
     8446.2    0.0050443 
    8447.57    0.0051961 
    8448.94     0.004995 
    8450.31    0.0045128 
    8451.68     0.004971 
    8453.05    0.0055177 
    8454.42    0.0055076 
    8455.79    0.0053082 
    8457.16    0.0050749 
    8458.53    0.0053535 
     8459.9    0.0053223 
    8461.27     0.004697 
    8462.64    0.0045892 
    8464.01    0.0046478 
    8465.38    0.0042777 
    8466.75    0.0051013 
    8468.12    0.0052488 
    8469.49    0.0046838 
    8470.86    0.0048303 
    8472.23     0.004713 
     8473.6    0.0050061 
    8474.97     0.004825 
    8476.34    0.0045033 
    8477.71    0.0050994 
    8479.08    0.0051762 
    8480.45    0.0044872 
    8481.82    0.0048367 
    8483.19    0.0049343 
    8484.56    0.0052354 
    8485.93    0.0056754 
     8487.3    0.0051813 
    8488.67    0.0056348 
    8490.04    0.0059478 
    8491.41    0.0051858 
    8492.78    0.0053971 
    8494.15    0.0062116 
    8495.52    0.0059844 
    8496.89    0.0053977 
    8498.26    0.0048298 
    8499.63    0.0048802 
     8501.0    0.0068762 
    8502.37    0.0070146 
    8503.74    0.0053085 
    8505.11    0.0060245 
    8506.48    0.0059911 
    8507.85    0.0052156 
    8509.22    0.0045909 
    8510.59    0.0044326 
    8511.96    0.0052652 
    8513.33    0.0052711 
     8514.7    0.0048658 
    8516.07    0.0049324 
    8517.44    0.0053397 
    8518.81    0.0050987 
    8520.18    0.0044962 
    8521.55    0.0049076 
    8522.92    0.0048924 
    8524.29    0.0052827 
    8525.66    0.0052112 
    8527.03    0.0047571 
     8528.4    0.0052224 
    8529.77    0.0051965 
    8531.14    0.0048506 
    8532.51    0.0048537 
    8533.88    0.0045458 
    8535.25    0.0047153 
    8536.62    0.0050926 
    8537.99    0.0048035 
    8539.36    0.0053108 
    8540.73    0.0056344 
     8542.1    0.0049529 
    8543.47     0.004811 
    8544.84    0.0054036 
    8546.21    0.0052891 
    8547.58    0.0050054 
    8548.95    0.0051551 
    8550.32     0.005383 
    8551.69    0.0060359 
    8553.06    0.0058828 
    8554.43    0.0054148 
     8555.8    0.0048611 
    8557.17    0.0047877 
    8558.54    0.0048974 
    8559.91    0.0050337 
    8561.28    0.0052079 
    8562.65    0.0048326 
    8564.02    0.0053661 
    8565.39    0.0050523 
    8566.76    0.0046585 
    8568.13    0.0047975 
     8569.5    0.0047256 
    8570.87    0.0050795 
    8572.24    0.0049911 
    8573.61    0.0055166 
    8574.98    0.0047716 
    8576.35    0.0043163 
    8577.72    0.0048827 
    8579.09    0.0048807 
    8580.46    0.0048536 
    8581.83    0.0047203 
     8583.2    0.0052521 
    8584.57     0.005379 
    8585.94    0.0049062 
    8587.31    0.0050181 
    8588.68    0.0052014 
    8590.05    0.0053831 
    8591.42    0.0048564 
    8592.79    0.0048752 
    8594.16    0.0052187 
    8595.53    0.0047306 
     8596.9    0.0051077 
    8598.27    0.0053554 
    8599.64     0.004728 
    8601.01    0.0043016 
    8602.38    0.0046725 
    8603.75     0.004931 
    8605.12    0.0049553 
    8606.49    0.0055183 
    8607.86    0.0054432 
    8609.23    0.0049598 
     8610.6    0.0047719 
    8611.97    0.0045641 
    8613.34    0.0042392 
    8614.71    0.0042601 
    8616.08    0.0045537 
    8617.45    0.0039174 
    8618.82    0.0039404 
    8620.19    0.0046249 
    8621.56      0.00567 
    8622.93    0.0057349 
     8624.3    0.0053612 
    8625.67    0.0058716 
    8627.04    0.0042097 
    8628.41    0.0028995 
    8629.78     0.003594 
    8631.15     0.005382 
    8632.52    0.0048072 
    8633.89    0.0052796 
    8635.26    0.0065944 
    8636.63    0.0046418 
     8638.0    0.0044485 
    8639.37    0.0056254 
    8640.74    0.0055863 
    8642.11    0.0049754 
    8643.48    0.0051788 
    8644.85    0.0059263 
    8646.22    0.0050409 
    8647.59    0.0044617 
    8648.96    0.0046909 
    8650.33    0.0039785 
     8651.7    0.0050656 
    8653.07    0.0059019 
    8654.44    0.0053798 
    8655.81    0.0052484 
    8657.18     0.005021 
    8658.55    0.0050957 
    8659.92    0.0042489 
    8661.29    0.0045247 
    8662.66    0.0058603 
    8664.03    0.0053888 
     8665.4    0.0036995 
    8666.77    0.0049266 
    8668.14    0.0061263 
    8669.51    0.0045325 
    8670.88    0.0043061 
    8672.25     0.004403 
    8673.62    0.0048481 
    8674.99    0.0055639 
    8676.36    0.0043401 
    8677.73    0.0045305 
     8679.1    0.0049493 
    8680.47    0.0047502 
    8681.84    0.0050863 
    8683.21       0.0044 
    8684.58    0.0048462 
    8685.95    0.0052301 
    8687.32    0.0047219 
    8688.69    0.0048095 
    8690.06    0.0051829 
    8691.43    0.0050078 
     8692.8    0.0047693 
    8694.17    0.0054581 
    8695.54    0.0051241 
    8696.91    0.0037786 
    8698.28    0.0048446 
    8699.65     0.004365 
    8701.02    0.0047889 
    8702.39    0.0051128 
    8703.76    0.0055925 
    8705.13    0.0045503 
     8706.5    0.0043598 
    8707.87    0.0042286 
    8709.24    0.0044545 
    8710.61    0.0045461 
    8711.98    0.0044895 
    8713.35     0.004234 
    8714.72    0.0045442 
    8716.09    0.0048185 
    8717.46    0.0043185 
    8718.83    0.0046759 
     8720.2    0.0048999 
    8721.57    0.0046123 
    8722.94    0.0048515 
    8724.31    0.0047906 
    8725.68    0.0043792 
    8727.05    0.0043465 
    8728.42    0.0045162 
    8729.79    0.0043059 
    8731.16    0.0041744 
    8732.53    0.0044325 
     8733.9    0.0044135 
    8735.27     0.004484 
    8736.64    0.0045391 
    8738.01    0.0050215 
    8739.38    0.0045581 
    8740.75    0.0049681 
    8742.12    0.0049708 
    8743.49    0.0051374 
    8744.86    0.0051458 
    8746.23    0.0047938 
     8747.6    0.0047581 
    8748.97    0.0044938 
    8750.34    0.0049175 
    8751.71    0.0048363 
    8753.08    0.0046142 
    8754.45    0.0044503 
    8755.82     0.004606 
    8757.19    0.0040374 
    8758.56    0.0026858 
    8759.93     0.003678 
     8761.3    0.0048781 
    8762.67    0.0056531 
    8764.04    0.0052719 
    8765.41    0.0015571 
    8766.78    0.0032272 
    8768.15    0.0053579 
    8769.52    0.0048226 
    8770.89    0.0037231 
    8772.26    0.0027273 
    8773.63    0.0049504 
     8775.0    0.0029476 
    8776.37    0.0028213 
    8777.74    0.0048113 
    8779.11    0.0040981 
    8780.48    0.0037797 
    8781.85    0.0049441 
    8783.22    0.0040476 
    8784.59    0.0037669 
    8785.96    0.0042951 
    8787.33    0.0036769 
     8788.7    0.0036433 
    8790.07    0.0034174 
    8791.44    0.0036918 
    8792.81    0.0035413 
    8794.18    0.0033784 
    8795.55    0.0038991 
    8796.92     0.004563 
    8798.29    0.0047811 
    8799.66    0.0045494 
    8801.03    0.0043419 
     8802.4    0.0046144 
    8803.77    0.0045042 
    8805.14    0.0043094 
    8806.51     0.004968 
    8807.88    0.0047937 
    8809.25    0.0042511 
    8810.62    0.0037785 
    8811.99    0.0040439 
    8813.36    0.0046299 
    8814.73    0.0042226 
     8816.1    0.0042167 
    8817.47    0.0044463 
    8818.84    0.0042467 
    8820.21     0.003811 
    8821.58    0.0036075 
    8822.95    0.0049787 
    8824.32    0.0054749 
    8825.69    0.0049154 
    8827.06    0.0054268 
    8828.43    0.0055506 
     8829.8    0.0058474 
    8831.17    0.0051947 
    8832.54    0.0053772 
    8833.91    0.0053427 
    8835.28     0.003791 
    8836.65    0.0030383 
    8838.02    0.0039657 
    8839.39    0.0038086 
    8840.76     0.003973 
    8842.13    0.0039104 
     8843.5    0.0036859 
    8844.87    0.0042054 
    8846.24    0.0053483 
    8847.61    0.0051554 
    8848.98    0.0041534 
    8850.35    0.0040194 
    8851.72    0.0050532 
    8853.09    0.0050056 
    8854.46    0.0042709 
    8855.83    0.0050116 
     8857.2    0.0042896 
    8858.57    0.0036776 
    8859.94    0.0045631 
    8861.31    0.0048015 
    8862.68    0.0035861 
    8864.05    0.0038989 
    8865.42     0.005258 
    8866.79    0.0049019 
    8868.16    0.0052699 
    8869.53    0.0053851 
     8870.9    0.0042062 
    8872.27    0.0037169 
    8873.64    0.0042343 
    8875.01    0.0047192 
    8876.38    0.0050648 
    8877.75    0.0052542 
    8879.12    0.0045065 
    8880.49     0.004229 
    8881.86    0.0044351 
    8883.23    0.0040493 
     8884.6    0.0045584 
    8885.97    0.0058423 
    8887.34     0.004997 
    8888.71    0.0023177 
    8890.08    0.0033118 
    8891.45    0.0050139 
    8892.82    0.0043733 
    8894.19    0.0043129 
    8895.56    0.0040858 
    8896.93    0.0045096 
     8898.3    0.0042232 
    8899.67    0.0044573 
    8901.04    0.0047751 
    8902.41     0.004682 
    8903.78      0.00491 
    8905.15    0.0040028 
    8906.52    0.0041082 
    8907.89    0.0039813 
    8909.26    0.0036429 
    8910.63    0.0040457 
     8912.0    0.0040514 
    8913.37    0.0046602 
    8914.74    0.0060631 
    8916.11    0.0044581 
    8917.48    0.0014129 
    8918.85    0.0010857 
    8920.22    0.0021478 
    8921.59    0.0028892 
    8922.96    0.0025978 
    8924.33    0.0035492 
     8925.7    0.0051286 
    8927.07    0.0048538 
    8928.44    0.0044547 
    8929.81    0.0049003 
    8931.18    0.0046471 
    8932.55    0.0044547 
    8933.92    0.0043672 
    8935.29    0.0041729 
    8936.66    0.0040111 
    8938.03    0.0049421 
     8939.4    0.0060448 
    8940.77    0.0054685 
    8942.14    0.0044892 
    8943.51    0.0048936 
    8944.88    0.0049129 
    8946.25    0.0041754 
    8947.62    0.0045633 
    8948.99    0.0044945 
    8950.36    0.0038228 
    8951.73    0.0041326 
     8953.1    0.0051405 
    8954.47    0.0040916 
    8955.84    0.0031843 
    8957.21    0.0039073 
    8958.58    0.0035779 
    8959.95    0.0057208 
    8961.32    0.0056952 
    8962.69    0.0045891 
    8964.06    0.0039704 
    8965.43     0.003203 
     8966.8    0.0039411 
    8968.17    0.0041967 
    8969.54    0.0045731 
    8970.91    0.0043466 
    8972.28    0.0039192 
    8973.65    0.0038916 
    8975.02    0.0040335 
    8976.39    0.0043978 
    8977.76    0.0042663 
    8979.13     0.004296 
     8980.5    0.0045371 
    8981.87    0.0044033 
    8983.24    0.0050226 
    8984.61    0.0036478 
    8985.98    0.0031052 
    8987.35    0.0039126 
    8988.72    0.0019052 
    8990.09    0.0019251 
    8991.46    0.0034942 
    8992.83    0.0039229 
     8994.2    0.0037221 
    8995.57    0.0047998 
    8996.94    0.0054335 
    8998.31    0.0043649 
    8999.68    0.0028243 
    9001.05    0.0017947 
    9002.42    0.0024638 
    9003.79    0.0037363 
    9005.16     0.003264 
    9006.53    0.0034322 
     9007.9    0.0039657 
    9009.27    0.0043558 
    9010.64    0.0039696 
    9012.01    0.0035301 
    9013.38    0.0047952 
    9014.75    0.0052565 
    9016.12    0.0047735 
    9017.49     0.004881 
    9018.86    0.0048863 
    9020.23    0.0047834 
     9021.6    0.0042771 
    9022.97    0.0039922 
    9024.34    0.0044891 
    9025.71    0.0041389 
    9027.08    0.0040122 
    9028.45    0.0042086 
    9029.82    0.0043249 
    9031.19    0.0035768 
    9032.56    0.0030072 
    9033.93    0.0039947 
     9035.3    0.0042334 
    9036.67    0.0051123 
    9038.04    0.0057068 
    9039.41    0.0052032 
    9040.78    0.0048144 
    9042.15    0.0048594 
    9043.52    0.0035643 
    9044.89    0.0033979 
    9046.26    0.0045481 
    9047.63    0.0046449 
