# STATUS =
# OBJECT = 2018hti
# TELESCOPE = WHT
# INSTRUMENT = ISIS
# DATE-OBS = 2018-12-31 00:00:00.000
# MJD = 58483.0
# EXPTIME =
# AIRMASS =
# SLIT =
# DISPERSER =
# SOURCE = DOI 10.3847/1538-4357/aca161
# FILTER =
# RESOLUTION =
# FLUX_STANDARD =
# EXTINCTION_CORRECTED =
# PHOTOMETRY_CALIBRATED =
# TELLURIC_CORRECTED =
# FLUX_UNITS =
# WAVE_UNITS =
# QUALITY =
# MIN_WAVE = 3400.0
# MAX_WAVE = 8400.0
# COMMENT =
 Wavelength        Flux 
     3402.0  4.3011e-15 
     3404.0  4.2491e-15 
     3406.0  5.2177e-15 
     3408.0  4.4708e-15 
     3410.0  4.7332e-15 
     3412.0  4.2497e-15 
     3414.0  4.5011e-15 
     3416.0   4.717e-15 
     3418.0  4.8016e-15 
     3420.0  4.3844e-15 
     3422.0  4.1366e-15 
     3424.0  4.8067e-15 
     3426.0  4.0664e-15 
     3428.0  4.8008e-15 
     3430.0  4.1777e-15 
     3432.0  4.3132e-15 
     3434.0  4.0645e-15 
     3436.0  4.3264e-15 
     3438.0  3.9676e-15 
     3440.0  4.4791e-15 
     3442.0  4.1073e-15 
     3444.0  4.3001e-15 
     3446.0  4.2194e-15 
     3448.0  4.3626e-15 
     3450.0  3.9569e-15 
     3452.0  4.2403e-15 
     3454.0  4.0426e-15 
     3456.0  4.1318e-15 
     3458.0  4.5103e-15 
     3460.0  4.3809e-15 
     3462.0  4.4398e-15 
     3464.0   4.173e-15 
     3466.0  4.3944e-15 
     3468.0  4.2289e-15 
     3470.0  4.6884e-15 
     3472.0  4.6358e-15 
     3474.0  4.3909e-15 
     3476.0  4.8732e-15 
     3478.0  4.7405e-15 
     3480.0  4.5279e-15 
     3482.0  4.5043e-15 
     3484.0  4.3605e-15 
     3486.0  4.2691e-15 
     3488.0  4.3254e-15 
     3490.0  4.3551e-15 
     3492.0  4.1478e-15 
     3494.0  4.3024e-15 
     3496.0  4.3315e-15 
     3498.0  4.9419e-15 
     3500.0  4.2859e-15 
     3502.0  4.2785e-15 
     3504.0  3.8177e-15 
     3506.0  3.9823e-15 
     3508.0   4.466e-15 
     3510.0  4.0635e-15 
     3512.0  4.2009e-15 
     3514.0   4.293e-15 
     3516.0  4.0859e-15 
     3518.0  4.4258e-15 
     3520.0  4.3372e-15 
     3522.0  4.4246e-15 
     3524.0  4.2166e-15 
     3526.0  4.2979e-15 
     3528.0  4.2872e-15 
     3530.0  3.8513e-15 
     3532.0  4.4621e-15 
     3534.0  4.5098e-15 
     3536.0  4.4819e-15 
     3538.0  4.1619e-15 
     3540.0  4.2509e-15 
     3542.0  4.2855e-15 
     3544.0  4.7601e-15 
     3546.0  4.1077e-15 
     3548.0  4.3691e-15 
     3550.0  4.2546e-15 
     3552.0  4.1636e-15 
     3554.0  4.4709e-15 
     3556.0  4.8621e-15 
     3558.0  4.3206e-15 
     3560.0  4.3287e-15 
     3562.0  4.1767e-15 
     3564.0   3.865e-15 
     3566.0   4.228e-15 
     3568.0  4.0663e-15 
     3570.0   4.232e-15 
     3572.0  4.4904e-15 
     3574.0   4.615e-15 
     3576.0  4.3916e-15 
     3578.0  4.1846e-15 
     3580.0  4.6086e-15 
     3582.0  4.1003e-15 
     3584.0  4.2033e-15 
     3586.0  4.6271e-15 
     3588.0  4.4736e-15 
     3590.0  4.2512e-15 
     3592.0  4.4557e-15 
     3594.0  4.4972e-15 
     3596.0   4.321e-15 
     3598.0  4.6696e-15 
     3600.0  4.5855e-15 
     3602.0  4.4803e-15 
     3604.0  4.0718e-15 
     3606.0  4.1259e-15 
     3608.0  4.1052e-15 
     3610.0  4.8028e-15 
     3612.0   4.434e-15 
     3614.0  4.4487e-15 
     3616.0  4.0334e-15 
     3618.0   3.748e-15 
     3620.0   4.319e-15 
     3622.0  4.3783e-15 
     3624.0  4.2075e-15 
     3626.0  3.9769e-15 
     3628.0  4.5853e-15 
     3630.0  4.7183e-15 
     3632.0  4.0445e-15 
     3634.0   4.434e-15 
     3636.0  4.7582e-15 
     3638.0  4.5097e-15 
     3640.0  4.6039e-15 
     3642.0  4.2075e-15 
     3644.0  4.1152e-15 
     3646.0   4.409e-15 
     3648.0  4.7877e-15 
     3650.0  4.5151e-15 
     3652.0   4.451e-15 
     3654.0   4.348e-15 
     3656.0  4.2089e-15 
     3658.0  4.3656e-15 
     3660.0  4.4975e-15 
     3662.0  4.1994e-15 
     3664.0  3.9824e-15 
     3666.0  4.2787e-15 
     3668.0  4.2682e-15 
     3670.0  4.3784e-15 
     3672.0  4.2736e-15 
     3674.0  4.1032e-15 
     3676.0  3.8293e-15 
     3678.0  4.6356e-15 
     3680.0  4.6003e-15 
     3682.0   4.597e-15 
     3684.0  4.6864e-15 
     3686.0  4.6814e-15 
     3688.0  4.2627e-15 
     3690.0  4.6225e-15 
     3692.0  4.5547e-15 
     3694.0  4.3863e-15 
     3696.0  4.2804e-15 
     3698.0  4.4865e-15 
     3700.0  4.2301e-15 
     3702.0  4.4261e-15 
     3704.0  4.0984e-15 
     3706.0  4.3213e-15 
     3708.0  4.5232e-15 
     3710.0  4.4056e-15 
     3712.0  4.3617e-15 
     3714.0  4.4571e-15 
     3716.0  4.0673e-15 
     3718.0  4.1693e-15 
     3720.0   4.011e-15 
     3722.0  3.7574e-15 
     3724.0  4.0755e-15 
     3726.0  4.5129e-15 
     3728.0  4.1525e-15 
     3730.0  4.1746e-15 
     3732.0  4.1884e-15 
     3734.0  4.3218e-15 
     3736.0  4.2723e-15 
     3738.0  4.3748e-15 
     3740.0  4.3189e-15 
     3742.0  4.2408e-15 
     3744.0    4.54e-15 
     3746.0  4.4857e-15 
     3748.0  4.2779e-15 
     3750.0  4.4902e-15 
     3752.0   4.203e-15 
     3754.0  4.6894e-15 
     3756.0  4.7284e-15 
     3758.0  4.2807e-15 
     3760.0  4.6088e-15 
     3762.0  4.3823e-15 
     3764.0  4.5398e-15 
     3766.0  4.7868e-15 
     3768.0  4.7025e-15 
     3770.0  4.5967e-15 
     3772.0  4.8536e-15 
     3774.0  4.5457e-15 
     3776.0  5.0074e-15 
     3778.0  4.6363e-15 
     3780.0  4.6642e-15 
     3782.0  5.1423e-15 
     3784.0  4.7875e-15 
     3786.0  4.7764e-15 
     3788.0  4.5574e-15 
     3790.0  4.5896e-15 
     3792.0  4.9093e-15 
     3794.0  4.5689e-15 
     3796.0  4.8114e-15 
     3798.0  4.7712e-15 
     3800.0  4.6818e-15 
     3802.0  4.7215e-15 
     3804.0  4.9848e-15 
     3806.0  4.7978e-15 
     3808.0  5.1453e-15 
     3810.0  4.9361e-15 
     3812.0  5.2015e-15 
     3814.0  4.6334e-15 
     3816.0  5.1975e-15 
     3818.0  4.9687e-15 
     3820.0  4.9238e-15 
     3822.0  5.0423e-15 
     3824.0  4.7892e-15 
     3826.0  4.9931e-15 
     3828.0   4.669e-15 
     3830.0  4.8031e-15 
     3832.0  4.8578e-15 
     3834.0   4.613e-15 
     3836.0  4.6639e-15 
     3838.0  4.6256e-15 
     3840.0  4.9238e-15 
     3842.0  4.9358e-15 
     3844.0  4.8143e-15 
     3846.0  4.7395e-15 
     3848.0  4.7782e-15 
     3850.0  4.6708e-15 
     3852.0   4.738e-15 
     3854.0  4.5513e-15 
     3856.0  4.6468e-15 
     3858.0   4.652e-15 
     3860.0  4.6996e-15 
     3862.0  4.3662e-15 
     3864.0  4.6171e-15 
     3866.0  4.4787e-15 
     3868.0  4.4277e-15 
     3870.0  4.6496e-15 
     3872.0  4.7535e-15 
     3874.0  4.2599e-15 
     3876.0   4.422e-15 
     3878.0  4.7104e-15 
     3880.0  4.6984e-15 
     3882.0  4.6736e-15 
     3884.0  4.7542e-15 
     3886.0  4.3932e-15 
     3888.0  4.4183e-15 
     3890.0  4.6087e-15 
     3892.0  4.5764e-15 
     3894.0  4.5038e-15 
     3896.0  4.4057e-15 
     3898.0  4.5114e-15 
     3900.0    4.52e-15 
     3902.0  4.6943e-15 
     3904.0  4.4863e-15 
     3906.0  4.4799e-15 
     3908.0  4.5034e-15 
     3910.0  4.4611e-15 
     3912.0  4.5266e-15 
     3914.0  4.5811e-15 
     3916.0   4.706e-15 
     3918.0   4.662e-15 
     3920.0   4.776e-15 
     3922.0  4.5935e-15 
     3924.0  4.9894e-15 
     3926.0  4.7313e-15 
     3928.0  4.8258e-15 
     3930.0  4.8957e-15 
     3932.0  4.5414e-15 
     3934.0  4.5326e-15 
     3936.0  4.4261e-15 
     3938.0   4.549e-15 
     3940.0  4.6738e-15 
     3942.0  4.6478e-15 
     3944.0  4.5914e-15 
     3946.0  4.6233e-15 
     3948.0  4.3742e-15 
     3950.0  4.5475e-15 
     3952.0  4.4513e-15 
     3954.0  4.5699e-15 
     3956.0  4.6817e-15 
     3958.0  4.8155e-15 
     3960.0  4.5982e-15 
     3962.0   4.444e-15 
     3964.0  4.1438e-15 
     3966.0  4.4292e-15 
     3968.0  4.4423e-15 
     3970.0  4.5027e-15 
     3972.0  4.2845e-15 
     3974.0  4.6458e-15 
     3976.0  4.3788e-15 
     3978.0  4.4753e-15 
     3980.0  4.3384e-15 
     3982.0  4.3499e-15 
     3984.0  4.3936e-15 
     3986.0  4.4793e-15 
     3988.0   4.485e-15 
     3990.0  4.4396e-15 
     3992.0  4.6598e-15 
     3994.0   4.499e-15 
     3996.0  4.5505e-15 
     3998.0  4.5561e-15 
     4000.0  4.6509e-15 
     4002.0   4.499e-15 
     4004.0  4.3561e-15 
     4006.0  4.6037e-15 
     4008.0  4.2751e-15 
     4010.0   4.398e-15 
     4012.0  4.6322e-15 
     4014.0  4.4035e-15 
     4016.0  4.6378e-15 
     4018.0  4.6665e-15 
     4020.0   4.325e-15 
     4022.0  4.5496e-15 
     4024.0   4.527e-15 
     4026.0   4.559e-15 
     4028.0  4.2721e-15 
     4030.0  4.2849e-15 
     4032.0  4.2124e-15 
     4034.0  4.1412e-15 
     4036.0  4.5266e-15 
     4038.0  4.3045e-15 
     4040.0  4.4423e-15 
     4042.0  4.5301e-15 
     4044.0  4.5018e-15 
     4046.0  4.3325e-15 
     4048.0  4.3555e-15 
     4050.0  4.2713e-15 
     4052.0  4.1435e-15 
     4054.0  4.1276e-15 
     4056.0  4.1403e-15 
     4058.0  4.0709e-15 
     4060.0  4.2033e-15 
     4062.0  4.2627e-15 
     4064.0  4.1951e-15 
     4066.0  3.9237e-15 
     4068.0  4.0922e-15 
     4070.0  4.5014e-15 
     4072.0  4.1817e-15 
     4074.0   3.981e-15 
     4076.0  4.1903e-15 
     4078.0  4.4341e-15 
     4080.0  4.3721e-15 
     4082.0  4.4234e-15 
     4084.0  4.5026e-15 
     4086.0  4.4579e-15 
     4088.0  4.4619e-15 
     4090.0  4.3242e-15 
     4092.0  4.2082e-15 
     4094.0  4.1919e-15 
     4096.0  4.1919e-15 
     4098.0  4.3641e-15 
     4100.0  4.4068e-15 
     4102.0   4.452e-15 
     4104.0  4.1545e-15 
     4106.0  4.4266e-15 
     4108.0  4.4052e-15 
     4110.0  4.2668e-15 
     4112.0  4.4184e-15 
     4114.0  4.2138e-15 
     4116.0  4.3192e-15 
     4118.0  4.3161e-15 
     4120.0  4.2392e-15 
     4122.0  4.3496e-15 
     4124.0  4.2738e-15 
     4126.0  4.4734e-15 
     4128.0  4.3198e-15 
     4130.0  4.2268e-15 
     4132.0  4.1946e-15 
     4134.0  4.4671e-15 
     4136.0  4.3907e-15 
     4138.0  4.2796e-15 
     4140.0  4.3599e-15 
     4142.0  4.5127e-15 
     4144.0  4.4332e-15 
     4146.0  4.5669e-15 
     4148.0  4.3372e-15 
     4150.0  4.6215e-15 
     4152.0  4.3935e-15 
     4154.0  4.4532e-15 
     4156.0  4.3373e-15 
     4158.0  4.3937e-15 
     4160.0  4.5523e-15 
     4162.0  4.5711e-15 
     4164.0  4.4888e-15 
     4166.0  4.5453e-15 
     4168.0  4.6113e-15 
     4170.0  4.6064e-15 
     4172.0  4.8225e-15 
     4174.0  4.5692e-15 
     4176.0  4.1664e-15 
     4178.0  4.4121e-15 
     4180.0  4.3927e-15 
     4182.0  4.6901e-15 
     4184.0  4.6598e-15 
     4186.0  4.5928e-15 
     4188.0  4.4238e-15 
     4190.0  4.5723e-15 
     4192.0  4.5673e-15 
     4194.0   4.379e-15 
     4196.0  4.6208e-15 
     4198.0  4.6695e-15 
     4200.0  4.6913e-15 
     4202.0  4.6399e-15 
     4204.0  4.4996e-15 
     4206.0  4.3693e-15 
     4208.0  4.4359e-15 
     4210.0  4.7135e-15 
     4212.0  4.6847e-15 
     4214.0  4.5522e-15 
     4216.0  4.6278e-15 
     4218.0  4.5149e-15 
     4220.0  4.2981e-15 
     4222.0  4.2103e-15 
     4224.0  4.1678e-15 
     4226.0  4.3753e-15 
     4228.0  4.5373e-15 
     4230.0  4.7529e-15 
     4232.0  4.2501e-15 
     4234.0   4.341e-15 
     4236.0  4.2389e-15 
     4238.0  4.3255e-15 
     4240.0  4.2989e-15 
     4242.0  4.1103e-15 
     4244.0  4.3123e-15 
     4246.0  4.1774e-15 
     4248.0  4.1495e-15 
     4250.0  4.2485e-15 
     4252.0   4.242e-15 
     4254.0  4.1572e-15 
     4256.0  4.2253e-15 
     4258.0  4.2644e-15 
     4260.0  4.2253e-15 
     4262.0  4.1633e-15 
     4264.0  4.2104e-15 
     4266.0  4.1159e-15 
     4268.0  4.1062e-15 
     4270.0  4.1323e-15 
     4272.0  4.3165e-15 
     4274.0   4.173e-15 
     4276.0  4.1461e-15 
     4278.0  4.2109e-15 
     4280.0  4.1855e-15 
     4282.0  4.3123e-15 
     4284.0  4.1848e-15 
     4286.0  4.2754e-15 
     4288.0  4.1977e-15 
     4290.0   4.239e-15 
     4292.0  4.3342e-15 
     4294.0  4.1317e-15 
     4296.0  4.0865e-15 
     4298.0  4.2764e-15 
     4300.0  4.0895e-15 
     4302.0  4.0499e-15 
     4304.0  4.4282e-15 
     4306.0   4.727e-15 
     4308.0    4.45e-15 
     4310.0  4.2024e-15 
     4312.0  4.3258e-15 
     4314.0  4.4262e-15 
     4316.0  4.3096e-15 
     4318.0  4.2677e-15 
     4320.0  4.3685e-15 
     4322.0  4.4542e-15 
     4324.0  4.5747e-15 
     4326.0  4.5498e-15 
     4328.0  4.4926e-15 
     4330.0  4.8203e-15 
     4332.0  4.6318e-15 
     4334.0  4.1992e-15 
     4336.0  4.4403e-15 
     4338.0  4.6909e-15 
     4340.0  4.6872e-15 
     4342.0  4.6487e-15 
     4344.0   4.609e-15 
     4346.0  4.5632e-15 
     4348.0  4.4324e-15 
     4350.0  4.5875e-15 
     4352.0  4.5075e-15 
     4354.0   4.528e-15 
     4356.0  4.3653e-15 
     4358.0  4.3236e-15 
     4360.0  4.6354e-15 
     4362.0  4.7075e-15 
     4364.0  4.5611e-15 
     4366.0   4.532e-15 
     4368.0  4.6351e-15 
     4370.0  4.4559e-15 
     4372.0  4.3189e-15 
     4374.0  4.3358e-15 
     4376.0  4.6515e-15 
     4378.0  4.7024e-15 
     4380.0  4.5339e-15 
     4382.0  4.5284e-15 
     4384.0  4.5542e-15 
     4386.0  4.4965e-15 
     4388.0  4.5605e-15 
     4390.0   4.496e-15 
     4392.0   4.484e-15 
     4394.0  4.5465e-15 
     4396.0  4.4193e-15 
     4398.0  4.4226e-15 
     4400.0  4.4896e-15 
     4402.0  4.3015e-15 
     4404.0  4.4353e-15 
     4406.0  4.3077e-15 
     4408.0  4.4076e-15 
     4410.0  4.2465e-15 
     4412.0  4.3744e-15 
     4414.0  4.2439e-15 
     4416.0  4.3363e-15 
     4418.0  4.3296e-15 
     4420.0  4.2601e-15 
     4422.0  4.1328e-15 
     4424.0  3.9271e-15 
     4426.0  3.9804e-15 
     4428.0  4.0751e-15 
     4430.0  3.9644e-15 
     4432.0  4.0264e-15 
     4434.0  4.0722e-15 
     4436.0  4.0593e-15 
     4438.0  4.1081e-15 
     4440.0  4.4749e-15 
     4442.0  4.4613e-15 
     4444.0  4.5242e-15 
     4446.0  4.2823e-15 
     4448.0  4.2127e-15 
     4450.0  4.5466e-15 
     4452.0  4.3884e-15 
     4454.0  4.2974e-15 
     4456.0  4.0627e-15 
     4458.0   4.348e-15 
     4460.0  4.3767e-15 
     4462.0  4.2987e-15 
     4464.0  4.3004e-15 
     4466.0  4.1911e-15 
     4468.0  4.3039e-15 
     4470.0  4.1867e-15 
     4472.0  4.2053e-15 
     4474.0  4.0199e-15 
     4476.0  4.0887e-15 
     4478.0  4.1335e-15 
     4480.0  4.0103e-15 
     4482.0  4.2708e-15 
     4484.0  4.0986e-15 
     4486.0  3.9986e-15 
     4488.0  4.0021e-15 
     4490.0  3.9343e-15 
     4492.0  4.0556e-15 
     4494.0  3.9268e-15 
     4496.0  3.9658e-15 
     4498.0  4.0768e-15 
     4500.0  3.9409e-15 
     4502.0  3.7986e-15 
     4504.0  3.7559e-15 
     4506.0  3.6482e-15 
     4508.0  3.7149e-15 
     4510.0  3.9168e-15 
     4512.0  4.0311e-15 
     4514.0  3.8214e-15 
     4516.0  4.0296e-15 
     4518.0   3.923e-15 
     4520.0  4.1523e-15 
     4522.0  3.9592e-15 
     4524.0  3.8838e-15 
     4526.0  3.9722e-15 
     4528.0  3.9855e-15 
     4530.0  3.9487e-15 
     4532.0  3.9627e-15 
     4534.0  4.0468e-15 
     4536.0  3.8891e-15 
     4538.0  4.1362e-15 
     4540.0  3.9483e-15 
     4542.0  3.7637e-15 
     4544.0  4.0214e-15 
     4546.0  3.9793e-15 
     4548.0  3.8229e-15 
     4550.0  4.2498e-15 
     4552.0  3.9915e-15 
     4554.0  3.9364e-15 
     4556.0  3.8167e-15 
     4558.0  3.9772e-15 
     4560.0  4.0331e-15 
     4562.0  3.8014e-15 
     4564.0   4.019e-15 
     4566.0  3.9996e-15 
     4568.0  4.1023e-15 
     4570.0  3.9398e-15 
     4572.0  3.9496e-15 
     4574.0  3.8812e-15 
     4576.0  3.8739e-15 
     4578.0  3.8679e-15 
     4580.0  3.8298e-15 
     4582.0  3.8228e-15 
     4584.0  3.7034e-15 
     4586.0  3.7904e-15 
     4588.0  3.8828e-15 
     4590.0  3.8378e-15 
     4592.0  3.6829e-15 
     4594.0  3.8832e-15 
     4596.0  3.6829e-15 
     4598.0  3.5138e-15 
     4600.0  3.6184e-15 
     4602.0  3.7804e-15 
     4604.0  3.7665e-15 
     4606.0  3.8739e-15 
     4608.0   3.819e-15 
     4610.0   3.912e-15 
     4612.0  3.7866e-15 
     4614.0  3.7794e-15 
     4616.0  3.7662e-15 
     4618.0   3.881e-15 
     4620.0  3.8416e-15 
     4622.0  3.8943e-15 
     4624.0  3.9307e-15 
     4626.0  4.0619e-15 
     4628.0  3.9648e-15 
     4630.0  3.9609e-15 
     4632.0   4.045e-15 
     4634.0  3.9566e-15 
     4636.0  3.8729e-15 
     4638.0  3.6018e-15 
     4640.0   3.888e-15 
     4642.0  4.0344e-15 
     4644.0  3.8695e-15 
     4646.0  3.9686e-15 
     4648.0  3.9843e-15 
     4650.0  4.1251e-15 
     4652.0  4.1327e-15 
     4654.0  4.1026e-15 
     4656.0  4.0412e-15 
     4658.0  4.0097e-15 
     4660.0  4.0833e-15 
     4662.0  3.9426e-15 
     4664.0  4.1778e-15 
     4666.0  4.1722e-15 
     4668.0  4.0191e-15 
     4670.0  4.1026e-15 
     4672.0  4.1307e-15 
     4674.0  4.2475e-15 
     4676.0  4.1294e-15 
     4678.0  4.1065e-15 
     4680.0  4.3601e-15 
     4682.0   4.258e-15 
     4684.0  4.0203e-15 
     4686.0  4.2715e-15 
     4688.0  4.1597e-15 
     4690.0  4.1487e-15 
     4692.0  4.1084e-15 
     4694.0  3.9961e-15 
     4696.0  4.2532e-15 
     4698.0  4.2969e-15 
     4700.0  4.1979e-15 
     4702.0  3.9991e-15 
     4704.0  4.3829e-15 
     4706.0  4.1905e-15 
     4708.0  4.2607e-15 
     4710.0  4.2247e-15 
     4712.0  4.2537e-15 
     4714.0  4.0141e-15 
     4716.0  4.2954e-15 
     4718.0  4.4058e-15 
     4720.0  4.2554e-15 
     4722.0  4.1951e-15 
     4724.0  4.0051e-15 
     4726.0   4.125e-15 
     4728.0    4.21e-15 
     4730.0  4.0203e-15 
     4732.0  4.0567e-15 
     4734.0  4.3233e-15 
     4736.0  4.3245e-15 
     4738.0   4.225e-15 
     4740.0  4.2523e-15 
     4742.0  4.2224e-15 
     4744.0  4.2382e-15 
     4746.0  4.1363e-15 
     4748.0  4.2302e-15 
     4750.0  4.2732e-15 
     4752.0  4.3558e-15 
     4754.0  4.4039e-15 
     4756.0  4.4589e-15 
     4758.0  4.3596e-15 
     4760.0   4.202e-15 
     4762.0  4.3957e-15 
     4764.0  4.1345e-15 
     4766.0   4.523e-15 
     4768.0  4.2789e-15 
     4770.0  4.3842e-15 
     4772.0  4.2799e-15 
     4774.0  4.3355e-15 
     4776.0  4.5188e-15 
     4778.0  4.5432e-15 
     4780.0  4.1379e-15 
     4782.0  4.3431e-15 
     4784.0  4.2611e-15 
     4786.0  4.4402e-15 
     4788.0  4.3082e-15 
     4790.0  4.4115e-15 
     4792.0   4.454e-15 
     4794.0  4.3197e-15 
     4796.0  4.3412e-15 
     4798.0  4.3173e-15 
     4800.0  4.2207e-15 
     4802.0   4.108e-15 
     4804.0  4.4399e-15 
     4806.0  4.2751e-15 
     4808.0   4.371e-15 
     4810.0  4.3012e-15 
     4812.0  4.3529e-15 
     4814.0  4.3056e-15 
     4816.0  4.2007e-15 
     4818.0  4.1546e-15 
     4820.0  4.1731e-15 
     4822.0  4.4611e-15 
     4824.0  4.2823e-15 
     4826.0  4.1606e-15 
     4828.0  4.0828e-15 
     4830.0   4.202e-15 
     4832.0  4.1501e-15 
     4834.0  4.2788e-15 
     4836.0  4.1572e-15 
     4838.0  4.3213e-15 
     4840.0  4.1454e-15 
     4842.0  4.3316e-15 
     4844.0  4.1762e-15 
     4846.0  4.0723e-15 
     4848.0  4.0279e-15 
     4850.0  4.0905e-15 
     4852.0  4.2042e-15 
     4854.0   4.213e-15 
     4856.0  4.3617e-15 
     4858.0  4.6019e-15 
     4860.0  4.2731e-15 
     4862.0  4.4787e-15 
     4864.0  4.4193e-15 
     4866.0  4.6367e-15 
     4868.0  4.3371e-15 
     4870.0   4.217e-15 
     4872.0  4.0697e-15 
     4874.0  4.2062e-15 
     4876.0  4.1953e-15 
     4878.0  4.1946e-15 
     4880.0  4.2689e-15 
     4882.0   4.238e-15 
     4884.0  4.0354e-15 
     4886.0    4.12e-15 
     4888.0  4.2145e-15 
     4890.0  4.2241e-15 
     4892.0  4.2464e-15 
     4894.0    4.13e-15 
     4896.0  4.2907e-15 
     4898.0  4.2452e-15 
     4900.0  4.3523e-15 
     4902.0  4.1527e-15 
     4904.0  4.2968e-15 
     4906.0  4.4648e-15 
     4908.0  4.1753e-15 
     4910.0  4.0558e-15 
     4912.0  4.0648e-15 
     4914.0  4.2185e-15 
     4916.0    4.17e-15 
     4918.0  4.3425e-15 
     4920.0  4.3648e-15 
     4922.0  4.2286e-15 
     4924.0  4.2387e-15 
     4926.0  4.0677e-15 
     4928.0  4.1359e-15 
     4930.0  4.3556e-15 
     4932.0  4.2299e-15 
     4934.0  4.1289e-15 
     4936.0  4.2364e-15 
     4938.0  4.2731e-15 
     4940.0   4.178e-15 
     4942.0  4.0958e-15 
     4944.0  4.1743e-15 
     4946.0  4.3711e-15 
     4948.0  4.1307e-15 
     4950.0  4.0159e-15 
     4952.0  4.0393e-15 
     4954.0  4.0036e-15 
     4956.0  3.9926e-15 
     4958.0   4.056e-15 
     4960.0  3.9873e-15 
     4962.0  4.0628e-15 
     4964.0  4.1239e-15 
     4966.0  4.2737e-15 
     4968.0  3.8186e-15 
     4970.0  4.0071e-15 
     4972.0  4.0113e-15 
     4974.0  4.0348e-15 
     4976.0  4.0135e-15 
     4978.0   3.931e-15 
     4980.0    3.93e-15 
     4982.0  3.9197e-15 
     4984.0  3.7532e-15 
     4986.0  3.8707e-15 
     4988.0  3.9151e-15 
     4990.0  3.8273e-15 
     4992.0   3.949e-15 
     4994.0  3.8642e-15 
     4996.0  3.9494e-15 
     4998.0  3.8351e-15 
     5000.0  3.8871e-15 
     5002.0  3.9829e-15 
     5004.0  3.8839e-15 
     5006.0  3.9802e-15 
     5008.0  3.9488e-15 
     5010.0  3.9391e-15 
     5012.0  4.0376e-15 
     5014.0  3.8716e-15 
     5016.0  3.8336e-15 
     5018.0  3.8065e-15 
     5020.0  3.9528e-15 
     5022.0  4.0639e-15 
     5024.0  3.8828e-15 
     5026.0  3.7884e-15 
     5028.0   3.653e-15 
     5030.0  3.6485e-15 
     5032.0   3.616e-15 
     5034.0  3.8547e-15 
     5036.0  3.8857e-15 
     5038.0  3.6512e-15 
     5040.0  3.7865e-15 
     5042.0  3.8134e-15 
     5044.0  3.6074e-15 
     5046.0  3.7434e-15 
     5048.0  3.8958e-15 
     5050.0  3.7837e-15 
     5052.0  3.4505e-15 
     5054.0  3.7548e-15 
     5056.0  3.5932e-15 
     5058.0  3.5812e-15 
     5060.0  3.5683e-15 
     5062.0  3.7455e-15 
     5064.0  3.6949e-15 
     5066.0  3.7731e-15 
     5068.0  3.7108e-15 
     5070.0  3.6268e-15 
     5072.0  3.7163e-15 
     5074.0  3.6936e-15 
     5076.0  3.6682e-15 
     5078.0  3.7388e-15 
     5080.0  3.6821e-15 
     5082.0  3.6774e-15 
     5084.0  3.7267e-15 
     5086.0   3.597e-15 
     5088.0  3.6057e-15 
     5090.0  3.6427e-15 
     5092.0  3.6979e-15 
     5094.0   3.648e-15 
     5096.0  3.5593e-15 
     5098.0  3.6898e-15 
     5100.0  3.7124e-15 
     5102.0  3.6107e-15 
     5104.0  3.8182e-15 
     5106.0  3.6788e-15 
     5108.0  3.5914e-15 
     5110.0  3.5861e-15 
     5112.0  3.6664e-15 
     5114.0  3.5024e-15 
     5116.0  3.5655e-15 
     5118.0  3.5688e-15 
     5120.0  3.7646e-15 
     5122.0  3.8781e-15 
     5124.0  3.5432e-15 
     5126.0  3.7061e-15 
     5128.0  3.6626e-15 
     5130.0  3.6577e-15 
     5132.0   3.774e-15 
     5134.0  3.5315e-15 
     5136.0  3.6495e-15 
     5138.0  3.7959e-15 
     5140.0  3.7974e-15 
     5142.0  3.6054e-15 
     5144.0  3.5493e-15 
     5146.0  3.8187e-15 
     5148.0  3.6245e-15 
     5150.0  3.6184e-15 
     5152.0  3.7779e-15 
     5154.0  3.6854e-15 
     5156.0   3.821e-15 
     5158.0  4.0964e-15 
     5160.0  3.9375e-15 
     5162.0   3.825e-15 
     5164.0  3.7726e-15 
     5166.0  3.7456e-15 
     5168.0  3.8443e-15 
     5170.0  3.5804e-15 
     5172.0  3.6767e-15 
     5174.0  3.6196e-15 
     5176.0  3.7827e-15 
     5178.0  3.5206e-15 
     5180.0  3.5457e-15 
     5182.0  3.7515e-15 
     5184.0   3.731e-15 
     5186.0  3.7306e-15 
     5188.0  3.5589e-15 
     5190.0  3.6134e-15 
     5192.0   3.663e-15 
     5194.0  3.7742e-15 
     5196.0  3.9095e-15 
     5198.0  3.6888e-15 
     5200.0  3.6487e-15 
     5202.0  3.8209e-15 
     5204.0  3.8423e-15 
     5206.0  3.6558e-15 
     5208.0  3.8756e-15 
     5210.0  3.7848e-15 
     5212.0  3.8817e-15 
     5214.0  3.8779e-15 
     5216.0  3.7648e-15 
     5218.0  3.9735e-15 
     5220.0  3.7876e-15 
     5222.0    3.86e-15 
     5224.0   3.789e-15 
     5226.0  3.8827e-15 
     5228.0  3.7882e-15 
     5230.0  3.8402e-15 
     5232.0  3.8737e-15 
     5234.0  3.8511e-15 
     5236.0    3.93e-15 
     5238.0  3.8823e-15 
     5240.0  4.0916e-15 
     5242.0  3.9466e-15 
     5244.0  3.8261e-15 
     5246.0  3.8076e-15 
     5248.0  3.9006e-15 
     5250.0  4.0092e-15 
     5252.0  3.7211e-15 
     5254.0  3.8305e-15 
     5256.0  3.8657e-15 
     5258.0  3.9064e-15 
     5260.0  3.7702e-15 
     5262.0  4.4142e-15 
     5264.0  4.6222e-15 
     5266.0  4.3225e-15 
     5268.0  4.0635e-15 
     5270.0  3.9971e-15 
     5272.0  3.8584e-15 
     5274.0  3.8527e-15 
     5276.0  3.9395e-15 
     5278.0  3.8148e-15 
     5280.0  3.9235e-15 
     5282.0  4.1069e-15 
     5284.0  3.9303e-15 
     5286.0  3.9731e-15 
     5288.0  3.9799e-15 
     5290.0  3.9509e-15 
     5292.0  4.0672e-15 
     5294.0  3.9218e-15 
     5296.0  3.8832e-15 
     5298.0  4.0923e-15 
     5300.0  3.9517e-15 
     5302.0  3.8405e-15 
     5304.0  4.0101e-15 
     5306.0  4.0838e-15 
     5308.0   3.984e-15 
     5310.0  4.0005e-15 
     5312.0  4.8596e-15 
     5314.0  5.7199e-15 
     5316.0   5.542e-15 
     5318.0  4.6988e-15 
     5320.0  4.0924e-15 
     5322.0  3.8599e-15 
     5324.0  4.0552e-15 
     5326.0  3.9546e-15 
     5328.0  3.9931e-15 
     5330.0  4.0445e-15 
     5332.0  3.9375e-15 
     5334.0  4.0011e-15 
     5336.0  3.9735e-15 
     5338.0  4.1797e-15 
     5340.0  4.0789e-15 
     5342.0  3.9145e-15 
     5344.0  4.0259e-15 
     5346.0  4.0117e-15 
     5348.0  3.9814e-15 
     5350.0   3.907e-15 
     5352.0  3.9402e-15 
     5354.0  4.1222e-15 
     5356.0  4.0227e-15 
     5358.0  3.9793e-15 
     5360.0  4.1327e-15 
     5362.0  4.1104e-15 
     5364.0  4.1947e-15 
     5366.0  4.0866e-15 
     5368.0  4.1968e-15 
     5370.0  4.1318e-15 
     5372.0  4.1148e-15 
     5374.0  4.1426e-15 
     5376.0  4.0925e-15 
     5378.0   3.913e-15 
     5380.0  3.8133e-15 
     5382.0  3.9513e-15 
     5384.0  3.9373e-15 
     5386.0  4.1222e-15 
     5388.0  4.2274e-15 
     5390.0  3.9844e-15 
     5392.0  4.0226e-15 
     5394.0  3.9503e-15 
     5396.0  3.9715e-15 
     5398.0  4.4735e-15 
     5400.0  4.2479e-15 
     5402.0  4.0829e-15 
     5404.0  3.9756e-15 
     5406.0  3.9977e-15 
     5408.0  4.2309e-15 
     5410.0  4.1914e-15 
     5412.0    4.16e-15 
     5414.0  4.2004e-15 
     5416.0  4.2562e-15 
     5418.0  4.1045e-15 
     5420.0  4.0356e-15 
     5422.0  4.0754e-15 
     5424.0   3.993e-15 
     5426.0  3.9918e-15 
     5428.0  3.9901e-15 
     5430.0  4.0769e-15 
     5432.0  3.8376e-15 
     5434.0  4.0642e-15 
     5436.0  4.1683e-15 
     5438.0   4.065e-15 
     5440.0  4.1435e-15 
     5442.0   4.059e-15 
     5444.0   4.044e-15 
     5446.0  4.0758e-15 
     5448.0  4.1345e-15 
     5450.0   4.141e-15 
     5452.0  4.3325e-15 
     5454.0  4.1421e-15 
     5456.0   4.087e-15 
     5458.0  4.1182e-15 
     5460.0  4.1188e-15 
     5462.0  4.2754e-15 
     5464.0   4.105e-15 
     5466.0  4.2867e-15 
     5468.0  4.1177e-15 
     5470.0  4.2647e-15 
     5472.0  4.1281e-15 
     5474.0  4.1396e-15 
     5476.0  4.2223e-15 
     5478.0  4.2697e-15 
     5480.0  4.3384e-15 
     5482.0  4.1491e-15 
     5484.0  4.2223e-15 
     5486.0  4.3314e-15 
     5488.0  4.2607e-15 
     5490.0   4.245e-15 
     5492.0  4.0401e-15 
     5494.0  4.2432e-15 
     5496.0   4.289e-15 
     5498.0   4.391e-15 
     5500.0  4.1844e-15 
     5502.0  4.2597e-15 
     5504.0  4.3941e-15 
     5506.0  4.1016e-15 
     5508.0  4.2386e-15 
     5510.0  4.2573e-15 
     5512.0  4.3476e-15 
     5514.0  4.2028e-15 
     5516.0  4.1974e-15 
     5518.0  4.2254e-15 
     5520.0  4.0699e-15 
     5522.0  4.3291e-15 
     5524.0  4.4902e-15 
     5526.0  4.1989e-15 
     5528.0  4.3959e-15 
     5530.0  4.3619e-15 
     5532.0  4.0723e-15 
     5534.0  4.2426e-15 
     5536.0  4.1985e-15 
     5538.0  4.3508e-15 
     5540.0  4.1932e-15 
     5542.0  4.3788e-15 
     5544.0  4.4558e-15 
     5546.0  4.1437e-15 
     5548.0  4.4605e-15 
     5550.0   4.286e-15 
     5550.0   4.286e-15 
     5552.0  4.2275e-15 
     5552.0  4.2275e-15 
     5554.0  4.4743e-15 
     5554.0  4.4743e-15 
     5556.0  4.3233e-15 
     5556.0  4.3233e-15 
     5558.0  4.2656e-15 
     5558.0  4.2656e-15 
     5560.0  4.1763e-15 
     5560.0  4.1763e-15 
     5562.0  4.2662e-15 
     5562.0  4.2662e-15 
     5564.0  4.2324e-15 
     5564.0  4.2324e-15 
     5566.0  4.1325e-15 
     5566.0  4.1325e-15 
     5568.0  4.2105e-15 
     5568.0  4.2105e-15 
     5570.0  4.1195e-15 
     5570.0  4.1195e-15 
     5572.0  4.1723e-15 
     5572.0  4.1723e-15 
     5574.0    4.09e-15 
     5574.0    4.09e-15 
     5576.0  4.3274e-15 
     5576.0  4.3274e-15 
     5578.0   4.199e-15 
     5578.0   4.199e-15 
     5580.0  4.2142e-15 
     5580.0  4.2142e-15 
     5582.0  4.0693e-15 
     5582.0  4.0693e-15 
     5584.0  4.0432e-15 
     5584.0  4.0432e-15 
     5586.0  4.1273e-15 
     5586.0  4.1273e-15 
     5588.0  4.1465e-15 
     5588.0  4.1465e-15 
     5590.0  4.0573e-15 
     5590.0  4.0573e-15 
     5592.0  4.1144e-15 
     5592.0  4.1144e-15 
     5594.0  4.2542e-15 
     5594.0  4.2542e-15 
     5596.0  4.0446e-15 
     5596.0  4.0446e-15 
     5598.0  3.8263e-15 
     5598.0  3.8263e-15 
     5600.0  3.8352e-15 
     5600.0  3.8352e-15 
     5602.0   3.938e-15 
     5602.0   3.938e-15 
     5604.0  4.1409e-15 
     5604.0  4.1409e-15 
     5606.0  4.0982e-15 
     5606.0  4.0982e-15 
     5608.0  3.9179e-15 
     5608.0  3.9179e-15 
     5610.0   3.893e-15 
     5610.0   3.893e-15 
     5612.0  4.0751e-15 
     5612.0  4.0751e-15 
     5614.0  3.9666e-15 
     5614.0  3.9666e-15 
     5616.0  4.0721e-15 
     5616.0  4.0721e-15 
     5618.0  4.0378e-15 
     5618.0  4.0378e-15 
     5620.0  4.1542e-15 
     5620.0  4.1542e-15 
     5622.0  3.7906e-15 
     5622.0  3.7906e-15 
     5624.0   3.983e-15 
     5624.0   3.983e-15 
     5626.0  4.1387e-15 
     5626.0  4.1387e-15 
     5628.0  3.8885e-15 
     5628.0  3.8885e-15 
     5630.0  4.0028e-15 
     5630.0  4.0028e-15 
     5632.0  3.7797e-15 
     5632.0  3.7797e-15 
     5634.0  3.8867e-15 
     5634.0  3.8867e-15 
     5636.0  3.9592e-15 
     5636.0  3.9592e-15 
     5638.0  3.8875e-15 
     5638.0  3.8875e-15 
     5640.0  3.6965e-15 
     5640.0  3.6965e-15 
     5642.0  3.9318e-15 
     5642.0  3.9318e-15 
     5644.0  3.7585e-15 
     5644.0  3.7585e-15 
     5646.0  4.0487e-15 
     5646.0  4.0487e-15 
     5648.0  3.8428e-15 
     5648.0  3.8428e-15 
     5650.0  3.8171e-15 
     5650.0  3.8171e-15 
     5652.0  3.9572e-15 
     5654.0  3.7765e-15 
     5656.0  3.7896e-15 
     5658.0  3.5704e-15 
     5660.0  3.8316e-15 
     5662.0    3.89e-15 
     5664.0  3.9729e-15 
     5666.0  3.8673e-15 
     5668.0  3.8625e-15 
     5670.0  3.7731e-15 
     5672.0  3.8448e-15 
     5674.0  3.5263e-15 
     5676.0  3.6889e-15 
     5678.0  3.8908e-15 
     5680.0  3.9203e-15 
     5682.0  3.7133e-15 
     5684.0  3.9647e-15 
     5686.0  3.9549e-15 
     5688.0  3.9888e-15 
     5690.0  3.7869e-15 
     5692.0  3.7172e-15 
     5694.0  3.8034e-15 
     5696.0  3.7249e-15 
     5698.0  3.8271e-15 
     5700.0  3.6437e-15 
     5702.0  3.9643e-15 
     5704.0  3.6848e-15 
     5706.0  3.6292e-15 
     5708.0    3.67e-15 
     5710.0  3.8274e-15 
     5712.0  3.6759e-15 
     5714.0  3.7885e-15 
     5716.0  3.7956e-15 
     5718.0  3.9135e-15 
     5720.0  3.8404e-15 
     5722.0  3.7652e-15 
     5724.0  3.6724e-15 
     5726.0  3.6264e-15 
     5728.0  3.7632e-15 
     5730.0  3.6714e-15 
     5732.0  3.5209e-15 
     5734.0  3.7192e-15 
     5736.0  3.7164e-15 
     5738.0  3.7146e-15 
     5740.0  3.8145e-15 
     5742.0  3.7519e-15 
     5744.0  3.8575e-15 
     5746.0   3.587e-15 
     5748.0  3.7796e-15 
     5750.0  3.6976e-15 
     5752.0  3.6899e-15 
     5754.0   3.711e-15 
     5756.0  3.7927e-15 
     5758.0  3.7083e-15 
     5760.0  3.6902e-15 
     5762.0  3.7976e-15 
     5764.0  3.6078e-15 
     5766.0  3.7051e-15 
     5768.0  3.6065e-15 
     5770.0  3.6763e-15 
     5772.0  3.7233e-15 
     5774.0  3.7373e-15 
     5776.0  3.5963e-15 
     5778.0  3.4431e-15 
     5780.0  3.3722e-15 
     5782.0  3.4177e-15 
     5784.0  3.5271e-15 
     5786.0  3.4486e-15 
     5788.0  3.5887e-15 
     5790.0  3.5208e-15 
     5792.0  3.5102e-15 
     5794.0  3.5418e-15 
     5796.0  3.4664e-15 
     5798.0  3.4254e-15 
     5800.0  3.5006e-15 
     5802.0  3.5271e-15 
     5804.0  3.5539e-15 
     5806.0  3.4569e-15 
     5808.0  3.5152e-15 
     5810.0  3.4848e-15 
     5812.0  3.6165e-15 
     5814.0  3.3224e-15 
     5816.0  3.3571e-15 
     5818.0  3.4399e-15 
     5820.0  3.5382e-15 
     5822.0  3.4393e-15 
     5824.0  3.5066e-15 
     5826.0  3.3945e-15 
     5828.0  3.5083e-15 
     5830.0  3.5593e-15 
     5832.0  3.4342e-15 
     5834.0  3.5548e-15 
     5836.0  3.4014e-15 
     5838.0  3.4913e-15 
     5840.0  3.4751e-15 
     5842.0  3.4498e-15 
     5844.0  3.3968e-15 
     5846.0  3.3931e-15 
     5848.0  3.4441e-15 
     5850.0  3.3665e-15 
     5852.0  3.4101e-15 
     5854.0  3.4204e-15 
     5856.0  3.3339e-15 
     5858.0  3.4252e-15 
     5860.0  3.3634e-15 
     5862.0  3.4893e-15 
     5864.0  3.3585e-15 
     5866.0  3.3403e-15 
     5868.0  3.2294e-15 
     5870.0  3.3082e-15 
     5872.0  3.2715e-15 
     5874.0  3.4023e-15 
     5876.0   3.505e-15 
     5878.0  3.3213e-15 
     5880.0  3.1941e-15 
     5882.0  3.3078e-15 
     5884.0    3.23e-15 
     5886.0  3.2836e-15 
     5888.0  3.3083e-15 
     5890.0  3.0741e-15 
     5892.0  3.0808e-15 
     5894.0   3.008e-15 
     5896.0  2.8059e-15 
     5898.0  2.8992e-15 
     5900.0  3.1745e-15 
     5902.0   3.255e-15 
     5904.0  3.1397e-15 
     5906.0  3.1651e-15 
     5908.0  3.0915e-15 
     5910.0  3.1283e-15 
     5912.0  3.0652e-15 
     5914.0   3.088e-15 
     5916.0  3.4264e-15 
     5918.0  3.1791e-15 
     5920.0  3.0425e-15 
     5922.0  3.1231e-15 
     5924.0  3.1989e-15 
     5926.0   3.175e-15 
     5928.0  3.0831e-15 
     5930.0  3.1483e-15 
     5932.0  3.2416e-15 
     5934.0  3.1285e-15 
     5936.0  3.1308e-15 
     5938.0  3.2537e-15 
     5940.0  3.0579e-15 
     5942.0  3.0194e-15 
     5944.0  3.0737e-15 
     5946.0  3.1705e-15 
     5948.0  2.9795e-15 
     5950.0  3.0629e-15 
     5952.0  3.1736e-15 
     5954.0  3.0678e-15 
     5956.0  3.2298e-15 
     5958.0  3.1939e-15 
     5960.0  3.0984e-15 
     5962.0  3.2153e-15 
     5964.0  3.1255e-15 
     5966.0  3.1817e-15 
     5968.0  3.1286e-15 
     5970.0  3.2303e-15 
     5972.0   3.344e-15 
     5974.0   3.193e-15 
     5976.0  3.1211e-15 
     5978.0   3.207e-15 
     5980.0  3.3029e-15 
     5982.0  3.2649e-15 
     5984.0  3.1794e-15 
     5986.0  3.1623e-15 
     5988.0  3.1733e-15 
     5990.0  3.1775e-15 
     5992.0  3.0642e-15 
     5994.0  3.1551e-15 
     5996.0  3.2966e-15 
     5998.0  3.1939e-15 
     6000.0  3.1292e-15 
     6002.0  3.1515e-15 
     6004.0   3.254e-15 
     6006.0  3.2164e-15 
     6008.0  3.2862e-15 
     6010.0   3.324e-15 
     6012.0  3.1794e-15 
     6014.0  3.2119e-15 
     6016.0  3.1478e-15 
     6018.0  3.2804e-15 
     6020.0  3.2897e-15 
     6022.0  3.3285e-15 
     6024.0  3.2573e-15 
     6026.0  3.2164e-15 
     6028.0  3.2071e-15 
     6030.0    3.22e-15 
     6032.0  3.1441e-15 
     6034.0  3.1655e-15 
     6036.0  3.1525e-15 
     6038.0   3.128e-15 
     6040.0  3.2368e-15 
     6042.0  3.2482e-15 
     6044.0  3.2868e-15 
     6046.0  3.1598e-15 
     6048.0  3.2568e-15 
     6050.0  3.2268e-15 
     6052.0  3.1889e-15 
     6054.0  3.2093e-15 
     6056.0  3.1179e-15 
     6058.0   3.198e-15 
     6060.0  3.2065e-15 
     6062.0  3.1724e-15 
     6064.0  3.1814e-15 
     6066.0  3.1761e-15 
     6068.0  3.1648e-15 
     6070.0  3.2587e-15 
     6072.0  3.1596e-15 
     6074.0  3.1805e-15 
     6076.0  3.1392e-15 
     6078.0  3.2448e-15 
     6080.0  3.1186e-15 
     6082.0  3.2533e-15 
     6084.0  3.1745e-15 
     6086.0   3.132e-15 
     6088.0  3.2529e-15 
     6090.0  3.0705e-15 
     6092.0  3.1091e-15 
     6094.0  3.0391e-15 
     6096.0  3.2195e-15 
     6098.0  3.1845e-15 
     6100.0  3.0308e-15 
     6102.0  3.0582e-15 
     6104.0   3.124e-15 
     6106.0  3.1921e-15 
     6108.0  3.1802e-15 
     6110.0  3.0343e-15 
     6112.0   3.112e-15 
     6114.0  3.0488e-15 
     6116.0  3.0217e-15 
     6118.0   2.993e-15 
     6120.0  3.1318e-15 
     6122.0  3.0507e-15 
     6124.0  3.1068e-15 
     6126.0   3.137e-15 
     6128.0  3.1343e-15 
     6130.0   3.034e-15 
     6132.0  3.1039e-15 
     6134.0  3.0127e-15 
     6136.0  3.1457e-15 
     6138.0  3.0721e-15 
     6140.0  3.0458e-15 
     6142.0   2.968e-15 
     6144.0  3.1226e-15 
     6146.0  3.0787e-15 
     6148.0   3.075e-15 
     6150.0  2.9601e-15 
     6152.0  3.0488e-15 
     6154.0  3.0472e-15 
     6156.0  3.1534e-15 
     6158.0  3.0567e-15 
     6160.0  3.1515e-15 
     6162.0  3.1051e-15 
     6164.0  2.9765e-15 
     6166.0  3.0274e-15 
     6168.0  3.0487e-15 
     6170.0  3.0431e-15 
     6172.0  3.0414e-15 
     6174.0  2.9795e-15 
     6176.0   3.108e-15 
     6178.0  3.0372e-15 
     6180.0  2.9209e-15 
     6182.0  2.8774e-15 
     6184.0  3.0794e-15 
     6186.0  2.9858e-15 
     6188.0  2.9233e-15 
     6190.0  2.9835e-15 
     6192.0  3.0404e-15 
     6194.0  3.0399e-15 
     6196.0  3.0475e-15 
     6198.0  2.9973e-15 
     6200.0  3.0208e-15 
     6202.0  2.9569e-15 
     6204.0  2.8751e-15 
     6206.0  2.9612e-15 
     6208.0  2.9991e-15 
     6210.0  3.0245e-15 
     6212.0  3.0042e-15 
     6214.0  3.0022e-15 
     6216.0  3.0412e-15 
     6218.0  3.1732e-15 
     6220.0  3.0746e-15 
     6222.0  3.0279e-15 
     6224.0  3.1869e-15 
     6226.0  3.0132e-15 
     6228.0  3.0577e-15 
     6230.0  2.9637e-15 
     6232.0  2.9386e-15 
     6234.0  2.9972e-15 
     6236.0  2.9438e-15 
     6238.0  3.0654e-15 
     6240.0  3.0768e-15 
     6242.0  2.9922e-15 
     6244.0  2.9281e-15 
     6246.0  3.0141e-15 
     6248.0  2.9308e-15 
     6250.0  3.0986e-15 
     6252.0  2.9524e-15 
     6254.0  2.9769e-15 
     6256.0  3.0087e-15 
     6258.0  3.0001e-15 
     6260.0  3.0183e-15 
     6262.0  2.9759e-15 
     6264.0  2.9137e-15 
     6266.0  2.8789e-15 
     6268.0  2.9749e-15 
     6270.0  2.9051e-15 
     6272.0  2.9026e-15 
     6274.0  2.9043e-15 
     6276.0  2.9143e-15 
     6278.0   2.963e-15 
     6280.0   2.856e-15 
     6282.0  2.8289e-15 
     6284.0   2.551e-15 
     6286.0   2.602e-15 
     6288.0  2.7684e-15 
     6290.0  2.9352e-15 
     6292.0  2.8373e-15 
     6294.0  2.8629e-15 
     6296.0  2.9115e-15 
     6298.0  3.0161e-15 
     6300.0  2.8624e-15 
     6302.0  2.8661e-15 
     6304.0   2.937e-15 
     6306.0  2.9045e-15 
     6308.0  2.9507e-15 
     6310.0  2.8258e-15 
     6312.0  2.9194e-15 
     6314.0  2.8718e-15 
     6316.0  2.8522e-15 
     6318.0  2.8794e-15 
     6320.0  2.8261e-15 
     6322.0  2.8266e-15 
     6324.0  2.8402e-15 
     6326.0  2.8757e-15 
     6328.0  2.9214e-15 
     6330.0  2.9028e-15 
     6332.0  2.8885e-15 
     6334.0  2.8723e-15 
     6336.0  2.8581e-15 
     6338.0  2.7777e-15 
     6340.0  3.0384e-15 
     6342.0  2.9887e-15 
     6344.0  2.8594e-15 
     6346.0  2.8837e-15 
     6348.0  2.9172e-15 
     6350.0  2.8568e-15 
     6352.0  2.9038e-15 
     6354.0  2.8681e-15 
     6356.0  2.7979e-15 
     6358.0  3.0069e-15 
     6360.0  2.9131e-15 
     6362.0  2.9006e-15 
     6364.0  2.7784e-15 
     6366.0  2.8785e-15 
     6368.0  2.9952e-15 
     6370.0  2.9806e-15 
     6372.0  2.8213e-15 
     6374.0  2.9246e-15 
     6376.0  2.8927e-15 
     6378.0  3.0369e-15 
     6380.0  2.9285e-15 
     6382.0  2.9741e-15 
     6384.0  2.9709e-15 
     6386.0  2.9147e-15 
     6388.0  3.0093e-15 
     6390.0  3.0637e-15 
     6392.0  3.0202e-15 
     6394.0  2.9893e-15 
     6396.0  3.0003e-15 
     6398.0  2.8653e-15 
     6400.0   2.868e-15 
     6402.0  2.8825e-15 
     6404.0  2.7742e-15 
     6406.0  2.9525e-15 
     6408.0  2.9424e-15 
     6410.0  2.9494e-15 
     6412.0  2.8862e-15 
     6414.0  2.7628e-15 
     6416.0  2.7939e-15 
     6418.0  2.9562e-15 
     6420.0  2.8821e-15 
     6422.0  2.8905e-15 
     6424.0  3.0108e-15 
     6426.0  2.8947e-15 
     6428.0  2.9904e-15 
     6430.0  3.0072e-15 
     6432.0  2.9231e-15 
     6434.0  2.8645e-15 
     6436.0  2.9006e-15 
     6438.0  2.9631e-15 
     6440.0   2.884e-15 
     6442.0  2.9617e-15 
     6444.0  2.8476e-15 
     6446.0  2.9799e-15 
     6448.0  2.8269e-15 
     6450.0   2.899e-15 
     6452.0  2.9083e-15 
     6454.0   2.934e-15 
     6456.0  2.9523e-15 
     6458.0  2.9452e-15 
     6460.0  2.8815e-15 
     6462.0  2.8808e-15 
     6464.0  2.9187e-15 
     6466.0  2.9129e-15 
     6468.0  2.8478e-15 
     6470.0  2.9634e-15 
     6472.0  2.9039e-15 
     6474.0  2.8506e-15 
     6476.0  2.8535e-15 
     6478.0  2.7974e-15 
     6480.0  2.8421e-15 
     6482.0  2.8585e-15 
     6484.0  2.8318e-15 
     6486.0   2.899e-15 
     6488.0  2.8997e-15 
     6490.0  2.8213e-15 
     6492.0  2.8501e-15 
     6494.0  2.7433e-15 
     6496.0  2.6509e-15 
     6498.0  2.9178e-15 
     6500.0  2.7304e-15 
     6502.0  2.8421e-15 
     6504.0  2.7353e-15 
     6506.0  2.7099e-15 
     6508.0  2.7067e-15 
     6510.0  2.7925e-15 
     6512.0  2.6186e-15 
     6514.0  2.5484e-15 
     6516.0  2.6226e-15 
     6518.0  2.6824e-15 
     6520.0  2.5756e-15 
     6522.0  2.6512e-15 
     6524.0  2.6875e-15 
     6526.0  2.6409e-15 
     6528.0   2.589e-15 
     6530.0  2.5981e-15 
     6532.0  2.5839e-15 
     6534.0  2.5753e-15 
     6536.0  2.5621e-15 
     6538.0  2.5767e-15 
     6540.0  2.6597e-15 
     6542.0  2.5538e-15 
     6544.0  2.3926e-15 
     6546.0  2.5246e-15 
     6548.0  2.5323e-15 
     6550.0  2.6561e-15 
     6552.0  2.6027e-15 
     6554.0  2.6029e-15 
     6556.0  2.6355e-15 
     6558.0  2.6713e-15 
     6560.0  2.8155e-15 
     6562.0  2.7413e-15 
     6564.0  2.6868e-15 
     6566.0  2.7506e-15 
     6568.0  2.7775e-15 
     6570.0  2.7264e-15 
     6572.0  2.6269e-15 
     6574.0  2.5801e-15 
     6576.0  2.6172e-15 
     6578.0  2.6261e-15 
     6580.0  2.6231e-15 
     6582.0  2.6488e-15 
     6584.0  2.4488e-15 
     6586.0  2.7406e-15 
     6588.0  2.5954e-15 
     6590.0  2.6333e-15 
     6592.0  2.6549e-15 
     6594.0  2.7184e-15 
     6596.0  2.7705e-15 
     6598.0   2.733e-15 
     6600.0  2.7899e-15 
     6602.0   2.655e-15 
     6604.0  2.7543e-15 
     6606.0  2.8981e-15 
     6608.0  2.8536e-15 
     6610.0  2.8695e-15 
     6612.0  2.7923e-15 
     6614.0  2.8176e-15 
     6616.0  2.7472e-15 
     6618.0  2.7787e-15 
     6620.0  2.9117e-15 
     6622.0  2.8617e-15 
     6624.0   2.937e-15 
     6626.0  2.9706e-15 
     6628.0  2.8799e-15 
     6630.0  3.0002e-15 
     6632.0  2.8885e-15 
     6634.0  3.0259e-15 
     6636.0  2.9191e-15 
     6638.0  3.0367e-15 
     6640.0  2.9836e-15 
     6642.0   2.841e-15 
     6644.0  2.8976e-15 
     6646.0  2.9946e-15 
     6648.0  3.0418e-15 
     6650.0  3.0232e-15 
     6652.0  3.0624e-15 
     6654.0  2.9657e-15 
     6656.0  3.0526e-15 
     6658.0  3.0317e-15 
     6660.0  2.9828e-15 
     6662.0  2.9637e-15 
     6664.0  3.0862e-15 
     6666.0  3.1823e-15 
     6668.0  3.1482e-15 
     6670.0  3.0752e-15 
     6672.0  3.1632e-15 
     6674.0  3.1168e-15 
     6676.0  3.0775e-15 
     6678.0  2.9986e-15 
     6680.0  3.0878e-15 
     6682.0  3.1022e-15 
     6684.0   3.201e-15 
     6686.0  3.1312e-15 
     6688.0  3.2127e-15 
     6690.0  3.0724e-15 
     6692.0  3.1758e-15 
     6694.0  3.0866e-15 
     6696.0  3.1891e-15 
     6698.0  2.9727e-15 
     6700.0  3.1253e-15 
     6702.0  3.1746e-15 
     6704.0  3.2052e-15 
     6706.0   3.113e-15 
     6708.0  3.2387e-15 
     6710.0  3.2673e-15 
     6712.0  3.1121e-15 
     6714.0  3.1871e-15 
     6716.0  3.1755e-15 
     6718.0  3.1418e-15 
     6720.0  3.1504e-15 
     6722.0  3.1952e-15 
     6724.0  3.1639e-15 
     6726.0  3.1406e-15 
     6728.0  3.1947e-15 
     6730.0  3.2321e-15 
     6732.0  3.1057e-15 
     6734.0  3.0696e-15 
     6736.0  3.1676e-15 
     6738.0  3.1946e-15 
     6740.0  3.1086e-15 
     6742.0  3.0843e-15 
     6744.0  3.1832e-15 
     6746.0  3.1806e-15 
     6748.0  3.1337e-15 
     6750.0  3.2426e-15 
     6752.0  3.1585e-15 
     6754.0   3.033e-15 
     6756.0  3.1739e-15 
     6758.0  3.2137e-15 
     6760.0  3.1199e-15 
     6762.0   3.115e-15 
     6764.0  3.1543e-15 
     6766.0  3.0418e-15 
     6768.0  3.1893e-15 
     6770.0   3.135e-15 
     6772.0  3.1173e-15 
     6774.0  3.1915e-15 
     6776.0  3.0885e-15 
     6778.0  3.2218e-15 
     6780.0  3.0823e-15 
     6782.0  3.1361e-15 
     6784.0  3.2056e-15 
     6786.0  3.2196e-15 
     6788.0  3.0239e-15 
     6790.0  3.0554e-15 
     6792.0  3.1835e-15 
     6794.0  3.2234e-15 
     6796.0  3.1588e-15 
     6798.0  3.0326e-15 
     6800.0  3.1628e-15 
     6802.0  3.2239e-15 
     6804.0  3.0917e-15 
     6806.0  3.1942e-15 
     6808.0  3.1873e-15 
     6810.0  3.0468e-15 
     6812.0  3.0728e-15 
     6814.0  3.0383e-15 
     6816.0  3.1617e-15 
     6818.0  3.1711e-15 
     6820.0  3.0552e-15 
     6822.0  3.1958e-15 
     6824.0  3.1105e-15 
     6826.0  3.1475e-15 
     6828.0  3.0733e-15 
     6830.0  3.1775e-15 
     6832.0  3.1694e-15 
     6834.0  3.0902e-15 
     6836.0  3.0423e-15 
     6838.0  3.0995e-15 
     6840.0   3.064e-15 
     6842.0  3.1051e-15 
     6844.0   3.049e-15 
     6846.0  2.9418e-15 
     6848.0  3.1572e-15 
     6850.0  3.1311e-15 
     6852.0   3.096e-15 
     6854.0  3.0118e-15 
     6856.0   3.117e-15 
     6858.0  3.0635e-15 
     6860.0  2.9811e-15 
     6862.0  3.0597e-15 
     6864.0  3.0666e-15 
     6866.0  3.0067e-15 
     6868.0  2.8768e-15 
     6870.0  2.9789e-15 
     6872.0  3.0987e-15 
     6874.0  3.1117e-15 
     6876.0  3.0013e-15 
     6878.0   3.079e-15 
     6880.0  3.1981e-15 
     6882.0  3.1652e-15 
     6884.0  3.1068e-15 
     6886.0  2.9362e-15 
     6888.0  3.0431e-15 
     6890.0  3.0356e-15 
     6892.0  3.0557e-15 
     6894.0  3.0096e-15 
     6896.0  3.0187e-15 
     6898.0  3.2179e-15 
     6900.0  3.0823e-15 
     6902.0  3.0548e-15 
     6904.0  2.9937e-15 
     6906.0  3.0138e-15 
     6908.0   3.094e-15 
     6910.0  3.0219e-15 
     6912.0  3.0413e-15 
     6914.0  3.1199e-15 
     6916.0  3.0091e-15 
     6918.0  3.1319e-15 
     6920.0  3.1278e-15 
     6922.0  3.0229e-15 
     6924.0  2.9752e-15 
     6926.0  3.0135e-15 
     6928.0  2.9975e-15 
     6930.0  3.0697e-15 
     6932.0  3.0547e-15 
     6934.0  3.0489e-15 
     6936.0  3.1152e-15 
     6938.0  3.1165e-15 
     6940.0  2.9611e-15 
     6942.0  3.0317e-15 
     6944.0  2.9629e-15 
     6946.0  3.0952e-15 
     6948.0  2.9515e-15 
     6950.0   2.949e-15 
     6952.0   2.946e-15 
     6954.0  2.9673e-15 
     6956.0  3.0263e-15 
     6958.0  3.1096e-15 
     6960.0  2.9969e-15 
     6962.0   3.085e-15 
     6964.0  3.6924e-15 
     6966.0  4.5876e-15 
     6968.0  4.7415e-15 
     6970.0   3.772e-15 
     6972.0  3.1287e-15 
     6974.0   3.036e-15 
     6976.0  2.9228e-15 
     6978.0  2.9244e-15 
     6980.0  3.0116e-15 
     6982.0  3.0448e-15 
     6984.0  2.9045e-15 
     6986.0  3.0628e-15 
     6988.0  3.1494e-15 
     6990.0  3.0659e-15 
     6992.0  2.9589e-15 
     6994.0  2.9284e-15 
     6996.0  2.8906e-15 
     6998.0  2.8569e-15 
     7000.0  2.9185e-15 
     7002.0  2.9674e-15 
     7004.0  2.8507e-15 
     7006.0  2.9325e-15 
     7008.0  2.8405e-15 
     7010.0  2.8571e-15 
     7012.0  2.8718e-15 
     7014.0  2.9427e-15 
     7016.0  2.8596e-15 
     7018.0  2.9292e-15 
     7020.0  2.9524e-15 
     7022.0  2.8493e-15 
     7024.0  2.9116e-15 
     7026.0   2.903e-15 
     7028.0  2.9968e-15 
     7030.0  2.8198e-15 
     7032.0  2.8901e-15 
     7034.0  2.8658e-15 
     7036.0  2.9702e-15 
     7038.0  2.8816e-15 
     7040.0  2.9098e-15 
     7042.0  2.9121e-15 
     7044.0  2.8141e-15 
     7046.0  2.7944e-15 
     7048.0   2.882e-15 
     7050.0  2.9115e-15 
     7052.0  2.9817e-15 
     7054.0  2.9142e-15 
     7056.0  2.8308e-15 
     7058.0  2.8516e-15 
     7060.0  2.8241e-15 
     7062.0  2.9618e-15 
     7064.0  2.8649e-15 
     7066.0  2.8369e-15 
     7068.0  2.9022e-15 
     7070.0  2.8138e-15 
     7072.0  2.7104e-15 
     7074.0  2.7787e-15 
     7076.0  2.8427e-15 
     7078.0  2.8078e-15 
     7080.0  2.7681e-15 
     7082.0   2.748e-15 
     7084.0  2.8813e-15 
     7086.0  2.6702e-15 
     7088.0  2.8812e-15 
     7090.0   2.864e-15 
     7092.0  2.8112e-15 
     7094.0  2.7222e-15 
     7096.0   2.768e-15 
     7098.0  2.8019e-15 
     7100.0  2.8082e-15 
     7102.0   2.693e-15 
     7104.0   2.701e-15 
     7106.0  2.7712e-15 
     7108.0  2.6411e-15 
     7110.0  2.7827e-15 
     7112.0  2.7105e-15 
     7114.0  2.7507e-15 
     7116.0   2.736e-15 
     7118.0  2.7341e-15 
     7120.0  2.7936e-15 
     7122.0  2.6092e-15 
     7124.0  2.7293e-15 
     7126.0  2.7702e-15 
     7128.0  2.7777e-15 
     7130.0  2.8603e-15 
     7132.0  2.8901e-15 
     7134.0  2.6967e-15 
     7136.0  2.6047e-15 
     7138.0  2.7035e-15 
     7140.0  2.6777e-15 
     7142.0  2.7243e-15 
     7144.0  2.8027e-15 
     7146.0  2.9206e-15 
     7148.0  2.7818e-15 
     7150.0  2.8247e-15 
     7152.0  2.7232e-15 
     7154.0  2.6472e-15 
     7156.0  2.6925e-15 
     7158.0  2.6067e-15 
     7160.0  2.6805e-15 
     7162.0   2.632e-15 
     7164.0  2.7042e-15 
     7166.0   2.559e-15 
     7168.0   2.605e-15 
     7170.0  2.6311e-15 
     7172.0  2.6592e-15 
     7174.0  2.7012e-15 
     7176.0  2.5767e-15 
     7178.0   2.822e-15 
     7180.0  2.6504e-15 
     7182.0  2.6721e-15 
     7184.0   2.562e-15 
     7186.0  2.7415e-15 
     7188.0  2.6801e-15 
     7190.0  2.6458e-15 
     7192.0  2.5929e-15 
     7194.0  2.7595e-15 
     7196.0  2.6171e-15 
     7198.0  2.6606e-15 
     7200.0  2.5675e-15 
     7202.0  2.5324e-15 
     7204.0  2.5665e-15 
     7206.0  2.5076e-15 
     7208.0  2.5493e-15 
     7210.0  2.5543e-15 
     7212.0  2.5874e-15 
     7214.0  2.5673e-15 
     7216.0  2.5154e-15 
     7218.0  2.5225e-15 
     7220.0  2.6381e-15 
     7222.0  2.5444e-15 
     7224.0   2.542e-15 
     7226.0  2.2905e-15 
     7228.0  2.4542e-15 
     7230.0  2.3897e-15 
     7232.0  2.4159e-15 
     7234.0  2.4583e-15 
     7236.0  2.4963e-15 
     7238.0   2.526e-15 
     7240.0  2.5187e-15 
     7242.0  2.4829e-15 
     7244.0   2.627e-15 
     7246.0   2.534e-15 
     7248.0  2.4376e-15 
     7250.0  2.3443e-15 
     7252.0  2.4957e-15 
     7254.0  2.4069e-15 
     7256.0  2.4489e-15 
     7258.0  2.5423e-15 
     7260.0  2.5487e-15 
     7262.0  2.4561e-15 
     7264.0  2.5575e-15 
     7266.0   2.428e-15 
     7268.0  2.5317e-15 
     7270.0  2.5281e-15 
     7272.0  2.5112e-15 
     7274.0  2.6051e-15 
     7276.0  2.5256e-15 
     7278.0   2.602e-15 
     7280.0  2.4597e-15 
     7282.0  2.3623e-15 
     7284.0  2.3596e-15 
     7286.0  2.4222e-15 
     7288.0  2.4309e-15 
     7290.0  2.4185e-15 
     7292.0  2.4627e-15 
     7294.0  2.6055e-15 
     7296.0  2.5245e-15 
     7298.0  2.5097e-15 
     7300.0  2.4121e-15 
     7302.0   2.595e-15 
     7304.0  2.5718e-15 
     7306.0  2.5299e-15 
     7308.0  2.5597e-15 
     7310.0  2.4519e-15 
     7312.0  2.4923e-15 
     7314.0  2.5513e-15 
     7316.0  2.5321e-15 
     7318.0  2.4535e-15 
     7320.0  2.4276e-15 
     7322.0   2.467e-15 
     7324.0  2.4996e-15 
     7326.0  2.4458e-15 
     7328.0  2.5518e-15 
     7330.0  2.5172e-15 
     7332.0  2.4198e-15 
     7334.0  2.5374e-15 
     7336.0  2.6573e-15 
     7338.0  2.5169e-15 
     7340.0   2.621e-15 
     7342.0  2.5117e-15 
     7344.0  2.4505e-15 
     7346.0  2.5166e-15 
     7348.0   2.514e-15 
     7350.0   2.403e-15 
     7352.0  2.4094e-15 
     7354.0  2.5245e-15 
     7356.0  2.5194e-15 
     7358.0  2.4954e-15 
     7360.0  2.5137e-15 
     7362.0  2.4677e-15 
     7364.0  2.4663e-15 
     7366.0  2.4265e-15 
     7368.0  2.5313e-15 
     7370.0  2.5083e-15 
     7372.0  2.4603e-15 
     7374.0   2.447e-15 
     7376.0  2.4807e-15 
     7378.0  2.5722e-15 
     7380.0  2.5386e-15 
     7382.0  2.5064e-15 
     7384.0  2.4983e-15 
     7386.0  2.4733e-15 
     7388.0  2.5694e-15 
     7390.0  2.5643e-15 
     7392.0  2.5547e-15 
     7394.0  2.5195e-15 
     7396.0  2.4713e-15 
     7398.0  2.4965e-15 
     7400.0  2.5349e-15 
     7402.0  2.4338e-15 
     7404.0  2.4956e-15 
     7406.0  2.4875e-15 
     7408.0  2.4856e-15 
     7410.0  2.5115e-15 
     7412.0  2.4749e-15 
     7414.0  2.4869e-15 
     7416.0  2.4468e-15 
     7418.0  2.5711e-15 
     7420.0  2.4005e-15 
     7422.0  2.4467e-15 
     7424.0   2.383e-15 
     7426.0  2.4646e-15 
     7428.0  2.4628e-15 
     7430.0  2.3756e-15 
     7432.0  2.4318e-15 
     7434.0  2.3527e-15 
     7436.0   2.419e-15 
     7438.0  2.6179e-15 
     7440.0  2.3977e-15 
     7442.0  2.3046e-15 
     7444.0   2.344e-15 
     7446.0  2.4073e-15 
     7448.0  2.3422e-15 
     7450.0  2.5016e-15 
     7452.0  2.4476e-15 
     7454.0    2.37e-15 
     7456.0  2.3724e-15 
     7458.0  2.4987e-15 
     7460.0  2.5091e-15 
     7462.0  2.5022e-15 
     7464.0  2.4622e-15 
     7466.0  2.4153e-15 
     7468.0     2.5e-15 
     7470.0  2.5224e-15 
     7472.0   2.542e-15 
     7474.0  2.4196e-15 
     7476.0  2.4871e-15 
     7478.0  2.4827e-15 
     7480.0  2.4781e-15 
     7482.0  2.5773e-15 
     7484.0  2.4587e-15 
     7486.0  2.5422e-15 
     7488.0  2.5614e-15 
     7490.0  2.3607e-15 
     7492.0  2.3782e-15 
     7494.0    2.42e-15 
     7496.0  2.5886e-15 
     7498.0  2.5815e-15 
     7500.0  2.6552e-15 
     7502.0  2.5459e-15 
     7504.0  2.4926e-15 
     7506.0  2.4465e-15 
     7508.0  2.5411e-15 
     7510.0  2.5469e-15 
     7512.0  2.5798e-15 
     7514.0  2.4154e-15 
     7516.0  2.3076e-15 
     7518.0   2.435e-15 
     7520.0  2.4843e-15 
     7522.0  2.3903e-15 
     7524.0   2.561e-15 
     7526.0  2.4597e-15 
     7528.0  2.4996e-15 
     7530.0  2.3556e-15 
     7532.0  2.4213e-15 
     7534.0  2.4376e-15 
     7536.0  2.5467e-15 
     7538.0   2.507e-15 
     7540.0  2.5198e-15 
     7542.0  2.4775e-15 
     7544.0  2.5728e-15 
     7546.0   2.427e-15 
     7548.0   2.368e-15 
     7550.0  2.5414e-15 
     7552.0  2.5163e-15 
     7554.0  2.4464e-15 
     7556.0  2.5238e-15 
     7558.0  2.4244e-15 
     7560.0  2.4976e-15 
     7562.0  2.5418e-15 
     7564.0  2.5251e-15 
     7566.0  2.4363e-15 
     7568.0  2.5129e-15 
     7570.0  2.5351e-15 
     7572.0   2.518e-15 
     7574.0  2.5071e-15 
     7576.0  2.4681e-15 
     7578.0  2.5141e-15 
     7580.0   2.455e-15 
     7582.0  2.5786e-15 
     7584.0  2.5311e-15 
     7586.0  2.6713e-15 
     7588.0  2.6316e-15 
     7590.0  2.4678e-15 
     7592.0  2.5959e-15 
     7594.0  2.4503e-15 
     7596.0  2.4632e-15 
     7598.0  2.5048e-15 
     7600.0  2.4031e-15 
     7602.0    2.52e-15 
     7604.0  2.2937e-15 
     7606.0  2.5539e-15 
     7608.0   2.745e-15 
     7610.0  2.6344e-15 
     7612.0  2.7996e-15 
     7614.0  2.5335e-15 
     7616.0  2.8804e-15 
     7618.0  2.8167e-15 
     7620.0  2.6939e-15 
     7622.0  2.5293e-15 
     7624.0  2.6169e-15 
     7626.0  2.5345e-15 
     7628.0  2.6462e-15 
     7630.0  2.5158e-15 
     7632.0  2.5866e-15 
     7634.0  2.5361e-15 
     7636.0  2.6876e-15 
     7638.0  2.4214e-15 
     7640.0   2.531e-15 
     7642.0  2.6272e-15 
     7644.0   2.588e-15 
     7646.0  2.7009e-15 
     7648.0  2.6809e-15 
     7650.0  2.7129e-15 
     7652.0  2.5487e-15 
     7654.0  2.6012e-15 
     7656.0  2.6091e-15 
     7658.0  2.5886e-15 
     7660.0  2.6186e-15 
     7662.0  2.5187e-15 
     7664.0  2.5187e-15 
     7666.0  2.4221e-15 
     7668.0  2.5033e-15 
     7670.0  2.5546e-15 
     7672.0  2.5259e-15 
     7674.0   2.624e-15 
     7676.0  2.5759e-15 
     7678.0  2.5068e-15 
     7680.0   2.689e-15 
     7682.0  2.6239e-15 
     7684.0  2.5321e-15 
     7686.0  2.5247e-15 
     7688.0  2.5264e-15 
     7690.0  2.5469e-15 
     7692.0  2.5851e-15 
     7694.0  2.5402e-15 
     7696.0  2.4587e-15 
     7698.0  2.5338e-15 
     7700.0  2.4246e-15 
     7702.0  2.4452e-15 
     7704.0  2.4401e-15 
     7706.0  2.4776e-15 
     7708.0  2.5063e-15 
     7710.0  2.4314e-15 
     7712.0  2.5572e-15 
     7714.0  2.4648e-15 
     7716.0   2.532e-15 
     7718.0  2.4231e-15 
     7720.0  2.4878e-15 
     7722.0  2.5746e-15 
     7724.0  2.4797e-15 
     7726.0  2.5523e-15 
     7728.0  2.5348e-15 
     7730.0  2.3995e-15 
     7732.0  2.4215e-15 
     7734.0  2.4812e-15 
     7736.0  2.4408e-15 
     7738.0  2.4798e-15 
     7740.0   2.345e-15 
     7742.0  2.5391e-15 
     7744.0  2.5182e-15 
     7746.0  2.4993e-15 
     7748.0  2.5326e-15 
     7750.0  2.5423e-15 
     7752.0  2.5345e-15 
     7754.0   2.455e-15 
     7756.0  2.5227e-15 
     7758.0  2.5391e-15 
     7760.0  2.4957e-15 
     7762.0  2.5327e-15 
     7764.0  2.4205e-15 
     7766.0   2.467e-15 
     7768.0  2.3965e-15 
     7770.0  2.5946e-15 
     7772.0  2.5335e-15 
     7774.0  2.4671e-15 
     7776.0  2.4078e-15 
     7778.0  2.5639e-15 
     7780.0  2.5301e-15 
     7782.0  2.3671e-15 
     7784.0    2.41e-15 
     7786.0  2.3607e-15 
     7788.0  2.5205e-15 
     7790.0  2.5218e-15 
     7792.0  2.3894e-15 
     7794.0  2.3655e-15 
     7796.0  2.2971e-15 
     7798.0   2.298e-15 
     7800.0  2.3287e-15 
     7802.0  2.3723e-15 
     7804.0  2.3679e-15 
     7806.0  2.4631e-15 
     7808.0  2.3888e-15 
     7810.0  2.4845e-15 
     7812.0  2.2685e-15 
     7814.0  2.3693e-15 
     7816.0   2.391e-15 
     7818.0  2.3835e-15 
     7820.0  2.3528e-15 
     7822.0  2.2721e-15 
     7824.0   2.335e-15 
     7826.0  2.2952e-15 
     7828.0  2.4694e-15 
     7830.0  2.3358e-15 
     7832.0  2.4027e-15 
     7834.0  2.3861e-15 
     7836.0  2.3354e-15 
     7838.0  2.3186e-15 
     7840.0  2.2802e-15 
     7842.0  2.2632e-15 
     7844.0  2.3943e-15 
     7846.0  2.2643e-15 
     7848.0  2.3453e-15 
     7850.0  2.3004e-15 
     7852.0  2.4171e-15 
     7854.0  2.3262e-15 
     7856.0  2.2949e-15 
     7858.0  2.2874e-15 
     7860.0   2.269e-15 
     7862.0   2.242e-15 
     7864.0  2.1274e-15 
     7866.0  2.2346e-15 
     7868.0   2.157e-15 
     7870.0  2.3511e-15 
     7872.0  2.1993e-15 
     7874.0  2.1567e-15 
     7876.0  2.1833e-15 
     7878.0  2.3269e-15 
     7880.0   2.282e-15 
     7882.0  2.2512e-15 
     7884.0  2.1848e-15 
     7886.0  2.1933e-15 
     7888.0  2.2042e-15 
     7890.0  2.1875e-15 
     7892.0   2.198e-15 
     7894.0  2.1807e-15 
     7896.0  2.0816e-15 
     7898.0  2.2299e-15 
     7900.0   2.219e-15 
     7902.0  2.1379e-15 
     7904.0  2.2264e-15 
     7906.0  2.0894e-15 
     7908.0  2.1757e-15 
     7910.0  2.2544e-15 
     7912.0  2.3158e-15 
     7914.0  2.2161e-15 
     7916.0  2.2172e-15 
     7918.0  2.1283e-15 
     7920.0  2.1371e-15 
     7922.0  2.0394e-15 
     7924.0  2.1354e-15 
     7926.0  2.0058e-15 
     7928.0   2.034e-15 
     7930.0  2.0358e-15 
     7932.0  2.0787e-15 
     7934.0  2.0317e-15 
     7936.0  1.9512e-15 
     7938.0  2.1033e-15 
     7940.0  2.1283e-15 
     7942.0  1.9462e-15 
     7944.0  1.9966e-15 
     7946.0   1.965e-15 
     7948.0  1.9699e-15 
     7950.0   2.038e-15 
     7952.0  1.8415e-15 
     7954.0  1.7955e-15 
     7956.0  1.8916e-15 
     7958.0  1.8274e-15 
     7960.0  1.9954e-15 
     7962.0  2.0397e-15 
     7964.0  1.9508e-15 
     7966.0  1.9039e-15 
     7968.0  1.8391e-15 
     7970.0  1.7685e-15 
     7972.0  1.8141e-15 
     7974.0  1.6753e-15 
     7976.0  1.7549e-15 
     7978.0  1.8145e-15 
     7980.0  1.8017e-15 
     7982.0  1.6917e-15 
     7984.0   1.765e-15 
     7986.0  1.6769e-15 
     7988.0  1.7025e-15 
     7990.0  1.6976e-15 
     7992.0  1.8204e-15 
     7994.0   2.067e-15 
     7996.0  1.7981e-15 
     7998.0   1.723e-15 
     8000.0  1.7677e-15 
     8002.0  1.8028e-15 
     8004.0   1.824e-15 
     8006.0  1.7296e-15 
     8008.0  1.9076e-15 
     8010.0  1.8609e-15 
     8012.0  1.9689e-15 
     8014.0  1.8908e-15 
     8016.0  1.8875e-15 
     8018.0  1.8199e-15 
     8020.0  1.8876e-15 
     8022.0  1.7748e-15 
     8024.0  1.9932e-15 
     8026.0  1.9922e-15 
     8028.0  1.9576e-15 
     8030.0  1.8103e-15 
     8032.0  1.8529e-15 
     8034.0  1.9013e-15 
     8036.0  1.8824e-15 
     8038.0  1.8506e-15 
     8040.0   1.873e-15 
     8042.0   1.845e-15 
     8044.0  1.8912e-15 
     8046.0  1.8883e-15 
     8048.0  1.9425e-15 
     8050.0  1.9818e-15 
     8052.0  1.9101e-15 
     8054.0  1.9377e-15 
     8056.0  2.0112e-15 
     8058.0    1.95e-15 
     8060.0  2.0335e-15 
     8062.0  1.9711e-15 
     8064.0  1.9651e-15 
     8066.0  2.0515e-15 
     8068.0  2.0743e-15 
     8070.0  2.0417e-15 
     8072.0   1.988e-15 
     8074.0  1.9009e-15 
     8076.0  1.9713e-15 
     8078.0   2.008e-15 
     8080.0  2.0501e-15 
     8082.0  2.1254e-15 
     8084.0  2.0625e-15 
     8086.0  2.0328e-15 
     8088.0  1.9981e-15 
     8090.0  2.0027e-15 
     8092.0  2.1342e-15 
     8094.0  2.0978e-15 
     8096.0   2.093e-15 
     8098.0    2.11e-15 
     8100.0  2.0628e-15 
     8102.0  2.0968e-15 
     8104.0   2.027e-15 
     8106.0  2.0827e-15 
     8108.0  2.1319e-15 
     8110.0  2.0938e-15 
     8112.0  2.0985e-15 
     8114.0   2.071e-15 
     8116.0  2.0565e-15 
     8118.0  2.0738e-15 
     8120.0  2.1187e-15 
     8122.0  2.1626e-15 
     8124.0  2.1035e-15 
     8126.0   2.133e-15 
     8128.0  2.0868e-15 
     8130.0  2.1704e-15 
     8132.0   2.233e-15 
     8134.0  2.1973e-15 
     8136.0  2.1681e-15 
     8138.0  2.1726e-15 
     8140.0  2.1756e-15 
     8142.0  2.1941e-15 
     8144.0  2.2421e-15 
     8146.0  2.2139e-15 
     8148.0  2.1718e-15 
     8150.0  2.2165e-15 
     8152.0  2.3565e-15 
     8154.0  2.3509e-15 
     8156.0  2.3321e-15 
     8158.0  2.3375e-15 
     8160.0  2.3222e-15 
     8162.0  2.3539e-15 
     8164.0  2.4122e-15 
     8166.0  2.3713e-15 
     8168.0  2.1777e-15 
     8170.0  2.3508e-15 
     8172.0  2.4013e-15 
     8174.0  2.4278e-15 
     8176.0  2.3607e-15 
     8178.0  2.2534e-15 
     8180.0  2.3933e-15 
     8182.0  2.3443e-15 
     8184.0  2.3421e-15 
     8186.0  2.3209e-15 
     8188.0  2.2253e-15 
     8190.0  2.3946e-15 
     8192.0  2.3775e-15 
     8194.0  2.3577e-15 
     8196.0  2.3948e-15 
     8198.0  2.4258e-15 
     8200.0  2.3431e-15 
     8202.0  2.4625e-15 
     8204.0  2.4206e-15 
     8206.0  2.3892e-15 
     8208.0  2.3698e-15 
     8210.0   2.333e-15 
     8212.0  2.4735e-15 
     8214.0  2.4753e-15 
     8216.0  2.4058e-15 
     8218.0  2.4405e-15 
     8220.0  2.4067e-15 
     8222.0  2.4658e-15 
     8224.0  2.5503e-15 
     8226.0  2.4481e-15 
     8228.0  2.4802e-15 
     8230.0  2.5118e-15 
     8232.0  2.6209e-15 
     8234.0  2.5736e-15 
     8236.0  2.6567e-15 
     8238.0  2.5296e-15 
     8240.0  2.5282e-15 
     8242.0  2.5192e-15 
     8244.0   2.572e-15 
     8246.0   2.512e-15 
     8248.0  2.5891e-15 
     8250.0  2.3674e-15 
     8252.0  2.6089e-15 
     8254.0   2.526e-15 
     8256.0  2.5788e-15 
     8258.0  2.3825e-15 
     8260.0  2.3871e-15 
     8262.0  2.4843e-15 
     8264.0  2.4285e-15 
     8266.0  2.4522e-15 
     8268.0  2.5231e-15 
     8270.0  2.4565e-15 
     8272.0  2.4495e-15 
     8274.0   2.514e-15 
     8276.0  2.5384e-15 
     8278.0  2.6473e-15 
     8280.0  2.6148e-15 
     8282.0  2.6125e-15 
     8284.0  2.6045e-15 
     8286.0  2.3963e-15 
     8288.0  2.5567e-15 
     8290.0  2.3932e-15 
     8292.0  2.4043e-15 
     8294.0  2.4127e-15 
     8296.0  2.5455e-15 
     8298.0    2.47e-15 
     8300.0  2.4875e-15 
     8302.0  2.3768e-15 
     8304.0  2.5703e-15 
     8306.0  2.4479e-15 
     8308.0  2.5623e-15 
     8310.0  2.5699e-15 
     8312.0  2.5866e-15 
     8314.0  2.5161e-15 
     8316.0   2.438e-15 
     8318.0  2.4739e-15 
     8320.0  2.4726e-15 
     8322.0  2.6469e-15 
     8324.0  2.5503e-15 
     8326.0  2.5879e-15 
     8328.0  2.6303e-15 
     8330.0  2.4611e-15 
     8332.0  2.6378e-15 
     8334.0  2.3072e-15 
     8336.0  2.4488e-15 
     8338.0  2.3475e-15 
     8340.0  2.4481e-15 
     8342.0  2.5228e-15 
     8344.0  2.5697e-15 
     8346.0  2.3188e-15 
     8348.0  2.3503e-15 
     8350.0  2.1679e-15 
     8352.0  2.4079e-15 
     8354.0  2.5762e-15 
     8356.0  2.5493e-15 
     8358.0  2.2429e-15 
     8360.0  2.4401e-15 
     8362.0  2.4617e-15 
     8364.0  2.4419e-15 
     8366.0  2.5569e-15 
     8368.0  2.2625e-15 
     8370.0   2.359e-15 
     8372.0  2.3036e-15 
     8374.0   2.495e-15 
     8376.0  2.4218e-15 
     8378.0  2.4501e-15 
     8380.0  2.5067e-15 
     8382.0  2.4022e-15 
     8384.0  2.5099e-15 
     8386.0  2.5493e-15 
     8388.0  2.2629e-15 
     8390.0  2.2237e-15 
     8392.0  2.4606e-15 
     8394.0  2.2074e-15 
     8396.0  2.4047e-15 
     8398.0  2.5891e-15 
     8400.0  2.2852e-15 
