# STATUS =
# OBJECT = 2020rmv
# TELESCOPE = Clay
# INSTRUMENT = LDSS3-C
# DATE-OBS = 2020-12-06
# MJD = 59189.07
# EXPTIME = 0
# AIRMASS =
# SLIT = 0
# DISPERSER =
# SOURCE =
# FILTER =
# RESOLUTION =
# FLUX_STANDARD = True
# EXTINCTION_CORRECTED = True
# PHOTOMETRY_CALIBRATED = True
# TELLURIC_CORRECTED = True
# FLUX_UNITS = Other
# WAVE_UNITS = Angstrom
# COMMENT =
    Wavelength       Flux
3000.000000 9.941120e-01
3010.000000 8.525651e-01
3020.000000 1.435896e+00
3030.000000 1.704371e+00
3040.000000 1.515263e+00
3050.000000 1.539898e+00
3060.000000 1.621394e+00
3070.000000 1.660624e+00
3080.000000 1.457403e+00
3090.000000 1.453214e+00
3100.000000 1.480870e+00
3110.000000 1.399412e+00
3120.000000 1.474721e+00
3130.000000 1.570934e+00
3140.000000 1.695866e+00
3150.000000 1.554463e+00
3160.000000 1.480589e+00
3170.000000 1.358464e+00
3180.000000 1.474201e+00
3190.000000 1.322261e+00
3200.000000 1.410894e+00
3210.000000 1.492764e+00
3220.000000 1.514776e+00
3230.000000 1.516027e+00
3240.000000 1.427522e+00
3250.000000 1.516571e+00
3260.000000 1.624364e+00
3270.000000 1.376200e+00
3280.000000 1.374064e+00
3290.000000 1.239726e+00
3300.000000 1.327591e+00
3310.000000 1.337884e+00
3320.000000 1.355841e+00
3330.000000 1.331693e+00
3340.000000 1.318101e+00
3350.000000 1.400535e+00
3360.000000 1.445220e+00
3370.000000 1.421595e+00
3380.000000 1.388111e+00
3390.000000 1.392934e+00
3400.000000 1.416541e+00
3410.000000 1.383639e+00
3420.000000 1.373258e+00
3430.000000 1.476753e+00
3440.000000 1.491251e+00
3450.000000 1.471497e+00
3460.000000 1.420531e+00
3470.000000 1.363563e+00
3480.000000 1.399803e+00
3490.000000 1.422554e+00
3500.000000 1.407412e+00
3510.000000 1.415514e+00
3520.000000 1.436001e+00
3530.000000 1.546771e+00
3540.000000 1.634148e+00
3550.000000 1.660507e+00
3560.000000 1.781455e+00
3570.000000 1.774927e+00
3580.000000 1.811424e+00
3590.000000 1.864033e+00
3600.000000 1.776593e+00
3610.000000 1.754219e+00
3620.000000 1.741107e+00
3630.000000 1.677740e+00
3640.000000 1.565588e+00
3650.000000 1.401790e+00
3660.000000 1.397966e+00
3670.000000 1.489365e+00
3680.000000 1.566257e+00
3690.000000 1.696676e+00
3700.000000 1.806552e+00
3710.000000 1.822471e+00
3720.000000 1.815700e+00
3730.000000 1.788801e+00
3740.000000 1.748812e+00
3750.000000 1.674084e+00
3760.000000 1.612960e+00
3770.000000 1.585124e+00
3780.000000 1.531638e+00
3790.000000 1.556029e+00
3800.000000 1.652272e+00
3810.000000 1.656714e+00
3820.000000 1.560632e+00
3830.000000 1.524640e+00
3840.000000 1.486393e+00
3850.000000 1.471471e+00
3860.000000 1.466699e+00
3870.000000 1.482944e+00
3880.000000 1.561506e+00
3890.000000 1.654223e+00
3900.000000 1.746259e+00
3910.000000 1.808958e+00
3920.000000 1.925995e+00
3930.000000 1.983204e+00
3940.000000 2.007961e+00
3950.000000 2.043218e+00
3960.000000 2.043248e+00
3970.000000 2.040528e+00
3980.000000 2.047704e+00
3990.000000 2.081527e+00
4000.000000 2.036472e+00
4010.000000 2.005971e+00
4020.000000 1.950148e+00
4030.000000 1.847219e+00
4040.000000 1.735726e+00
4050.000000 1.583807e+00
4060.000000 1.536328e+00
4070.000000 1.599594e+00
4080.000000 1.682661e+00
4090.000000 1.702715e+00
4100.000000 1.721606e+00
4110.000000 1.715753e+00
4120.000000 1.699518e+00
4130.000000 1.766804e+00
4140.000000 1.790349e+00
4150.000000 1.736404e+00
4160.000000 1.682323e+00
4170.000000 1.635748e+00
4180.000000 1.579066e+00
4190.000000 1.586716e+00
4200.000000 1.605235e+00
4210.000000 1.598506e+00
4220.000000 1.587742e+00
4230.000000 1.600581e+00
4240.000000 1.653586e+00
4250.000000 1.683209e+00
4260.000000 1.630754e+00
4270.000000 1.572370e+00
4280.000000 1.577620e+00
4290.000000 1.572775e+00
4300.000000 1.593645e+00
4310.000000 1.614245e+00
4320.000000 1.613629e+00
4330.000000 1.574895e+00
4340.000000 1.554267e+00
4350.000000 1.469428e+00
4360.000000 1.360937e+00
4370.000000 1.306053e+00
4380.000000 1.230595e+00
4390.000000 1.168059e+00
4400.000000 1.148695e+00
4410.000000 1.210112e+00
4420.000000 1.259969e+00
4430.000000 1.291494e+00
4440.000000 1.318875e+00
4450.000000 1.360323e+00
4460.000000 1.396231e+00
4470.000000 1.450476e+00
4480.000000 1.507320e+00
4490.000000 1.523079e+00
4500.000000 1.538937e+00
4510.000000 1.592731e+00
4520.000000 1.642710e+00
4530.000000 1.635599e+00
4540.000000 1.630640e+00
4550.000000 1.702288e+00
4560.000000 1.735803e+00
4570.000000 1.754524e+00
4580.000000 1.749594e+00
4590.000000 1.784766e+00
4600.000000 1.823917e+00
4610.000000 1.842505e+00
4620.000000 1.847281e+00
4630.000000 1.796791e+00
4640.000000 1.755793e+00
4650.000000 1.728835e+00
4660.000000 1.688744e+00
4670.000000 1.632779e+00
4680.000000 1.571438e+00
4690.000000 1.543118e+00
4700.000000 1.508340e+00
4710.000000 1.468431e+00
4720.000000 1.398120e+00
4730.000000 1.329336e+00
4740.000000 1.316863e+00
4750.000000 1.286697e+00
4760.000000 1.287007e+00
4770.000000 1.260810e+00
4780.000000 1.165991e+00
4790.000000 1.145902e+00
4800.000000 1.174500e+00
4810.000000 1.195298e+00
4820.000000 1.188736e+00
4830.000000 1.194674e+00
4840.000000 1.224715e+00
4850.000000 1.218909e+00
4860.000000 1.222393e+00
4870.000000 1.208989e+00
4880.000000 1.189706e+00
4890.000000 1.200299e+00
4900.000000 1.230525e+00
4910.000000 1.223251e+00
4920.000000 1.197322e+00
4930.000000 1.207395e+00
4940.000000 1.236507e+00
4950.000000 1.269684e+00
4960.000000 1.297177e+00
4970.000000 1.285323e+00
4980.000000 1.313051e+00
4990.000000 1.338852e+00
5000.000000 1.288134e+00
5010.000000 1.251744e+00
5020.000000 1.212491e+00
5030.000000 1.158807e+00
5040.000000 1.144312e+00
5050.000000 1.161794e+00
5060.000000 1.158912e+00
5070.000000 1.145906e+00
5080.000000 1.134105e+00
5090.000000 1.165653e+00
5100.000000 1.206412e+00
5110.000000 1.234133e+00
5120.000000 1.224660e+00
5130.000000 1.210600e+00
5140.000000 1.224002e+00
5150.000000 1.243058e+00
5160.000000 1.220813e+00
5170.000000 1.193824e+00
5180.000000 1.227125e+00
5190.000000 1.270344e+00
5200.000000 1.307879e+00
5210.000000 1.308671e+00
5220.000000 1.308999e+00
5230.000000 1.327184e+00
5240.000000 1.364864e+00
5250.000000 1.403414e+00
5260.000000 1.394708e+00
5270.000000 1.405046e+00
5280.000000 1.435601e+00
5290.000000 1.459372e+00
5300.000000 1.434326e+00
5310.000000 1.417949e+00
5320.000000 1.391262e+00
5330.000000 1.357786e+00
5340.000000 1.348860e+00
5350.000000 1.342220e+00
5360.000000 1.315303e+00
5370.000000 1.290589e+00
5380.000000 1.256719e+00
5390.000000 1.245081e+00
5400.000000 1.253826e+00
5410.000000 1.262548e+00
5420.000000 1.233827e+00
5430.000000 1.243153e+00
5440.000000 1.073859e+00
5450.000000 1.009700e+00
5460.000000 1.104421e+00
5470.000000 1.128817e+00
5480.000000 1.151719e+00
5490.000000 1.141860e+00
5500.000000 1.134650e+00
5510.000000 1.123602e+00
5520.000000 1.109439e+00
5530.000000 1.090020e+00
5540.000000 1.043217e+00
5550.000000 1.022594e+00
5560.000000 1.012145e+00
5570.000000 9.972530e-01
5580.000000 9.951433e-01
5590.000000 9.771023e-01
5600.000000 9.739412e-01
5610.000000 9.733684e-01
5620.000000 9.764179e-01
5630.000000 9.798728e-01
5640.000000 9.548982e-01
5650.000000 9.344407e-01
5660.000000 9.365526e-01
5670.000000 9.228498e-01
5680.000000 8.865835e-01
5690.000000 8.305472e-01
5700.000000 8.021561e-01
5710.000000 7.948006e-01
5720.000000 8.013157e-01
5730.000000 7.614440e-01
5740.000000 7.379888e-01
5750.000000 7.591268e-01
5760.000000 7.614052e-01
5770.000000 7.643163e-01
5780.000000 7.515022e-01
5790.000000 7.498857e-01
5800.000000 7.607173e-01
5810.000000 7.689092e-01
5820.000000 7.693550e-01
5830.000000 7.844090e-01
5840.000000 7.779567e-01
5850.000000 7.806561e-01
5860.000000 7.921816e-01
5870.000000 7.954607e-01
5880.000000 7.984945e-01
5890.000000 8.154314e-01
5900.000000 8.326093e-01
5910.000000 8.465264e-01
5920.000000 8.527083e-01
5930.000000 8.682832e-01
5940.000000 8.753119e-01
5950.000000 8.642394e-01
5960.000000 8.383736e-01
5970.000000 7.979983e-01
5980.000000 7.673815e-01
5990.000000 7.667961e-01
6000.000000 7.779995e-01
6010.000000 7.690960e-01
6020.000000 4.315388e-01
6030.000000 3.225181e-01
6040.000000 4.770224e-01
6050.000000 4.380757e-01
6060.000000 5.543643e-01
6070.000000 6.831763e-01
6080.000000 7.597176e-01
6090.000000 7.948599e-01
6100.000000 8.314222e-01
6110.000000 8.611405e-01
6120.000000 8.615729e-01
6130.000000 8.673937e-01
6140.000000 8.856053e-01
6150.000000 8.693230e-01
6160.000000 8.318296e-01
6170.000000 7.886004e-01
6180.000000 7.538631e-01
6190.000000 7.199434e-01
6200.000000 7.119430e-01
6210.000000 6.831474e-01
6220.000000 6.576207e-01
6230.000000 6.604193e-01
6240.000000 6.479029e-01
6250.000000 6.450526e-01
6260.000000 6.677242e-01
6270.000000 6.914755e-01
6280.000000 7.157074e-01
6290.000000 7.437254e-01
6300.000000 7.965303e-01
6310.000000 8.322672e-01
6320.000000 8.437995e-01
6330.000000 8.678626e-01
6340.000000 8.865724e-01
6350.000000 8.977067e-01
6360.000000 9.093790e-01
6370.000000 9.275041e-01
6380.000000 9.308358e-01
6390.000000 9.252924e-01
6400.000000 9.278140e-01
6410.000000 9.261196e-01
6420.000000 9.286694e-01
6430.000000 9.100299e-01
6440.000000 8.832687e-01
6450.000000 8.633199e-01
6460.000000 8.443282e-01
6470.000000 8.181988e-01
6480.000000 8.023118e-01
6490.000000 7.917375e-01
6500.000000 7.991846e-01
6510.000000 8.082350e-01
6520.000000 7.645693e-01
6530.000000 7.876527e-01
6540.000000 7.929941e-01
6550.000000 7.691902e-01
6560.000000 7.448086e-01
6570.000000 7.302440e-01
6580.000000 7.168799e-01
6590.000000 7.088142e-01
6600.000000 7.081564e-01
6610.000000 6.903263e-01
6620.000000 6.842303e-01
6630.000000 6.771812e-01
6640.000000 6.726918e-01
6650.000000 6.700428e-01
6660.000000 6.490320e-01
6670.000000 7.717414e-01
6680.000000 7.337152e-01
6690.000000 6.435740e-01
6700.000000 6.237404e-01
6710.000000 6.143200e-01
6720.000000 6.251787e-01
6730.000000 6.193874e-01
6740.000000 6.119326e-01
6750.000000 6.009230e-01
6760.000000 5.986445e-01
6770.000000 5.899600e-01
6780.000000 5.736834e-01
6790.000000 5.640996e-01
6800.000000 5.561615e-01
6810.000000 5.488282e-01
6820.000000 5.513115e-01
6830.000000 5.673500e-01
6840.000000 5.523967e-01
6850.000000 5.484550e-01
6860.000000 5.464876e-01
6870.000000 5.326615e-01
6880.000000 5.303431e-01
6890.000000 5.216836e-01
6900.000000 5.162169e-01
6910.000000 5.107816e-01
6920.000000 5.011813e-01
6930.000000 4.970166e-01
6940.000000 5.252079e-01
6950.000000 5.460538e-01
6960.000000 5.233289e-01
6970.000000 5.341927e-01
6980.000000 5.431321e-01
6990.000000 5.585559e-01
7000.000000 5.596027e-01
7010.000000 5.381540e-01
7020.000000 5.337780e-01
7030.000000 5.370408e-01
7040.000000 5.290142e-01
7050.000000 5.289630e-01
7060.000000 5.445383e-01
7070.000000 5.181084e-01
7080.000000 5.103492e-01
7090.000000 5.089645e-01
7100.000000 4.927734e-01
7110.000000 4.846027e-01
7120.000000 4.817207e-01
7130.000000 4.723849e-01
7140.000000 4.848268e-01
7150.000000 5.011813e-01
7160.000000 5.169520e-01
7170.000000 5.367317e-01
7180.000000 5.445078e-01
7190.000000 5.471340e-01
7200.000000 5.638007e-01
7210.000000 5.741994e-01
7220.000000 5.977342e-01
7230.000000 5.950620e-01
7240.000000 6.004033e-01
7250.000000 6.116878e-01
7260.000000 6.000236e-01
7270.000000 6.084621e-01
7280.000000 6.417733e-01
7290.000000 6.406454e-01
7300.000000 6.203905e-01
7310.000000 6.192121e-01
7320.000000 6.153823e-01
7330.000000 6.145705e-01
7340.000000 6.024969e-01
7350.000000 5.852274e-01
7360.000000 5.542711e-01
7370.000000 5.168499e-01
7380.000000 4.799292e-01
7390.000000 4.143757e-01
7400.000000 3.968767e-01
7410.000000 4.251180e-01
7420.000000 4.488926e-01
7430.000000 4.485938e-01
7440.000000 4.920032e-01
7450.000000 5.039266e-01
7460.000000 4.721689e-01
7470.000000 4.247120e-01
7480.000000 4.144517e-01
7490.000000 3.960159e-01
7500.000000 3.639398e-01
7510.000000 3.705864e-01
7520.000000 3.564242e-01
7530.000000 3.564963e-01
7540.000000 3.047688e-01
7550.000000 2.672942e-01
7560.000000 2.666753e-01
7570.000000 2.456176e-01
7580.000000 2.594551e-01
7590.000000 2.757356e-01
7600.000000 2.800175e-01
7610.000000 2.912075e-01
7620.000000 2.990181e-01
7630.000000 3.194545e-01
7640.000000 3.448859e-01
7650.000000 3.649428e-01
7660.000000 3.795001e-01
7670.000000 4.200433e-01
7680.000000 4.422271e-01
7690.000000 4.197082e-01
7700.000000 4.480345e-01
7710.000000 4.778408e-01
7720.000000 4.717198e-01
7730.000000 4.771170e-01
7740.000000 5.009398e-01
7750.000000 5.116432e-01
7760.000000 5.201902e-01
7770.000000 5.338354e-01
7780.000000 5.255719e-01
7790.000000 5.353041e-01
7800.000000 5.314286e-01
7810.000000 5.146284e-01
7820.000000 5.293475e-01
7830.000000 5.272526e-01
7840.000000 5.199248e-01
7850.000000 5.159150e-01
7860.000000 4.771404e-01
7870.000000 4.998475e-01
7880.000000 5.284292e-01
7890.000000 4.878299e-01
7900.000000 4.608728e-01
7910.000000 4.373814e-01
7920.000000 4.531313e-01
7930.000000 4.577439e-01
7940.000000 3.999123e-01
7950.000000 3.889030e-01
7960.000000 3.652636e-01
7970.000000 3.626639e-01
7980.000000 3.572926e-01
7990.000000 3.285170e-01
8000.000000 3.100493e-01
8010.000000 3.002399e-01
8020.000000 2.858092e-01
8030.000000 2.836440e-01
8040.000000 2.945526e-01
8050.000000 2.644183e-01
8060.000000 2.916740e-01
8070.000000 3.091073e-01
8080.000000 2.677696e-01
8090.000000 2.735160e-01
8100.000000 2.649928e-01
8110.000000 2.700781e-01
8120.000000 2.813806e-01
8130.000000 2.746197e-01
8140.000000 2.739246e-01
8150.000000 2.649150e-01
8160.000000 2.401252e-01
8170.000000 2.388971e-01
8180.000000 2.270180e-01
8190.000000 2.127799e-01
8200.000000 2.335422e-01
8210.000000 2.228974e-01
8220.000000 1.947213e-01
8230.000000 1.800955e-01
8240.000000 1.565622e-01
8250.000000 1.830528e-01
8260.000000 1.668540e-01
8270.000000 1.595363e-01
8280.000000 1.694590e-01
8290.000000 1.546700e-01
8300.000000 1.952340e-01
8310.000000 2.262344e-01
8320.000000 1.886505e-01
8330.000000 2.195841e-01
8340.000000 1.938898e-01
8350.000000 1.757009e-01
8360.000000 1.736563e-01
8370.000000 2.457387e-01
8380.000000 4.430896e-02
8390.000000 nan
8400.000000 nan
8410.000000 nan
8420.000000 nan
8430.000000 nan
8440.000000 nan
8450.000000 nan
8460.000000 nan
8470.000000 nan
8480.000000 nan
8490.000000 nan
8500.000000 nan
8510.000000 nan
8520.000000 nan
8530.000000 nan
8540.000000 nan
8550.000000 nan
8560.000000 nan
8570.000000 nan
8580.000000 nan
8590.000000 nan
8600.000000 nan
8610.000000 nan
8620.000000 nan
8630.000000 nan
8640.000000 nan
8650.000000 nan
8660.000000 nan
8670.000000 nan
8680.000000 nan
8690.000000 nan
8700.000000 nan
8710.000000 nan
8720.000000 nan
8730.000000 nan
8740.000000 nan
8750.000000 nan
8760.000000 nan
8770.000000 nan
8780.000000 nan
8790.000000 nan
8800.000000 nan
8810.000000 nan
8820.000000 nan
8830.000000 nan
8840.000000 nan
8850.000000 nan
8860.000000 nan
8870.000000 nan
8880.000000 nan
8890.000000 nan
8900.000000 nan
8910.000000 nan
8920.000000 nan
8930.000000 nan
8940.000000 nan
8950.000000 nan
8960.000000 nan
8970.000000 nan
8980.000000 nan
8990.000000 nan
