# STATUS =
# OBJECT = 2020wnt
# TELESCOPE = TNG
# INSTRUMENT = LRS
# DATE-OBS = 2021-03-17 00:00:00.000
# MJD = 59290.86
# EXPTIME =
# AIRMASS =
# SLIT =
# DISPERSER =
# SOURCE =
# FILTER =
# RESOLUTION =
# FLUX_STANDARD =
# EXTINCTION_CORRECTED = True
# PHOTOMETRY_CALIBRATED =
# TELLURIC_CORRECTED = True
# FLUX_UNITS =
# WAVE_UNITS =
# QUALITY =
# MIN_WAVE = 3017.111
# MAX_WAVE = 10355.94
# COMMENT =
 Wavelength           Flux 
    3019.87   7.377235e-14 
   3022.628   2.406736e-14 
   3025.387  -5.189646e-15 
   3028.146  -4.636737e-14 
   3030.905  -1.503014e-14 
   3033.664  -2.432247e-15 
   3036.423   9.472466e-15 
   3039.181   3.478963e-15 
    3041.94  -3.826669e-15 
   3044.699   3.336162e-15 
   3047.458    1.07317e-14 
   3050.217    1.17359e-14 
   3052.976   1.544665e-14 
   3055.734   5.999702e-15 
   3058.493   1.282772e-14 
   3061.252    5.29157e-15 
   3064.011  -6.250373e-15 
    3066.77  -1.748539e-14 
   3069.529  -3.121436e-15 
   3072.287   1.034558e-14 
   3075.046   1.240414e-14 
   3077.805  -8.505377e-16 
   3080.564   5.953075e-16 
   3083.323  -2.204512e-15 
   3086.082  -2.845034e-15 
   3088.841    8.11284e-15 
   3091.599   1.352731e-15 
   3094.358   -4.37884e-15 
   3097.117  -1.369886e-15 
   3099.876  -5.427408e-15 
   3102.635  -6.279075e-15 
   3105.394   1.156697e-16 
   3108.152  -7.843677e-16 
   3110.911   1.118732e-14 
    3113.67   2.331293e-15 
   3116.429   1.808902e-15 
   3119.188  -7.201656e-15 
   3121.947  -3.465958e-15 
   3124.705   8.512352e-15 
   3127.464   6.107642e-15 
   3130.223   6.529908e-16 
   3132.982   2.905365e-15 
   3135.741   1.013479e-15 
     3138.5  -2.725252e-15 
   3141.258   8.755643e-16 
   3144.017   6.404132e-16 
   3146.776   1.405912e-15 
   3149.535   1.333743e-15 
   3152.294  -3.994349e-16 
   3155.052   8.080793e-16 
   3157.812   1.050794e-15 
    3160.57   2.783749e-15 
   3163.329   2.798841e-15 
   3166.088  -8.086823e-17 
   3168.847  -1.952929e-15 
   3171.606   8.076688e-16 
   3174.365  -3.259286e-17 
   3177.123   2.086732e-16 
   3179.882   1.037777e-15 
   3182.641   2.343975e-16 
     3185.4  -8.165074e-16 
   3188.159  -1.882951e-16 
   3190.917   5.437675e-16 
   3193.676  -6.989115e-16 
   3196.435   3.305263e-16 
   3199.194   3.850703e-16 
   3201.953  -6.181569e-16 
   3204.712    3.35123e-15 
    3207.47   4.974115e-14 
   3210.229   3.510807e-14 
   3212.988   2.481587e-15 
   3215.747   1.187885e-16 
   3218.506   1.549458e-16 
   3221.265  -1.276118e-16 
   3224.023  -6.281466e-16 
   3226.782   1.313912e-16 
   3229.541   7.130189e-18 
     3232.3  -5.442713e-16 
   3235.059  -6.423925e-16 
   3237.818  -4.663826e-17 
   3240.576    3.97372e-16 
   3243.335   1.516292e-16 
   3246.094   1.227346e-16 
   3248.853   3.695426e-17 
   3251.612   1.633805e-16 
   3254.371  -2.497846e-16 
    3257.13   5.216924e-17 
   3259.888  -8.539945e-17 
   3262.647  -2.124347e-16 
   3265.406   1.781773e-16 
   3268.165  -6.573532e-17 
   3270.924   1.423185e-17 
   3273.683  -4.877544e-17 
   3276.441  -2.757468e-18 
     3279.2   2.144146e-16 
   3281.959   1.537458e-16 
   3284.718    2.15285e-16 
   3287.477  -8.271833e-17 
   3290.236  -1.735591e-17 
   3292.994  -4.660772e-16 
   3295.753  -2.279298e-16 
   3298.512  -1.320478e-16 
   3301.271   -2.15564e-17 
    3304.03   1.373227e-16 
   3306.789   1.501676e-16 
   3309.547  -1.059083e-16 
   3312.306  -1.231483e-17 
   3315.065   2.750341e-17 
   3317.824   1.362788e-16 
   3320.583  -1.863117e-16 
   3323.342  -8.853843e-17 
   3326.101  -1.130718e-16 
   3328.859  -1.805125e-16 
   3331.618    3.67843e-17 
   3334.377   -8.60448e-17 
   3337.136    1.87324e-16 
   3339.895   3.635521e-16 
   3342.654   2.355298e-16 
   3345.412   1.142414e-16 
   3348.171   4.505464e-17 
    3350.93  -3.905698e-18 
   3353.689   1.944929e-17 
   3356.448   1.460812e-16 
   3359.207   1.882179e-16 
   3361.965    1.89843e-16 
   3364.724   1.467175e-16 
   3367.483   2.877559e-17 
   3370.242  -2.100752e-16 
   3373.001  -1.757997e-16 
    3375.76  -1.123022e-16 
   3378.518  -8.211667e-17 
   3381.277   1.338726e-17 
   3384.036   2.431205e-16 
   3386.795    1.24666e-16 
   3389.554  -7.636536e-18 
   3392.312   2.140194e-16 
   3395.071   9.185755e-17 
    3397.83   7.011798e-17 
   3400.589   2.666107e-17 
   3403.348   -1.11555e-17 
   3406.107   1.447481e-16 
   3408.865   5.844601e-17 
   3411.625  -1.063426e-17 
   3414.383   6.465332e-17 
   3417.142   7.413391e-18 
   3419.901  -1.170877e-16 
    3422.66  -1.454374e-18 
   3425.419   2.665228e-16 
   3428.177   7.697395e-18 
   3430.936   9.346645e-17 
   3433.695  -9.332317e-17 
   3436.454  -2.078162e-17 
   3439.213    1.54716e-17 
   3441.972  -2.237869e-16 
    3444.73  -6.449017e-17 
   3447.489   1.109548e-16 
   3450.248   2.587168e-17 
   3453.007  -7.179004e-17 
   3455.766    5.43665e-17 
   3458.525   3.890513e-17 
   3461.283   8.664007e-17 
   3464.042   6.866603e-17 
   3466.801   3.264875e-17 
    3469.56   1.080747e-16 
   3472.319   4.355235e-17 
   3475.078  -3.680543e-18 
   3477.836   2.804796e-17 
   3480.595  -1.984304e-17 
   3483.354  -1.622429e-17 
   3486.113    2.12821e-17 
   3488.872  -2.721841e-17 
   3491.631   6.792982e-17 
    3494.39   6.587112e-17 
   3497.148   1.685232e-16 
   3499.907   5.301382e-17 
   3502.666   1.584567e-16 
   3505.425   2.677897e-17 
   3508.184   1.687826e-16 
   3510.943   7.646421e-18 
   3513.701   3.382129e-17 
    3516.46   1.171033e-16 
   3519.219   1.250766e-16 
   3521.978   1.240603e-17 
   3524.737  -3.565515e-17 
   3527.496   7.008327e-18 
   3530.254   1.629072e-16 
   3533.013   1.658274e-16 
   3535.772   8.358266e-17 
   3538.531    6.87903e-17 
    3541.29   7.918243e-17 
   3544.049   8.890274e-17 
   3546.807   5.613473e-17 
   3549.566   6.210433e-17 
   3552.325  -1.894625e-18 
   3555.084  -3.425091e-17 
   3557.843   2.300635e-17 
   3560.602   3.888169e-17 
    3563.36   1.957837e-17 
   3566.119  -8.726281e-18 
   3568.878    6.15366e-17 
   3571.637   4.087415e-17 
   3574.396  -1.993608e-18 
   3577.155   1.417861e-16 
   3579.914   7.230606e-16 
   3582.672   1.297695e-16 
   3585.431  -9.676191e-18 
    3588.19   7.993089e-17 
   3590.949   9.000229e-17 
   3593.708   1.048023e-16 
   3596.467   5.638706e-17 
   3599.225  -3.529074e-17 
   3601.984   2.732313e-17 
   3604.743   5.434016e-17 
   3607.502  -4.473155e-18 
   3610.261   4.207975e-17 
    3613.02  -8.716824e-18 
   3615.778  -3.416372e-19 
   3618.537   9.546563e-18 
   3621.296   3.878484e-17 
   3624.055  -8.523376e-18 
   3626.814   1.562798e-17 
   3629.573  -3.725527e-17 
   3632.331  -2.131613e-18 
    3635.09   3.842491e-17 
   3637.849   3.272015e-17 
   3640.608   2.410432e-17 
   3643.367   4.543878e-17 
   3646.125   5.058874e-17 
   3648.885   3.502645e-17 
   3651.643   4.658021e-17 
   3654.402    2.18203e-17 
   3657.161   2.801914e-17 
    3659.92   8.326395e-17 
   3662.679   5.855835e-17 
   3665.438   7.584279e-17 
   3668.196   1.080489e-16 
   3670.955   3.640034e-17 
   3673.714   5.536016e-17 
   3676.473   9.988147e-17 
   3679.232    7.64046e-17 
    3681.99    8.47247e-17 
   3684.749      1.146e-16 
   3687.508   9.721134e-17 
   3690.267   6.334883e-17 
   3693.026   6.548544e-17 
   3695.785   7.568824e-17 
   3698.543   6.200063e-17 
   3701.302   7.011923e-17 
   3704.061   7.716169e-17 
    3706.82   6.317648e-17 
   3709.579   3.320595e-17 
   3712.338   4.217367e-17 
   3715.096   4.858964e-17 
   3717.855   4.288885e-17 
   3720.614    1.57836e-17 
   3723.373   5.062612e-17 
   3726.132    4.97807e-17 
   3728.891   2.800864e-17 
   3731.649   1.383628e-18 
   3734.408    3.51395e-17 
   3737.167   4.855999e-17 
   3739.926   9.118089e-17 
   3742.685    6.75849e-17 
   3745.444   2.269458e-17 
   3748.203   5.438112e-17 
   3750.961   5.811089e-17 
    3753.72   3.722015e-17 
   3756.479   1.029336e-16 
   3759.238   5.460469e-17 
   3761.997   2.477153e-17 
   3764.756   3.947273e-17 
   3767.514   6.950813e-17 
   3770.273   5.876394e-17 
   3773.032   8.267805e-17 
   3775.791   4.885046e-17 
    3778.55   3.932922e-17 
   3781.309   7.017986e-17 
   3784.067   8.965138e-17 
   3786.826   7.536569e-17 
   3789.585   4.616399e-17 
   3792.344   6.725536e-17 
   3795.103   6.729302e-17 
   3797.862   5.995265e-17 
    3800.62   9.950073e-17 
   3803.379    7.41879e-17 
   3806.138   6.114535e-17 
   3808.897   5.195565e-17 
   3811.656   4.110167e-17 
   3814.415   7.327982e-17 
   3817.174   9.344341e-17 
   3819.932   1.119817e-16 
   3822.691   1.050508e-16 
    3825.45   1.114887e-16 
   3828.209   9.454537e-17 
   3830.968   9.633445e-17 
   3833.727   7.024587e-17 
   3836.485   7.229993e-17 
   3839.244   5.391681e-17 
   3842.003   7.335431e-17 
   3844.762   7.370864e-17 
   3847.521   7.120741e-17 
    3850.28   5.366128e-17 
   3853.038   5.525566e-17 
   3855.797   7.670656e-17 
   3858.556   7.024445e-17 
   3861.315   4.165695e-17 
   3864.074   6.095763e-17 
   3866.833   6.221091e-17 
   3869.591   5.334382e-17 
    3872.35   5.586826e-17 
   3875.109   4.580064e-17 
   3877.868   6.651536e-17 
   3880.627   5.102454e-17 
   3883.385   5.808166e-17 
   3886.144   4.551047e-17 
   3888.903   4.523316e-17 
   3891.662   4.831492e-17 
   3894.421   3.841417e-17 
    3897.18   4.777054e-17 
   3899.938   2.527543e-17 
   3902.698   1.993377e-17 
   3905.456   2.269694e-17 
   3908.215   5.708911e-17 
   3910.974   5.441733e-17 
   3913.733   6.099288e-17 
   3916.492    5.93424e-17 
    3919.25   4.026004e-17 
   3922.009   4.873284e-17 
   3924.768   3.493281e-17 
   3927.527   3.947863e-17 
   3930.286   5.694454e-17 
   3933.045    5.08324e-17 
   3935.803   4.081104e-17 
   3938.562   4.732065e-17 
   3941.321   4.182361e-17 
    3944.08   3.027885e-17 
   3946.839   4.482947e-17 
   3949.598   3.340727e-17 
   3952.356   3.865341e-17 
   3955.115   5.785697e-17 
   3957.874   6.052461e-17 
   3960.633   5.267223e-17 
   3963.392   4.458525e-17 
   3966.151   3.729903e-17 
   3968.909   4.403158e-17 
   3971.668   7.389241e-17 
   3974.427   8.442363e-17 
   3977.186     7.1844e-17 
   3979.945   6.471839e-17 
   3982.704   6.479801e-17 
   3985.463   6.387716e-17 
   3988.221   6.895578e-17 
    3990.98   7.788473e-17 
   3993.739   7.969575e-17 
   3996.498   7.022378e-17 
   3999.257   7.356786e-17 
   4002.016   6.747967e-17 
   4004.774    7.05386e-17 
   4007.533   7.517091e-17 
   4010.292   7.874648e-17 
   4013.051   9.659572e-17 
    4015.81   8.874418e-17 
   4018.569    8.45589e-17 
   4021.327    9.34382e-17 
   4024.086   8.300449e-17 
   4026.845   8.342055e-17 
   4029.604   7.966026e-17 
   4032.363   9.057064e-17 
   4035.122    9.07195e-17 
    4037.88   9.109442e-17 
   4040.639   1.054083e-16 
   4043.398   9.094172e-17 
   4046.157    1.02992e-16 
   4048.916   9.459259e-17 
   4051.675   9.931701e-17 
   4054.433    1.01749e-16 
   4057.192   1.146041e-16 
   4059.951   1.161469e-16 
    4062.71   1.280964e-16 
   4065.469   1.183931e-16 
   4068.228   1.171977e-16 
   4070.987   1.277211e-16 
   4073.745   1.224809e-16 
   4076.504   1.352942e-16 
   4079.263   1.410154e-16 
   4082.022   1.365046e-16 
   4084.781   1.293478e-16 
    4087.54   1.249023e-16 
   4090.298   1.222193e-16 
   4093.057   1.370565e-16 
   4095.816   1.444845e-16 
   4098.575   1.325014e-16 
   4101.333    1.33345e-16 
   4104.092   1.378665e-16 
   4106.852   1.368622e-16 
    4109.61   1.524581e-16 
   4112.369   1.359239e-16 
   4115.128     1.5138e-16 
   4117.887   1.479158e-16 
   4120.646   1.359083e-16 
   4123.404   1.651648e-16 
   4126.163   1.638214e-16 
   4128.922   1.434094e-16 
   4131.681   1.392005e-16 
    4134.44   1.410416e-16 
   4137.199   1.379216e-16 
   4139.958   1.377816e-16 
   4142.716   1.291052e-16 
   4145.475   1.397812e-16 
   4148.234   1.187021e-16 
   4150.993   1.148775e-16 
   4153.751   1.129244e-16 
    4156.51   1.036259e-16 
   4159.269   1.102044e-16 
   4162.028   1.016001e-16 
   4164.787   1.097605e-16 
   4167.546    1.02937e-16 
   4170.305   8.997227e-17 
   4173.063    9.79415e-17 
   4175.822   1.019495e-16 
   4178.581   1.018749e-16 
    4181.34    9.85535e-17 
   4184.099   9.602089e-17 
   4186.857   9.518909e-17 
   4189.617   8.877441e-17 
   4192.375   8.370636e-17 
   4195.134   8.564638e-17 
   4197.893   7.855798e-17 
   4200.652   7.969049e-17 
   4203.411   7.992823e-17 
   4206.169   7.792308e-17 
   4208.928   8.815897e-17 
   4211.687   9.233421e-17 
   4214.446    8.40749e-17 
   4217.205   8.625235e-17 
   4219.964   9.017046e-17 
   4222.723   9.207609e-17 
   4225.481   8.217662e-17 
    4228.24   7.856765e-17 
   4230.999   8.697276e-17 
   4233.758   8.295495e-17 
   4236.517   8.802899e-17 
   4239.275   9.955031e-17 
   4242.034   9.133681e-17 
   4244.793   8.882609e-17 
   4247.552   8.174935e-17 
   4250.311   7.996865e-17 
    4253.07    8.80229e-17 
   4255.829   7.935818e-17 
   4258.587   7.642061e-17 
   4261.346   7.889653e-17 
   4264.105   7.274779e-17 
   4266.864   7.021996e-17 
   4269.623   8.046799e-17 
   4272.381   7.566255e-17 
   4275.141   6.715006e-17 
   4277.899   7.523827e-17 
   4280.658   8.188954e-17 
   4283.417   7.874198e-17 
   4286.176   7.029992e-17 
   4288.935    7.88894e-17 
   4291.693   6.967903e-17 
   4294.452   6.890648e-17 
   4297.211   7.046533e-17 
    4299.97   7.222343e-17 
   4302.729   7.507001e-17 
   4305.488   6.848985e-17 
   4308.247   7.025903e-17 
   4311.005   8.127337e-17 
   4313.764   7.549904e-17 
   4316.523     6.9149e-17 
   4319.282   6.945503e-17 
   4322.041   6.952239e-17 
   4324.799   7.677042e-17 
   4327.558    7.75927e-17 
   4330.317   7.925041e-17 
   4333.076   7.241169e-17 
   4335.835   6.714576e-17 
   4338.594   6.688252e-17 
   4341.353   6.558149e-17 
   4344.111    5.86925e-17 
    4346.87   6.347075e-17 
   4349.629   7.583904e-17 
   4352.388   8.167036e-17 
   4355.146   7.723336e-17 
   4357.906   7.200489e-17 
   4360.665   5.896092e-17 
   4363.423   7.632504e-17 
   4366.182   6.966557e-17 
   4368.941   6.539925e-17 
     4371.7   7.641756e-17 
   4374.458   7.503963e-17 
   4377.217   7.831083e-17 
   4379.976   7.697741e-17 
   4382.735   8.003382e-17 
   4385.494   8.685199e-17 
   4388.253   7.441915e-17 
   4391.012    7.06211e-17 
   4393.771    6.96114e-17 
   4396.529   8.169232e-17 
   4399.288   8.857447e-17 
   4402.047   7.631899e-17 
   4404.806   6.805495e-17 
   4407.564   7.346506e-17 
   4410.323   7.475242e-17 
   4413.083   7.226325e-17 
   4415.841   7.897998e-17 
     4418.6   8.033845e-17 
   4421.359   7.535533e-17 
   4424.118   7.531082e-17 
   4426.876   6.856967e-17 
   4429.635   6.952001e-17 
   4432.394    7.25801e-17 
   4435.153   7.743706e-17 
   4437.912   7.870252e-17 
    4440.67   8.111968e-17 
    4443.43   8.174632e-17 
   4446.188   7.095962e-17 
   4448.947   8.182015e-17 
   4451.706   8.376194e-17 
   4454.465   7.742278e-17 
   4457.224   8.521884e-17 
   4459.982   8.149077e-17 
   4462.741   7.867302e-17 
     4465.5   7.927929e-17 
   4468.259   9.008694e-17 
   4471.018   9.197912e-17 
   4473.777   9.472999e-17 
   4476.536   9.345589e-17 
   4479.294   9.076078e-17 
   4482.053   8.010125e-17 
   4484.812   7.232305e-17 
   4487.571   8.136528e-17 
    4490.33   7.400693e-17 
   4493.088   7.585602e-17 
   4495.847   8.813654e-17 
   4498.606   8.995556e-17 
   4501.365   8.287948e-17 
   4504.124   7.352294e-17 
   4506.883   7.789436e-17 
   4509.642   7.682925e-17 
     4512.4   8.463188e-17 
   4515.159   7.857318e-17 
   4517.918   7.636532e-17 
   4520.677    7.24386e-17 
   4523.436    6.49833e-17 
   4526.195   6.532219e-17 
   4528.954    6.74676e-17 
   4531.712   7.236822e-17 
   4534.471   6.989118e-17 
    4537.23   7.360791e-17 
   4539.989   7.341362e-17 
   4542.748   6.869925e-17 
   4545.506   7.011397e-17 
   4548.265   7.044099e-17 
   4551.024   6.514918e-17 
   4553.783     6.5578e-17 
   4556.542   7.250781e-17 
   4559.301   7.463658e-17 
    4562.06   7.720681e-17 
   4564.818   7.083805e-17 
   4567.577   6.926496e-17 
   4570.336   6.732199e-17 
   4573.095   7.284585e-17 
   4575.854   7.263564e-17 
   4578.612   6.595349e-17 
   4581.371    7.30371e-17 
    4584.13    8.20878e-17 
   4586.889    7.80639e-17 
   4589.648    7.71142e-17 
   4592.407   7.964788e-17 
   4595.166   7.867386e-17 
   4597.924   7.576561e-17 
   4600.683    8.18833e-17 
   4603.442   8.928944e-17 
   4606.201   8.638266e-17 
   4608.959   8.325644e-17 
   4611.719   9.080896e-17 
   4614.478   9.248613e-17 
   4617.236   8.805918e-17 
   4619.995   8.627495e-17 
   4622.754   9.625588e-17 
   4625.513   9.660288e-17 
   4628.271   1.004114e-16 
    4631.03   1.058458e-16 
   4633.789   1.025516e-16 
   4636.548   1.042022e-16 
   4639.307   1.040325e-16 
   4642.066   1.157576e-16 
   4644.825   1.176627e-16 
   4647.583   1.152941e-16 
   4650.342   1.188367e-16 
   4653.101   1.238147e-16 
    4655.86   1.140161e-16 
   4658.619   1.225175e-16 
   4661.377   1.310568e-16 
   4664.136   1.318412e-16 
   4666.896   1.329692e-16 
   4669.654   1.250205e-16 
   4672.413   1.300526e-16 
   4675.172   1.323229e-16 
   4677.931   1.498258e-16 
   4680.689   1.450188e-16 
   4683.448   1.492922e-16 
   4686.207   1.459373e-16 
   4688.966   1.392001e-16 
   4691.725   1.580795e-16 
   4694.484   1.609463e-16 
   4697.243   1.523136e-16 
   4700.001   1.546113e-16 
    4702.76   1.559577e-16 
   4705.519   1.632165e-16 
   4708.278   1.628696e-16 
   4711.037    1.65632e-16 
   4713.795   1.726329e-16 
   4716.554   1.776648e-16 
   4719.313    1.84115e-16 
   4722.072   1.850794e-16 
   4724.831   1.946426e-16 
    4727.59   1.971975e-16 
   4730.349    2.03209e-16 
   4733.107   1.998044e-16 
   4735.866   2.024433e-16 
   4738.625   2.130711e-16 
   4741.384   2.210109e-16 
   4744.143   2.176097e-16 
   4746.901   2.257029e-16 
    4749.66    2.24639e-16 
   4752.419   2.204053e-16 
   4755.178   2.201751e-16 
   4757.937   2.106053e-16 
   4760.696   2.190944e-16 
   4763.455   2.199552e-16 
   4766.213   2.103564e-16 
   4768.972   2.119986e-16 
   4771.731   2.234237e-16 
    4774.49   2.260506e-16 
   4777.249   2.068562e-16 
   4780.008   1.975306e-16 
   4782.767   2.038754e-16 
   4785.525   2.070305e-16 
   4788.284   2.041458e-16 
   4791.043   2.037754e-16 
   4793.802   2.001755e-16 
   4796.561   2.014901e-16 
   4799.319   2.059763e-16 
   4802.078   2.206621e-16 
   4804.837   2.102344e-16 
   4807.596   2.026053e-16 
   4810.355   2.141815e-16 
   4813.114   1.979824e-16 
   4815.873   1.920016e-16 
   4818.631   1.966946e-16 
    4821.39   1.969874e-16 
   4824.149   1.930797e-16 
   4826.908   1.839882e-16 
   4829.667    1.75919e-16 
   4832.425   1.829698e-16 
   4835.185   1.765825e-16 
   4837.943   1.691375e-16 
   4840.702    1.69072e-16 
   4843.461   1.732434e-16 
    4846.22    1.64183e-16 
   4848.979   1.630936e-16 
   4851.737   1.596355e-16 
   4854.496   1.557134e-16 
   4857.255   1.547032e-16 
   4860.014   1.682217e-16 
   4862.773   1.636242e-16 
   4865.532   1.561857e-16 
   4868.291   1.701659e-16 
   4871.049   1.569227e-16 
   4873.808   1.514358e-16 
   4876.567    1.53641e-16 
   4879.326   1.480024e-16 
   4882.084   1.477935e-16 
   4884.843   1.460862e-16 
   4887.602   1.398448e-16 
   4890.361   1.338175e-16 
    4893.12   1.401211e-16 
   4895.879    1.34799e-16 
   4898.638    1.32151e-16 
   4901.396   1.221701e-16 
   4904.155   1.340633e-16 
   4906.914    1.30121e-16 
   4909.673   1.277994e-16 
   4912.432   1.252554e-16 
    4915.19   1.288288e-16 
   4917.949   1.299989e-16 
   4920.708   1.188813e-16 
   4923.467    1.25305e-16 
   4926.226   1.222765e-16 
   4928.985   1.228545e-16 
   4931.744   1.296654e-16 
   4934.502   1.249793e-16 
   4937.261   1.276338e-16 
    4940.02   1.275567e-16 
   4942.779   1.340828e-16 
   4945.538   1.306008e-16 
   4948.297   1.215842e-16 
   4951.056   1.266736e-16 
   4953.814   1.369533e-16 
   4956.573   1.186372e-16 
   4959.332    1.22867e-16 
   4962.091   1.278307e-16 
    4964.85   1.317929e-16 
   4967.608   1.230158e-16 
   4970.367   1.319014e-16 
   4973.126     1.2559e-16 
   4975.885   1.305601e-16 
   4978.644   1.373288e-16 
   4981.403   1.358242e-16 
   4984.162   1.378713e-16 
    4986.92   1.417912e-16 
   4989.679    1.45536e-16 
   4992.438   1.354175e-16 
   4995.197   1.492978e-16 
   4997.956    1.46952e-16 
   5000.714   1.476114e-16 
   5003.474   1.515145e-16 
   5006.232   1.539941e-16 
   5008.991   1.572835e-16 
    5011.75    1.65652e-16 
   5014.509   1.770112e-16 
   5017.268   1.873327e-16 
   5020.026   1.841183e-16 
   5022.785    1.70612e-16 
   5025.544   1.644709e-16 
   5028.303   1.583715e-16 
   5031.062   1.517947e-16 
   5033.821   1.476066e-16 
    5036.58   1.521578e-16 
   5039.338    1.45531e-16 
   5042.097    1.44624e-16 
   5044.856   1.472613e-16 
   5047.615   1.436321e-16 
   5050.374   1.405367e-16 
   5053.132   1.377968e-16 
   5055.891   1.361497e-16 
    5058.65   1.469736e-16 
   5061.409   1.410298e-16 
   5064.168    1.35062e-16 
   5066.927    1.38491e-16 
   5069.686   1.375444e-16 
   5072.444   1.447353e-16 
   5075.203   1.515941e-16 
   5077.962   1.550839e-16 
   5080.721    1.54954e-16 
   5083.479   1.589428e-16 
   5086.238   1.658406e-16 
   5088.998   1.725205e-16 
   5091.756   1.788072e-16 
   5094.515   1.922768e-16 
   5097.274   1.932379e-16 
   5100.033   1.967915e-16 
   5102.792   2.094813e-16 
    5105.55    2.20421e-16 
   5108.309   2.279953e-16 
   5111.068   2.308584e-16 
   5113.827   2.410569e-16 
   5116.586   2.504948e-16 
   5119.345   2.651409e-16 
   5122.104   2.652546e-16 
   5124.862   2.525724e-16 
   5127.621   2.427643e-16 
    5130.38   2.357917e-16 
   5133.139   2.337371e-16 
   5135.897   2.272224e-16 
   5138.656   2.217338e-16 
   5141.415   2.215921e-16 
   5144.174   2.148526e-16 
   5146.933   2.085909e-16 
   5149.692   1.943329e-16 
   5152.451   1.935557e-16 
   5155.209   1.887559e-16 
   5157.968   1.783491e-16 
   5160.727   1.838027e-16 
   5163.486   2.250936e-16 
   5166.245   2.617828e-16 
   5169.003   2.921223e-16 
   5171.763   2.701068e-16 
   5174.521   2.213893e-16 
    5177.28   1.752612e-16 
   5180.039   1.559165e-16 
   5182.798   1.512884e-16 
   5185.557   1.549977e-16 
   5188.315   1.519962e-16 
   5191.074   1.370117e-16 
   5193.833   1.492364e-16 
   5196.592   1.425825e-16 
   5199.351   1.331326e-16 
    5202.11   1.294887e-16 
   5204.869   1.261161e-16 
   5207.627    1.26768e-16 
   5210.386   1.274454e-16 
   5213.145   1.183382e-16 
   5215.904   1.131407e-16 
   5218.663   1.144158e-16 
   5221.421   1.133119e-16 
    5224.18   1.192358e-16 
   5226.939   1.218616e-16 
   5229.698   1.163564e-16 
   5232.457   1.190373e-16 
   5235.216   1.244184e-16 
   5237.975   1.160551e-16 
   5240.733   1.211108e-16 
   5243.492    1.19614e-16 
   5246.251   1.182892e-16 
    5249.01   1.259013e-16 
   5251.769    1.29433e-16 
   5254.527   1.377758e-16 
   5257.287    1.34288e-16 
   5260.045   1.183469e-16 
   5262.804   1.285863e-16 
   5265.563   1.239104e-16 
   5268.322    1.28948e-16 
   5271.081   1.393103e-16 
   5273.839   1.351786e-16 
   5276.598   1.358444e-16 
   5279.357   1.411356e-16 
   5282.116   1.425718e-16 
   5284.875   1.333269e-16 
   5287.634   1.365881e-16 
   5290.393   1.403486e-16 
   5293.151   1.366078e-16 
    5295.91   1.413517e-16 
   5298.669   1.337844e-16 
   5301.428   1.348824e-16 
   5304.187   1.394499e-16 
   5306.945   1.484378e-16 
   5309.704   1.410831e-16 
   5312.463   1.343562e-16 
   5315.222    1.41802e-16 
   5317.981   1.462743e-16 
    5320.74   1.391365e-16 
   5323.499   1.446463e-16 
   5326.257   1.386355e-16 
   5329.016   1.376852e-16 
   5331.775   1.492944e-16 
   5334.534   1.504029e-16 
   5337.292   1.522192e-16 
   5340.052   1.514831e-16 
   5342.811   1.475489e-16 
   5345.569   1.460338e-16 
   5348.328   1.501991e-16 
   5351.087   1.505761e-16 
   5353.846   1.529747e-16 
   5356.604   1.566641e-16 
   5359.363   1.592249e-16 
   5362.122   1.669118e-16 
   5364.881   1.614313e-16 
    5367.64   1.740144e-16 
   5370.399   1.685997e-16 
   5373.158   1.632735e-16 
   5375.917   1.690314e-16 
   5378.675   1.709013e-16 
   5381.434    1.74401e-16 
   5384.193   1.684146e-16 
   5386.952   1.752578e-16 
    5389.71   1.721107e-16 
   5392.469    1.73941e-16 
   5395.229   1.754317e-16 
   5397.987   1.768909e-16 
   5400.746   1.764979e-16 
   5403.505   1.766807e-16 
   5406.264   1.771173e-16 
   5409.022   1.813975e-16 
   5411.781   1.840055e-16 
    5414.54   1.818865e-16 
   5417.299   1.872597e-16 
   5420.058   1.998211e-16 
   5422.816   2.037693e-16 
   5425.576   2.062391e-16 
   5428.334   2.095648e-16 
   5431.093   2.071462e-16 
   5433.852    2.14884e-16 
   5436.611   2.160079e-16 
    5439.37   2.148868e-16 
   5442.128   2.089258e-16 
   5444.887   2.160983e-16 
   5447.646   2.315143e-16 
   5450.405   2.242333e-16 
   5453.164    2.31432e-16 
   5455.923   2.280696e-16 
   5458.682   2.204573e-16 
    5461.44   2.325624e-16 
   5464.199   2.433547e-16 
   5466.958   2.394468e-16 
   5469.717   2.335629e-16 
   5472.476   2.342592e-16 
   5475.234   2.434963e-16 
   5477.993   2.429308e-16 
   5480.752   2.368377e-16 
   5483.511   2.358927e-16 
    5486.27   2.448837e-16 
   5489.029   2.405873e-16 
   5491.788   2.351491e-16 
   5494.546   2.397412e-16 
   5497.305   2.526536e-16 
   5500.064   2.439196e-16 
   5502.823   2.510611e-16 
   5505.582   2.593827e-16 
   5508.341   2.571881e-16 
     5511.1   2.555183e-16 
   5513.858   2.607434e-16 
   5516.617   2.707127e-16 
   5519.376   2.750128e-16 
   5522.135   2.669766e-16 
   5524.894   2.653662e-16 
   5527.652   2.914272e-16 
   5530.411   2.784317e-16 
    5533.17   2.647342e-16 
   5535.929   2.740834e-16 
   5538.688   2.726729e-16 
   5541.447   2.804634e-16 
   5544.206    2.74048e-16 
   5546.964   2.764081e-16 
   5549.723   2.729663e-16 
   5552.482   2.772773e-16 
   5555.241   2.634606e-16 
     5558.0    2.59975e-16 
   5560.758   2.601085e-16 
   5563.517   2.590889e-16 
   5566.276   2.542581e-16 
   5569.035   2.512685e-16 
   5571.794   2.502538e-16 
   5574.553   2.552939e-16 
   5577.312   2.539025e-16 
    5580.07   2.334541e-16 
   5582.829   2.370097e-16 
   5585.588    2.43184e-16 
   5588.347   2.389237e-16 
   5591.105   2.455662e-16 
   5593.865   2.369799e-16 
   5596.624   2.451207e-16 
   5599.382   2.534455e-16 
   5602.141   2.594138e-16 
     5604.9   2.494131e-16 
   5607.659   2.589667e-16 
   5610.417   2.611278e-16 
   5613.176   2.582171e-16 
   5615.935   2.587555e-16 
   5618.694   2.655423e-16 
   5621.453    2.75863e-16 
   5624.212   2.821657e-16 
   5626.971    2.87809e-16 
   5629.729   2.922046e-16 
   5632.488   2.935009e-16 
   5635.247   3.072744e-16 
   5638.006    3.01791e-16 
   5640.765   3.076087e-16 
   5643.523   3.205335e-16 
   5646.282   3.160063e-16 
   5649.042   3.181832e-16 
     5651.8   3.302964e-16 
   5654.559   3.337374e-16 
   5657.318   3.187794e-16 
   5660.077   3.271483e-16 
   5662.835   3.246891e-16 
   5665.594   3.279283e-16 
   5668.353   3.226071e-16 
   5671.112    3.22637e-16 
   5673.871   3.251757e-16 
    5676.63   3.236702e-16 
   5679.389    3.32369e-16 
   5682.147   3.264093e-16 
   5684.906   3.298813e-16 
   5687.665   3.242894e-16 
   5690.424   3.266965e-16 
   5693.183   3.176805e-16 
   5695.941   3.171118e-16 
     5698.7    3.16458e-16 
   5701.459   3.314627e-16 
   5704.218   3.249661e-16 
   5706.977   3.187892e-16 
   5709.736   3.065081e-16 
   5712.495   3.045919e-16 
   5715.253   3.071914e-16 
   5718.012   3.051234e-16 
   5720.771   2.958037e-16 
    5723.53   3.002559e-16 
   5726.289   3.077338e-16 
   5729.047    2.98943e-16 
   5731.806   2.934862e-16 
   5734.565   2.982739e-16 
   5737.324   2.871255e-16 
   5740.083   2.812962e-16 
   5742.842    2.76683e-16 
   5745.601   2.821476e-16 
   5748.359    2.81612e-16 
   5751.118   2.770288e-16 
   5753.877   2.764626e-16 
   5756.636   2.784921e-16 
   5759.395   2.839879e-16 
   5762.154   2.838519e-16 
   5764.913   2.696936e-16 
   5767.671   2.847849e-16 
    5770.43   2.798468e-16 
   5773.189   2.852756e-16 
   5775.948   2.768961e-16 
   5778.707   2.694067e-16 
   5781.465   2.647995e-16 
   5784.224    2.70497e-16 
   5786.983   2.733476e-16 
   5789.742   2.772923e-16 
   5792.501   2.808911e-16 
    5795.26   2.732651e-16 
   5798.019   2.756496e-16 
   5800.777   2.732237e-16 
   5803.536   2.688757e-16 
   5806.295   2.687152e-16 
   5809.054   2.617244e-16 
   5811.812    2.72707e-16 
   5814.571   2.778615e-16 
   5817.331   2.664931e-16 
   5820.089   2.698778e-16 
   5822.848   2.716271e-16 
   5825.607   2.685244e-16 
   5828.366   2.674037e-16 
   5831.125   2.794209e-16 
   5833.883   2.704981e-16 
   5836.642    2.71489e-16 
   5839.401   2.701944e-16 
    5842.16   2.619328e-16 
   5844.919   2.457999e-16 
   5847.678    2.50182e-16 
   5850.437   2.562363e-16 
   5853.195   2.475326e-16 
   5855.954   2.422756e-16 
   5858.713   2.478281e-16 
   5861.472   2.429107e-16 
    5864.23   2.438552e-16 
   5866.989   2.439793e-16 
   5869.748   2.356423e-16 
   5872.507   2.425269e-16 
   5875.266   2.356034e-16 
   5878.025   2.357672e-16 
   5880.784   2.236832e-16 
   5883.542   2.218745e-16 
   5886.301    2.22949e-16 
    5889.06    2.08226e-16 
   5891.819   2.000674e-16 
   5894.578   1.915781e-16 
   5897.336   1.830109e-16 
   5900.095   1.757138e-16 
   5902.854    1.83215e-16 
   5905.613   1.975617e-16 
   5908.372   1.961309e-16 
   5911.131   1.973504e-16 
    5913.89    2.07113e-16 
   5916.648    2.05667e-16 
   5919.407   1.994335e-16 
   5922.166   1.956361e-16 
   5924.925   1.962339e-16 
   5927.684   1.935839e-16 
   5930.443   1.907399e-16 
   5933.202    1.96145e-16 
    5935.96   2.026555e-16 
   5938.719   1.952611e-16 
   5941.478   1.872721e-16 
   5944.237   1.871743e-16 
   5946.996   1.865566e-16 
   5949.754   1.794389e-16 
   5952.513   1.721187e-16 
   5955.272   1.725231e-16 
   5958.031    1.74416e-16 
    5960.79   1.779519e-16 
   5963.549    1.71467e-16 
   5966.308   1.587553e-16 
   5969.066   1.534369e-16 
   5971.825   1.584398e-16 
   5974.584   1.637231e-16 
   5977.343   1.619928e-16 
   5980.102   1.607358e-16 
    5982.86   1.569445e-16 
    5985.62   1.600659e-16 
   5988.378    1.65282e-16 
   5991.137   1.626683e-16 
   5993.896    1.61218e-16 
   5996.655   1.634432e-16 
   5999.414   1.675846e-16 
   6001.388   1.745302e-16 
   6004.027   1.804168e-16 
   6006.667   1.778263e-16 
   6009.306   1.889644e-16 
   6011.945   1.931592e-16 
   6014.584   1.854824e-16 
   6017.223   1.870375e-16 
   6019.862   1.975046e-16 
   6022.501   2.000667e-16 
   6025.141   2.050721e-16 
    6027.78   1.979419e-16 
   6030.419   2.009608e-16 
   6033.058   2.046157e-16 
   6035.697   2.067865e-16 
   6038.336   2.163667e-16 
   6040.975   2.101597e-16 
   6043.614   2.096953e-16 
   6046.253   2.134495e-16 
   6048.893   2.152608e-16 
   6051.532     2.1139e-16 
   6054.171   2.064937e-16 
    6056.81   2.114876e-16 
   6059.449   2.158542e-16 
   6062.088   2.204461e-16 
   6064.727   2.212182e-16 
   6067.366   2.173876e-16 
   6070.005   2.229604e-16 
   6072.645   2.201036e-16 
   6075.284   2.189844e-16 
   6077.923   2.318566e-16 
   6080.562   2.275288e-16 
   6083.201   2.300896e-16 
    6085.84   2.347344e-16 
   6088.479   2.337134e-16 
   6091.119   2.406777e-16 
   6093.758   2.400143e-16 
   6096.397   2.441063e-16 
   6099.036   2.490089e-16 
   6101.675   2.518304e-16 
   6104.314   2.469491e-16 
   6106.953   2.506147e-16 
   6109.592   2.544394e-16 
   6112.231    2.47095e-16 
   6114.871   2.494346e-16 
    6117.51   2.427239e-16 
   6120.149   2.327185e-16 
   6122.788   2.425827e-16 
   6125.427   2.484952e-16 
   6128.066   2.433003e-16 
   6130.705   2.337328e-16 
   6133.344   2.412954e-16 
   6135.983    2.41746e-16 
   6138.623    2.35686e-16 
   6141.262   2.386382e-16 
   6143.901   2.345737e-16 
    6146.54   2.285175e-16 
   6149.179   2.281291e-16 
   6151.818   2.354041e-16 
   6154.458   2.312761e-16 
   6157.097   2.227426e-16 
   6159.736   2.175745e-16 
   6162.375   2.207766e-16 
   6165.014   2.220729e-16 
   6167.653   2.237892e-16 
   6170.292   2.147728e-16 
   6172.931   2.068814e-16 
    6175.57   2.206831e-16 
   6178.209   2.132682e-16 
   6180.849   2.065944e-16 
   6183.488   2.101823e-16 
   6186.127   2.045562e-16 
   6188.766   2.050722e-16 
   6191.405   2.014739e-16 
   6194.044   1.891337e-16 
   6196.683   1.870461e-16 
   6199.322   1.858478e-16 
   6201.961   1.893582e-16 
   6204.601   1.937271e-16 
    6207.24   1.918863e-16 
   6209.879   1.807465e-16 
   6212.518   1.785144e-16 
   6215.157    1.86612e-16 
   6217.796   1.800009e-16 
   6220.436   1.774228e-16 
   6223.075   1.794751e-16 
   6225.714   1.774327e-16 
   6228.353   1.739002e-16 
   6230.992    1.74707e-16 
   6233.631   1.743023e-16 
    6236.27   1.769012e-16 
   6238.909   1.759981e-16 
   6241.548    1.74131e-16 
   6244.188    1.80212e-16 
   6246.827   1.731118e-16 
   6249.466   1.690774e-16 
   6252.105   1.785107e-16 
   6254.744   1.798054e-16 
   6257.383   1.804197e-16 
   6260.022   1.794411e-16 
   6262.662   1.822521e-16 
     6265.3   1.831746e-16 
   6267.939   1.802209e-16 
   6270.579   1.909482e-16 
   6273.218   1.834639e-16 
   6275.857    1.82182e-16 
   6278.496   1.731689e-16 
   6281.135   1.706855e-16 
   6283.774   1.661628e-16 
   6286.414   1.739977e-16 
   6289.053   1.793591e-16 
   6291.692   1.785372e-16 
   6294.331   1.759702e-16 
    6296.97   1.742796e-16 
   6299.609   1.683781e-16 
   6302.248   1.656986e-16 
   6304.887   1.702136e-16 
   6307.526    1.70628e-16 
   6310.166   1.743409e-16 
   6312.805   1.737911e-16 
   6315.444   1.668833e-16 
   6318.083   1.723219e-16 
   6320.722   1.725175e-16 
   6323.361   1.763589e-16 
     6326.0   1.808764e-16 
    6328.64   1.798725e-16 
   6331.278   1.839452e-16 
   6333.917   1.848596e-16 
   6336.557   2.012738e-16 
   6339.196    1.97511e-16 
   6341.835   2.028763e-16 
   6344.474   2.073177e-16 
   6347.113   2.085703e-16 
   6349.752   2.152912e-16 
   6352.392   2.214255e-16 
   6355.031   2.308422e-16 
    6357.67   2.332656e-16 
   6360.309   2.357229e-16 
   6362.948   2.424143e-16 
   6365.587    2.44483e-16 
   6368.226   2.490326e-16 
   6370.865   2.413982e-16 
   6373.504   2.442666e-16 
   6376.144    2.44485e-16 
   6378.783   2.453709e-16 
   6381.422   2.523261e-16 
   6384.061   2.465101e-16 
     6386.7   2.487577e-16 
   6389.339   2.511356e-16 
   6391.979   2.449805e-16 
   6394.618   2.430313e-16 
   6397.256   2.444617e-16 
   6399.896   2.444348e-16 
   6402.535   2.394978e-16 
   6405.174   2.417448e-16 
   6407.813   2.463805e-16 
   6410.452   2.413666e-16 
   6413.091   2.359829e-16 
    6415.73   2.380156e-16 
    6418.37   2.333551e-16 
   6421.009    2.34402e-16 
   6423.648   2.301165e-16 
   6426.287   2.317896e-16 
   6428.926   2.235587e-16 
   6431.565   2.193089e-16 
   6434.204   2.156042e-16 
   6436.843   2.114108e-16 
   6439.482   2.125556e-16 
   6442.122   2.079728e-16 
   6444.761   2.065783e-16 
     6447.4   2.072038e-16 
   6450.039   2.021286e-16 
   6452.678   2.016541e-16 
   6455.317    2.07136e-16 
   6457.957   2.029842e-16 
   6460.596    2.01269e-16 
   6463.234   2.009256e-16 
   6465.874   1.924002e-16 
   6468.513   1.987189e-16 
   6471.152   1.960084e-16 
   6473.791   1.966964e-16 
    6476.43   1.900917e-16 
   6479.069   1.901627e-16 
   6481.708   1.913451e-16 
   6484.348   1.861975e-16 
   6486.987   1.825874e-16 
   6489.626   1.825118e-16 
   6492.265   1.819213e-16 
   6494.904   1.815394e-16 
   6497.543   1.755468e-16 
   6500.182   1.742411e-16 
   6502.821   1.782984e-16 
    6505.46    1.84954e-16 
     6508.1   1.836064e-16 
   6510.739   1.751801e-16 
   6513.378   1.750789e-16 
   6516.017   1.756192e-16 
   6518.656   1.715771e-16 
   6521.295   1.706681e-16 
   6523.935   1.754146e-16 
   6526.574   1.819124e-16 
   6529.212    1.84793e-16 
   6531.852   1.854658e-16 
   6534.491   1.830632e-16 
    6537.13   1.924501e-16 
   6539.769   1.941096e-16 
   6542.408   1.901384e-16 
   6545.047   1.956236e-16 
   6547.687   1.895919e-16 
   6550.326   1.924526e-16 
   6552.965   1.957617e-16 
   6555.604   1.975124e-16 
   6558.243   1.973788e-16 
   6560.882   2.042258e-16 
   6563.521   2.003953e-16 
    6566.16    1.97137e-16 
   6568.799   2.015489e-16 
   6571.438   2.081789e-16 
   6574.078   2.075629e-16 
   6576.717   2.066906e-16 
   6579.356   2.059866e-16 
   6581.995   2.087328e-16 
   6584.634   2.120895e-16 
   6587.273   2.100415e-16 
   6589.913   2.115381e-16 
   6592.552   2.216102e-16 
    6595.19   2.231824e-16 
    6597.83   2.198513e-16 
   6600.469   2.284142e-16 
   6603.108   2.272756e-16 
   6605.747   2.277324e-16 
   6608.386   2.230502e-16 
   6611.025   2.293012e-16 
   6613.665   2.283732e-16 
   6616.304   2.288601e-16 
   6618.943   2.345608e-16 
   6621.582   2.400627e-16 
   6624.221   2.415085e-16 
    6626.86   2.451715e-16 
   6629.499   2.489908e-16 
   6632.138    2.42226e-16 
   6634.777   2.490898e-16 
   6637.417   2.589837e-16 
   6640.056   2.585628e-16 
   6642.695   2.560317e-16 
   6645.334   2.596685e-16 
   6647.973      2.631e-16 
   6650.612   2.630373e-16 
   6653.251   2.607656e-16 
   6655.891   2.582325e-16 
    6658.53   2.595582e-16 
   6661.168   2.631025e-16 
   6663.808   2.672886e-16 
   6666.447   2.682566e-16 
   6669.086   2.663231e-16 
   6671.725   2.691026e-16 
   6674.364   2.708805e-16 
   6677.003   2.710625e-16 
   6679.643   2.763306e-16 
   6682.282   2.802673e-16 
   6684.921   2.712261e-16 
    6687.56   2.711915e-16 
   6690.199   2.700025e-16 
   6692.838   2.670843e-16 
   6695.477   2.631334e-16 
   6698.116   2.646673e-16 
   6700.755   2.684892e-16 
   6703.395   2.664242e-16 
   6706.034   2.657237e-16 
   6708.673   2.691833e-16 
   6711.312   2.711359e-16 
   6713.951   2.693129e-16 
    6716.59   2.695835e-16 
   6719.229   2.696715e-16 
   6721.869   2.690625e-16 
   6724.508   2.677491e-16 
   6727.146   2.705645e-16 
   6729.786   2.750538e-16 
   6732.425   2.742616e-16 
   6735.064   2.702496e-16 
   6737.703   2.739741e-16 
   6740.342   2.695067e-16 
   6742.981   2.637703e-16 
   6745.621   2.613508e-16 
    6748.26   2.712521e-16 
   6750.899   2.669911e-16 
   6753.538   2.693579e-16 
   6756.177   2.695371e-16 
   6758.816   2.674711e-16 
   6761.455   2.632292e-16 
   6764.094   2.674881e-16 
   6766.733   2.703577e-16 
   6769.373   2.989739e-16 
   6772.012   3.378472e-16 
   6774.651   3.550363e-16 
    6777.29   3.267153e-16 
   6779.929   2.859469e-16 
   6782.568   2.579661e-16 
   6785.208   2.448298e-16 
   6787.847   2.411725e-16 
   6790.486   2.453294e-16 
   6793.125   2.391636e-16 
   6795.764   2.432871e-16 
   6798.403   2.362901e-16 
   6801.042   2.357574e-16 
   6803.681   2.305992e-16 
    6806.32   2.337178e-16 
   6808.959   2.367264e-16 
   6811.599    2.35486e-16 
   6814.238   2.293798e-16 
   6816.877   2.212957e-16 
   6819.516   2.271657e-16 
   6822.155   2.289524e-16 
   6824.794   2.242047e-16 
   6827.433   2.202505e-16 
   6830.072   2.228944e-16 
   6832.711   2.285921e-16 
   6835.351    2.23986e-16 
    6837.99   2.214218e-16 
   6840.629   2.211486e-16 
   6843.268   2.211986e-16 
   6845.907   2.218751e-16 
   6848.546   2.172195e-16 
   6851.186   2.125173e-16 
   6853.825   2.168965e-16 
   6856.464    2.12461e-16 
   6859.103   2.161287e-16 
   6861.742   2.218292e-16 
   6864.381   2.237022e-16 
    6867.02    2.30738e-16 
   6869.659   2.152994e-16 
   6872.298   1.980828e-16 
   6874.938   1.960183e-16 
   6877.577   1.931076e-16 
   6880.216   1.998665e-16 
   6882.855   2.051179e-16 
   6885.494   2.023961e-16 
   6888.133   2.018288e-16 
   6890.772   2.114922e-16 
   6893.411   2.025778e-16 
    6896.05   1.954258e-16 
   6898.689   1.952551e-16 
   6901.329    1.95367e-16 
   6903.968   1.953244e-16 
   6906.607    1.91028e-16 
   6909.246   1.917679e-16 
   6911.885   2.008488e-16 
   6914.524   1.997702e-16 
   6917.164   1.938673e-16 
   6919.803    1.97406e-16 
   6922.442   1.934859e-16 
   6925.081    1.91033e-16 
    6927.72   1.937941e-16 
   6930.359   2.064014e-16 
   6932.998   1.996898e-16 
   6935.637   1.964747e-16 
   6938.276   1.951807e-16 
   6940.916   1.912792e-16 
   6943.555   1.931957e-16 
   6946.194   1.979091e-16 
   6948.833   1.926868e-16 
   6951.472   1.913529e-16 
   6954.111   1.944035e-16 
    6956.75   1.895218e-16 
   6959.389   1.886853e-16 
   6962.028    1.88256e-16 
   6964.667   1.940723e-16 
   6967.307   1.955026e-16 
   6969.946   1.936703e-16 
   6972.585   1.947123e-16 
   6975.224   1.952883e-16 
   6977.863   1.934806e-16 
   6980.502   1.882848e-16 
   6983.142   1.827451e-16 
   6985.781   1.881796e-16 
    6988.42   1.873202e-16 
   6991.059   1.899079e-16 
   6993.698   1.885125e-16 
   6996.337   1.879646e-16 
   6998.976   1.850772e-16 
   7001.615   1.872218e-16 
   7004.254   1.899793e-16 
   7006.894   1.896578e-16 
   7009.533   1.870088e-16 
   7012.172   1.860739e-16 
   7014.811   1.896929e-16 
    7017.45   1.869799e-16 
   7020.089    1.75864e-16 
   7022.729   1.819629e-16 
   7025.367   1.849686e-16 
   7028.006   1.870451e-16 
   7030.646   1.887241e-16 
   7033.285   1.835577e-16 
   7035.924   1.854557e-16 
   7038.563   1.859479e-16 
   7041.202   1.746292e-16 
   7043.841    1.73167e-16 
    7046.48   1.791102e-16 
    7049.12   1.809221e-16 
   7051.759   1.751995e-16 
   7054.398   1.703311e-16 
   7057.037   1.648674e-16 
   7059.676   1.637691e-16 
   7062.315    1.73265e-16 
   7064.954   1.744058e-16 
   7067.593   1.744788e-16 
   7070.232   1.688877e-16 
   7072.872   1.710566e-16 
   7075.511   1.680338e-16 
    7078.15   1.703483e-16 
   7080.789   1.703988e-16 
   7083.428   1.639004e-16 
   7086.067   1.606305e-16 
   7088.707   1.602862e-16 
   7091.345   1.651182e-16 
   7093.984   1.583376e-16 
   7096.624   1.581405e-16 
   7099.263   1.588107e-16 
   7101.902   1.586508e-16 
   7104.541   1.635147e-16 
    7107.18   1.640432e-16 
   7109.819   1.629723e-16 
   7112.458   1.671317e-16 
   7115.098   1.674486e-16 
   7117.737   1.650123e-16 
   7120.376   1.619462e-16 
   7123.015   1.614077e-16 
   7125.654    1.68336e-16 
   7128.293   1.734575e-16 
   7130.932   1.707199e-16 
   7133.571   1.758143e-16 
    7136.21      1.718e-16 
    7138.85   1.743169e-16 
   7141.489   1.782047e-16 
   7144.128     1.8557e-16 
   7146.767   1.842103e-16 
   7149.406   1.814428e-16 
   7152.045   1.834124e-16 
   7154.685   1.796494e-16 
   7157.324    1.81719e-16 
   7159.962   1.774229e-16 
   7162.602   1.807523e-16 
   7165.241   1.854346e-16 
    7167.88   1.819185e-16 
   7170.519   1.830868e-16 
   7173.158   1.889374e-16 
   7175.797   1.842701e-16 
   7178.437   1.835864e-16 
   7181.076   1.842906e-16 
   7183.715    1.80411e-16 
   7186.354   1.826123e-16 
   7188.993   1.840022e-16 
   7191.632   1.849319e-16 
   7194.271   1.876085e-16 
    7196.91   1.867095e-16 
   7199.549   1.854411e-16 
   7202.188   1.843717e-16 
   7204.828    1.87662e-16 
   7207.467   1.913637e-16 
   7210.106   1.986056e-16 
   7212.745    2.06963e-16 
   7215.384   2.085171e-16 
   7218.023   2.034711e-16 
   7220.663   2.023055e-16 
   7223.302   2.065066e-16 
    7225.94   2.053754e-16 
    7228.58   2.006996e-16 
   7231.219   2.013082e-16 
   7233.858   2.048108e-16 
   7236.497   2.011101e-16 
   7239.136   1.981628e-16 
   7241.775   1.962588e-16 
   7244.415   1.934554e-16 
   7247.054   1.969179e-16 
   7249.693   1.998463e-16 
   7252.332   1.996442e-16 
   7254.971   1.986061e-16 
    7257.61   1.967997e-16 
   7260.249   1.917115e-16 
   7262.888   1.896433e-16 
   7265.527    1.88656e-16 
   7268.167   1.884386e-16 
   7270.806   1.855799e-16 
   7273.445   1.846459e-16 
   7276.084   1.813134e-16 
   7278.723   1.822994e-16 
   7281.362   1.845115e-16 
   7284.001   1.757278e-16 
   7286.641    1.77472e-16 
    7289.28   1.724847e-16 
   7291.918   1.762161e-16 
   7294.558   1.755172e-16 
   7297.197   1.723246e-16 
   7299.836   1.691564e-16 
   7302.475   1.673886e-16 
   7305.114   1.659726e-16 
   7307.753   1.635935e-16 
   7310.393   1.652999e-16 
   7313.032   1.718669e-16 
   7315.671   1.667517e-16 
    7318.31   1.682725e-16 
   7320.949   1.679566e-16 
   7323.588   1.673469e-16 
   7326.227   1.720836e-16 
   7328.866   1.743324e-16 
   7331.505   1.752335e-16 
   7334.145   1.783615e-16 
   7336.784   1.822548e-16 
   7339.423   1.759888e-16 
   7342.062   1.787461e-16 
   7344.701   1.797287e-16 
    7347.34   1.781437e-16 
   7349.979   1.771709e-16 
   7352.619   1.818281e-16 
   7355.258   1.836032e-16 
   7357.896   1.833536e-16 
   7360.536    1.77061e-16 
   7363.175   1.776807e-16 
   7365.814   1.817969e-16 
   7368.453   1.783401e-16 
   7371.092   1.840462e-16 
   7373.731   1.867985e-16 
   7376.371   1.820982e-16 
    7379.01   1.803385e-16 
   7381.649   1.771224e-16 
   7384.288   1.766146e-16 
   7386.927   1.790317e-16 
   7389.566   1.829129e-16 
   7392.205   1.845097e-16 
   7394.844   1.857952e-16 
   7397.483   1.801183e-16 
   7400.123   1.760933e-16 
   7402.762   1.836666e-16 
   7405.401   1.860588e-16 
    7408.04   1.832063e-16 
   7410.679   1.848983e-16 
   7413.318    1.85332e-16 
   7415.958   1.906046e-16 
   7418.597   1.995083e-16 
   7421.236   2.022889e-16 
   7423.875   2.038839e-16 
   7426.514   2.016423e-16 
   7429.153   2.027792e-16 
   7431.792   2.114176e-16 
   7434.431   2.174117e-16 
    7437.07   2.188129e-16 
   7439.709   2.172366e-16 
   7442.349   2.240289e-16 
   7444.988   2.273768e-16 
   7447.627   2.334798e-16 
   7450.266   2.427344e-16 
   7452.905   2.427823e-16 
   7455.544   2.440307e-16 
   7458.183   2.446859e-16 
   7460.822   2.480877e-16 
   7463.461   2.523838e-16 
   7466.101   2.549489e-16 
    7468.74   2.593963e-16 
   7471.379   2.634987e-16 
   7474.018   2.588902e-16 
   7476.657   2.624777e-16 
   7479.296   2.671551e-16 
   7481.936   2.699249e-16 
   7484.575   2.695168e-16 
   7487.214   2.693427e-16 
   7489.853    2.61918e-16 
   7492.492   2.650081e-16 
   7495.131   2.740959e-16 
    7497.77   2.737399e-16 
   7500.409   2.719559e-16 
   7503.048   2.633949e-16 
   7505.688    2.61929e-16 
   7508.327   2.617343e-16 
   7510.966   2.590359e-16 
   7513.605   2.585827e-16 
   7516.244   2.635838e-16 
   7518.883   2.597733e-16 
   7521.522   2.583263e-16 
   7524.161    2.45146e-16 
     7526.8    2.40468e-16 
   7529.439   2.521308e-16 
   7532.079   2.519551e-16 
   7534.718   2.439376e-16 
   7537.357   2.422884e-16 
   7539.996   2.422058e-16 
   7542.635   2.432877e-16 
   7545.274    2.45885e-16 
   7547.914   2.448524e-16 
   7550.553   2.462742e-16 
   7553.192   2.491451e-16 
   7555.831   2.517644e-16 
    7558.47   2.539243e-16 
   7561.109   2.476667e-16 
   7563.748    2.42968e-16 
   7566.387   2.487744e-16 
   7569.026   2.509021e-16 
   7571.666   2.463242e-16 
   7574.305   2.510255e-16 
   7576.944   2.546735e-16 
   7579.583   2.500556e-16 
   7582.222   2.524325e-16 
   7584.861   2.567446e-16 
     7587.5   2.466137e-16 
   7590.139   2.524836e-16 
   7592.778   2.516254e-16 
   7595.417    2.44298e-16 
   7598.057   2.462026e-16 
   7600.696   2.583449e-16 
   7603.335   2.332658e-16 
   7605.974    2.26126e-16 
   7608.613   2.309961e-16 
   7611.252   2.354074e-16 
   7613.892   2.215828e-16 
   7616.531   2.080389e-16 
    7619.17   2.088415e-16 
   7621.809   2.105454e-16 
   7624.448   2.079912e-16 
   7627.087   2.110433e-16 
   7629.726   2.080964e-16 
   7632.365   2.004491e-16 
   7635.004   2.153245e-16 
   7637.644   2.176746e-16 
   7640.283   2.192902e-16 
   7642.922   2.188265e-16 
   7645.561    2.21053e-16 
     7648.2    2.13037e-16 
   7650.839   2.117328e-16 
   7653.479   2.136135e-16 
   7656.117   2.205272e-16 
   7658.756   2.229404e-16 
   7661.396   2.240464e-16 
   7664.035   2.225103e-16 
   7666.674    2.24489e-16 
   7669.313   2.211205e-16 
   7671.952   2.240838e-16 
   7674.591   2.358404e-16 
    7677.23   2.339041e-16 
    7679.87   2.353557e-16 
   7682.509   2.354983e-16 
   7685.148    2.30733e-16 
   7687.787   2.362983e-16 
   7690.426   2.395682e-16 
   7693.065   2.389879e-16 
   7695.704   2.431046e-16 
   7698.343   2.404275e-16 
   7700.982   2.420129e-16 
   7703.622   2.395818e-16 
   7706.261   2.281188e-16 
     7708.9   2.387753e-16 
   7711.539   2.413491e-16 
   7714.178   2.408642e-16 
   7716.817   2.408288e-16 
   7719.457   2.329011e-16 
   7722.095   2.282827e-16 
   7724.734   2.356291e-16 
   7727.374   2.378329e-16 
   7730.013   2.318973e-16 
   7732.652   2.266201e-16 
   7735.291    2.18377e-16 
    7737.93   2.179173e-16 
   7740.569   2.167438e-16 
   7743.208     2.1422e-16 
   7745.848   2.145882e-16 
   7748.487   2.103805e-16 
   7751.126   2.058733e-16 
   7753.765   2.050797e-16 
   7756.404   2.043852e-16 
   7759.043   2.009532e-16 
   7761.682   2.017232e-16 
   7764.321   2.010768e-16 
    7766.96    1.96768e-16 
     7769.6   1.927562e-16 
   7772.239   1.904411e-16 
   7774.878   1.904171e-16 
   7777.517   1.939383e-16 
   7780.156   1.840424e-16 
   7782.795   1.720017e-16 
   7785.435   1.745335e-16 
   7788.073   1.739197e-16 
   7790.712     1.8074e-16 
   7793.352   1.823069e-16 
   7795.991   1.748865e-16 
    7798.63   1.682587e-16 
   7801.269   1.705265e-16 
   7803.908   1.692249e-16 
   7806.547   1.662793e-16 
   7809.187   1.675159e-16 
   7811.826   1.684351e-16 
   7814.465   1.699424e-16 
   7817.104   1.701747e-16 
   7819.743    1.62952e-16 
   7822.382   1.668415e-16 
   7825.021   1.600115e-16 
    7827.66   1.553101e-16 
   7830.299   1.617663e-16 
   7832.938   1.580861e-16 
   7835.578   1.526415e-16 
   7838.217   1.470432e-16 
   7840.856   1.477102e-16 
   7843.495   1.517036e-16 
   7846.134   1.458156e-16 
   7848.773   1.474974e-16 
   7851.413    1.46097e-16 
   7854.051   1.507788e-16 
    7856.69   1.506161e-16 
    7859.33   1.510832e-16 
   7861.969   1.495734e-16 
   7864.608   1.472899e-16 
   7867.247   1.529696e-16 
   7869.886   1.492573e-16 
   7872.525   1.470472e-16 
   7875.165   1.510853e-16 
   7877.804   1.490189e-16 
   7880.443   1.544376e-16 
   7883.082   1.571276e-16 
   7885.721   1.543841e-16 
    7888.36   1.583162e-16 
   7890.999   1.553337e-16 
   7893.638   1.546791e-16 
   7896.277   1.589573e-16 
   7898.917   1.634163e-16 
   7901.556   1.678544e-16 
   7904.195    1.74878e-16 
   7906.834    1.71335e-16 
   7909.473   1.766799e-16 
   7912.112    1.74588e-16 
   7914.751   1.757545e-16 
   7917.391   1.921226e-16 
   7920.029   1.939967e-16 
   7922.668   1.979027e-16 
   7925.308   2.104959e-16 
   7927.947    2.08789e-16 
   7930.586   2.153606e-16 
   7933.225   2.205483e-16 
   7935.864   2.300448e-16 
   7938.503   2.323373e-16 
   7941.143   2.369776e-16 
   7943.782   2.521041e-16 
   7946.421   2.465784e-16 
    7949.06   2.367565e-16 
   7951.699   2.434864e-16 
   7954.338   2.509803e-16 
   7956.977   2.621089e-16 
   7959.616    2.67294e-16 
   7962.255   2.650714e-16 
   7964.895   2.689771e-16 
   7967.534   2.685424e-16 
   7970.173   2.737733e-16 
   7972.812   2.796187e-16 
   7975.451   2.777897e-16 
    7978.09   2.849602e-16 
   7980.729   2.859303e-16 
   7983.369   2.854399e-16 
   7986.008   2.864896e-16 
   7988.646   2.921948e-16 
   7991.286   2.905265e-16 
   7993.925   2.855888e-16 
   7996.564   2.870091e-16 
   7999.203   2.923556e-16 
   8001.842   2.892555e-16 
   8004.481   2.948715e-16 
   8007.121   2.943901e-16 
    8009.76   2.855547e-16 
   8012.399   2.896856e-16 
   8015.038   2.982266e-16 
   8017.677   2.898514e-16 
   8020.316   2.857669e-16 
   8022.955   2.964194e-16 
   8025.594   2.866856e-16 
   8028.233   2.903896e-16 
   8030.873   2.965783e-16 
   8033.512   2.934028e-16 
   8036.151   2.903759e-16 
    8038.79   2.916787e-16 
   8041.429   2.962168e-16 
   8044.068   2.972518e-16 
   8046.708    3.01647e-16 
   8049.347   3.061555e-16 
   8051.986   3.062025e-16 
   8054.625   3.042846e-16 
   8057.264   3.016397e-16 
   8059.903   2.983563e-16 
   8062.542   3.025784e-16 
   8065.181   3.062915e-16 
    8067.82   3.101755e-16 
   8070.459    3.08038e-16 
   8073.099   3.052401e-16 
   8075.738   3.092856e-16 
   8078.377   3.025456e-16 
   8081.016   3.091972e-16 
   8083.655   3.084946e-16 
   8086.294   3.043049e-16 
   8088.933   3.034449e-16 
   8091.572    2.99888e-16 
   8094.211   3.011353e-16 
   8096.851   2.923781e-16 
    8099.49   2.929654e-16 
   8102.129   2.947882e-16 
   8104.768   2.897066e-16 
   8107.407   2.890974e-16 
   8110.046   3.035583e-16 
   8112.686   2.990644e-16 
   8115.325   2.893722e-16 
   8117.964    2.87513e-16 
   8120.603   2.955219e-16 
   8123.242   3.002229e-16 
   8125.881   2.925374e-16 
    8128.52   2.999383e-16 
   8131.159   2.971275e-16 
   8133.798   2.890816e-16 
   8136.438   2.932648e-16 
   8139.077   2.967655e-16 
   8141.716   2.857128e-16 
   8144.355    2.88172e-16 
   8146.994   2.910742e-16 
   8149.633   2.825412e-16 
   8152.272   2.814171e-16 
   8154.911   2.804781e-16 
    8157.55   2.730194e-16 
   8160.189   2.664056e-16 
   8162.829   2.668413e-16 
   8165.468   2.623539e-16 
   8168.107   2.643858e-16 
   8170.746   2.634836e-16 
   8173.385   2.672093e-16 
   8176.024   2.654113e-16 
   8178.664   2.656983e-16 
   8181.303   2.660242e-16 
   8183.942   2.604363e-16 
   8186.581   2.582549e-16 
    8189.22   2.595769e-16 
   8191.859    2.61253e-16 
   8194.498   2.566589e-16 
   8197.138   2.470458e-16 
   8199.776   2.498749e-16 
   8202.415   2.608932e-16 
   8205.055   2.630571e-16 
   8207.693   2.622024e-16 
   8210.333   2.622411e-16 
   8212.972   2.567282e-16 
   8215.611   2.543723e-16 
    8218.25   2.567388e-16 
    8220.89   2.533117e-16 
   8223.528   2.488094e-16 
   8226.168   2.478789e-16 
   8228.807   2.328464e-16 
   8231.446   2.238381e-16 
   8234.085   2.210002e-16 
   8236.724   2.259484e-16 
   8239.363   2.383039e-16 
   8242.002   2.462952e-16 
   8244.642   2.480733e-16 
    8247.28   2.382026e-16 
    8249.92    2.33392e-16 
   8252.559   2.394544e-16 
   8255.198    2.37327e-16 
   8257.837   2.299953e-16 
   8260.477   2.286687e-16 
   8263.115   2.269995e-16 
   8265.755   2.260171e-16 
   8268.394   2.272669e-16 
   8271.032   2.266002e-16 
   8273.672   2.220136e-16 
   8276.311   2.150274e-16 
    8278.95   2.111663e-16 
   8281.589   2.067182e-16 
   8284.229   2.091693e-16 
   8286.867   2.166266e-16 
   8289.507   2.101871e-16 
   8292.146   2.150229e-16 
   8294.785   2.142235e-16 
   8297.424   2.097082e-16 
   8300.063     2.1094e-16 
   8302.702   2.129174e-16 
   8305.341   2.134934e-16 
    8307.98   2.033324e-16 
   8310.619   2.059092e-16 
   8313.259   2.075412e-16 
   8315.897   2.027741e-16 
   8318.537   1.962364e-16 
   8321.176   1.992556e-16 
   8323.815   1.949365e-16 
   8326.454   1.945071e-16 
   8329.094   2.020615e-16 
   8331.732   2.035726e-16 
   8334.371   1.981908e-16 
   8337.011   1.950659e-16 
   8339.649   1.908042e-16 
   8342.289   1.865537e-16 
   8344.928   1.905955e-16 
   8347.567   1.883678e-16 
   8350.206   1.884544e-16 
   8352.846   2.006801e-16 
   8355.484   1.936053e-16 
   8358.124   1.852136e-16 
   8360.763   1.809591e-16 
   8363.402   1.804766e-16 
   8366.041   1.856441e-16 
    8368.68   1.798973e-16 
   8371.319    1.77472e-16 
   8373.958   1.736267e-16 
   8376.598   1.836006e-16 
   8379.236   1.801203e-16 
   8381.876   1.735026e-16 
   8384.515   1.730243e-16 
   8387.154   1.759159e-16 
   8389.793   1.718208e-16 
   8392.433   1.751061e-16 
   8395.071    1.81397e-16 
   8397.711   1.870212e-16 
    8400.35   1.892069e-16 
   8402.988   1.838629e-16 
   8405.628   1.824619e-16 
   8408.267   1.770433e-16 
   8410.906   1.727445e-16 
   8413.545   1.733107e-16 
   8416.185   1.662865e-16 
   8418.823   1.666467e-16 
   8421.463   1.632826e-16 
   8424.102   1.560999e-16 
   8426.741   1.526067e-16 
    8429.38   1.456509e-16 
    8432.02   1.466603e-16 
   8434.658   1.416228e-16 
   8437.297   1.408537e-16 
   8439.937   1.437828e-16 
   8442.575   1.340354e-16 
   8445.215    1.31284e-16 
   8447.854   1.226237e-16 
   8450.493   1.230917e-16 
   8453.132   1.232604e-16 
   8455.771   1.213565e-16 
    8458.41    1.10974e-16 
    8461.05   1.087596e-16 
   8463.688   1.067485e-16 
   8466.328   1.074646e-16 
   8468.967   1.004189e-16 
   8471.605   9.749723e-17 
   8474.245   1.008502e-16 
   8476.884   1.007171e-16 
   8479.523     9.8712e-17 
   8482.162   9.165376e-17 
   8484.802    8.88221e-17 
    8487.44   8.841407e-17 
    8490.08   8.831426e-17 
   8492.719   8.373594e-17 
   8495.358    8.49169e-17 
   8497.997    7.96542e-17 
   8500.636   7.715935e-17 
   8503.275   8.129646e-17 
   8505.914   8.029299e-17 
   8508.554   7.278185e-17 
   8511.192   7.156409e-17 
   8513.832   6.413583e-17 
   8516.471   6.612126e-17 
    8519.11   6.782983e-17 
   8521.749   6.657668e-17 
   8524.389   6.970793e-17 
   8527.027   7.216154e-17 
   8529.667   7.009255e-17 
   8532.306   7.125686e-17 
   8534.944   7.004409e-17 
   8537.584   7.164477e-17 
   8540.223    7.55654e-17 
   8542.862   7.059333e-17 
   8545.501   6.707954e-17 
   8548.141    7.01132e-17 
   8550.779   7.153501e-17 
   8553.419   7.111213e-17 
   8556.058   7.129052e-17 
   8558.697   7.046688e-17 
   8561.336   6.647651e-17 
   8563.976   7.168102e-17 
   8566.614   6.901984e-17 
   8569.253   6.964482e-17 
   8571.893   7.065509e-17 
   8574.531   6.566684e-17 
   8577.171   6.943687e-17 
    8579.81   6.438389e-17 
   8582.449   6.565814e-17 
   8585.088   6.843195e-17 
   8587.728   7.012884e-17 
   8590.366   7.009931e-17 
   8593.006   6.942569e-17 
   8595.645   7.249979e-17 
   8598.284   7.431325e-17 
   8600.923   6.998536e-17 
   8603.562   6.715171e-17 
   8606.201   6.501345e-17 
    8608.84   7.076606e-17 
   8611.479   7.424728e-17 
   8614.118   7.063316e-17 
   8616.758    8.01534e-17 
   8619.396   7.446212e-17 
   8622.036   6.799101e-17 
   8624.675   7.714501e-17 
   8627.314   8.534783e-17 
   8629.953   8.542269e-17 
   8632.592   8.783002e-17 
   8635.231    8.99337e-17 
    8637.87   9.130767e-17 
    8640.51   1.006261e-16 
   8643.148   9.739885e-17 
   8645.788   9.902889e-17 
   8648.427   1.045729e-16 
   8651.066   1.150052e-16 
   8653.705   1.146723e-16 
   8656.345   1.190259e-16 
   8658.983   1.256645e-16 
   8661.623   1.295588e-16 
   8664.262   1.351311e-16 
     8666.9   1.410202e-16 
    8669.54     1.4164e-16 
   8672.179   1.424151e-16 
   8674.818    1.43126e-16 
   8677.457     1.5028e-16 
   8680.097   1.608313e-16 
   8682.735   1.546487e-16 
   8685.375   1.652978e-16 
   8688.014    1.61818e-16 
   8690.653   1.562393e-16 
   8693.292   1.701349e-16 
   8695.932   1.647086e-16 
    8698.57   1.675128e-16 
   8701.209   1.728615e-16 
   8703.849   1.787122e-16 
   8706.487   1.806062e-16 
   8709.127   1.886481e-16 
   8711.766   1.831654e-16 
   8714.405   1.788227e-16 
   8717.044   1.802295e-16 
   8719.684   1.803074e-16 
   8722.322   1.808552e-16 
   8724.962   1.804456e-16 
   8727.601   1.830898e-16 
    8730.24   1.847542e-16 
   8732.879   1.850903e-16 
   8735.518    1.88061e-16 
   8738.157   1.915292e-16 
   8740.796   1.930266e-16 
   8743.436   1.890962e-16 
   8746.074   1.905134e-16 
   8748.714   1.960641e-16 
   8751.353   2.034047e-16 
   8753.992   2.090522e-16 
   8756.631   2.133317e-16 
   8759.271   2.268733e-16 
   8761.909   2.332559e-16 
   8764.549   2.333608e-16 
   8767.188   2.476095e-16 
   8769.826   2.601782e-16 
   8772.466   2.570556e-16 
   8775.104   2.545971e-16 
   8777.744    2.53881e-16 
   8780.383   2.736372e-16 
   8783.022    2.91611e-16 
   8785.661   2.866534e-16 
   8788.301   2.964366e-16 
   8790.939   3.116581e-16 
   8793.579   3.142216e-16 
   8796.218   3.231504e-16 
   8798.856   3.361044e-16 
   8801.496   3.455452e-16 
   8804.135   3.537278e-16 
   8806.774   3.660819e-16 
   8809.413   3.798483e-16 
   8812.053   3.836405e-16 
   8814.691   3.830802e-16 
   8817.331   3.908826e-16 
    8819.97   3.930356e-16 
   8822.609    4.15883e-16 
   8825.248   4.294001e-16 
   8827.888   4.275747e-16 
   8830.526   4.467158e-16 
   8833.165   4.477178e-16 
   8835.805   4.525303e-16 
   8838.443   4.520391e-16 
   8841.083   4.421822e-16 
   8843.722   4.552189e-16 
   8846.361   4.531995e-16 
     8849.0   4.530843e-16 
    8851.64   4.666594e-16 
   8854.278   4.693926e-16 
   8856.918   4.704652e-16 
   8859.557   4.797037e-16 
   8862.196   4.875665e-16 
   8864.835   4.876279e-16 
   8867.474   4.864145e-16 
   8870.113   4.736504e-16 
   8872.752   4.745277e-16 
   8875.392   4.921481e-16 
    8878.03   4.956388e-16 
    8880.67   5.143478e-16 
   8883.309   5.170657e-16 
   8885.948   5.065124e-16 
   8888.587   5.105858e-16 
   8891.227    4.98581e-16 
   8893.865   4.931359e-16 
   8896.505   5.007125e-16 
   8899.144   5.010813e-16 
   8901.782   5.197171e-16 
   8904.422    5.30527e-16 
   8907.061   5.295041e-16 
     8909.7   5.162056e-16 
   8912.339   5.300094e-16 
   8914.979   5.297435e-16 
   8917.617   5.032329e-16 
   8920.257   5.126276e-16 
   8922.896   5.292035e-16 
   8925.535   5.473932e-16 
   8928.174   5.514285e-16 
   8930.812   5.317274e-16 
   8933.452   5.211878e-16 
   8936.091   5.128084e-16 
    8938.73   5.169993e-16 
   8941.369   5.177294e-16 
   8944.009   5.130259e-16 
   8946.647   5.202334e-16 
   8949.287   5.063664e-16 
   8951.926   5.148317e-16 
   8954.565   5.098128e-16 
   8957.204   4.977135e-16 
   8959.844   5.034489e-16 
   8962.482   4.975737e-16 
   8965.121   4.829805e-16 
   8967.761   4.742155e-16 
   8970.399   4.819587e-16 
   8973.039   4.904659e-16 
   8975.678   4.861575e-16 
   8978.317   4.855292e-16 
   8980.956   4.969509e-16 
   8983.596   4.936955e-16 
   8986.234   4.619066e-16 
   8988.874   4.382675e-16 
   8991.513   4.310127e-16 
   8994.152    4.37997e-16 
   8996.791   4.380339e-16 
    8999.43   4.503481e-16 
   9002.069   4.496686e-16 
   9004.708   4.544968e-16 
   9007.348   4.640539e-16 
   9009.986    4.56905e-16 
   9012.626   4.293228e-16 
   9015.265   4.218464e-16 
   9017.904   4.072452e-16 
   9020.543   4.093736e-16 
   9023.183   4.070838e-16 
   9025.821   4.082788e-16 
   9028.461   4.181261e-16 
     9031.1   4.263881e-16 
   9033.738    4.24112e-16 
   9036.378    4.14772e-16 
   9039.017   4.114586e-16 
   9041.656   4.010089e-16 
   9044.295   3.840566e-16 
   9046.935   3.826646e-16 
   9049.573   3.862432e-16 
   9052.213   3.803653e-16 
   9054.852   3.804847e-16 
   9057.491   3.699114e-16 
    9060.13   3.678837e-16 
    9062.77   3.694127e-16 
   9065.408   3.508092e-16 
   9068.047   3.255455e-16 
   9070.687   3.233816e-16 
   9073.325   3.157045e-16 
   9075.965   3.191372e-16 
   9078.604   3.189715e-16 
   9081.243   3.275611e-16 
   9083.882   3.270321e-16 
   9086.521   3.226229e-16 
    9089.16   3.215593e-16 
     9091.8   3.177907e-16 
   9094.438   3.262195e-16 
   9097.077   3.204797e-16 
   9099.717   2.975381e-16 
   9102.355   2.979231e-16 
   9104.995   3.049593e-16 
   9107.634   3.107242e-16 
   9110.273   3.116656e-16 
   9112.912   3.058874e-16 
   9115.552   3.009759e-16 
    9118.19   3.049936e-16 
    9120.83   2.956621e-16 
   9123.469   2.841219e-16 
   9126.108   2.747246e-16 
   9128.747   2.630283e-16 
   9131.386   2.777496e-16 
   9134.025   2.738935e-16 
   9136.664   2.791055e-16 
   9139.304    2.74215e-16 
   9141.942   2.725123e-16 
   9144.582   2.724268e-16 
   9147.221   2.591011e-16 
    9149.86   2.503113e-16 
   9152.499   2.478039e-16 
   9155.139   2.430063e-16 
   9157.777   2.481934e-16 
   9160.417   2.625105e-16 
   9163.056   2.711533e-16 
   9165.694   2.689733e-16 
   9168.334   2.424569e-16 
   9170.973   2.144367e-16 
   9173.612   2.201248e-16 
   9176.251   2.241137e-16 
   9178.891   2.371358e-16 
   9181.529   2.353904e-16 
   9184.169   2.350448e-16 
   9186.808   2.410947e-16 
   9189.447   2.432558e-16 
   9192.086   2.451391e-16 
   9194.726   2.313964e-16 
   9197.364   2.358855e-16 
   9200.003   2.421681e-16 
   9202.643   2.382137e-16 
   9205.281   2.282781e-16 
   9207.921   2.321129e-16 
    9210.56   2.386316e-16 
   9213.199   2.336736e-16 
   9215.838   2.409113e-16 
   9218.478   2.419776e-16 
   9221.116    2.28657e-16 
   9223.756   2.310227e-16 
   9226.395   2.256167e-16 
   9229.033   2.190938e-16 
   9231.673   2.172838e-16 
   9234.312   2.163946e-16 
   9236.951   2.338479e-16 
    9239.59    2.36282e-16 
   9242.229   2.279731e-16 
   9244.868   2.208027e-16 
   9247.508   2.194929e-16 
   9250.146   2.093983e-16 
   9252.786   2.152633e-16 
   9255.425    2.13328e-16 
   9258.064   2.143229e-16 
   9260.703   2.198623e-16 
   9263.342   2.216849e-16 
   9265.981   2.326205e-16 
    9268.62   2.257845e-16 
    9271.26   2.151883e-16 
   9273.898     2.1335e-16 
   9276.538   2.075089e-16 
   9279.177   2.088921e-16 
   9281.816   2.024563e-16 
   9284.455   2.046883e-16 
   9287.095   2.039072e-16 
   9289.733   2.034204e-16 
   9292.373   2.015841e-16 
   9295.012    2.05283e-16 
    9297.65   2.030809e-16 
    9300.29   1.793183e-16 
   9302.929   1.837664e-16 
   9305.568   1.711659e-16 
   9308.207   1.551966e-16 
   9310.847   1.646821e-16 
   9313.485   1.679448e-16 
   9316.125   1.547724e-16 
   9318.764   1.435229e-16 
   9321.403   1.493092e-16 
   9324.042   1.550281e-16 
   9326.682   1.475851e-16 
    9329.32    1.34143e-16 
   9331.959   1.182603e-16 
   9334.599   1.028554e-16 
   9337.237   1.029026e-16 
   9339.877   1.089218e-16 
   9342.516   1.052044e-16 
   9345.155   1.140134e-16 
   9347.794     1.1223e-16 
   9350.434   1.151708e-16 
   9353.072   1.082205e-16 
   9355.712    9.66966e-17 
   9358.351   1.044197e-16 
    9360.99   1.067544e-16 
   9363.629   1.036067e-16 
   9366.268   1.044726e-16 
   9368.907    1.04386e-16 
   9371.546   1.020179e-16 
   9374.186   1.004656e-16 
   9376.824   1.078152e-16 
   9379.464   1.019518e-16 
   9382.103   1.051375e-16 
   9384.742   1.149455e-16 
   9387.381   1.169232e-16 
   9390.021   1.159274e-16 
   9392.659   1.182058e-16 
   9395.298   1.283542e-16 
   9397.938   1.338091e-16 
   9400.576   1.364263e-16 
   9403.216   1.305264e-16 
   9405.854    1.25675e-16 
   9408.494   1.213273e-16 
   9411.133    1.29157e-16 
   9413.772   1.416142e-16 
   9416.411   1.387198e-16 
   9419.051   1.373891e-16 
   9421.689   1.397087e-16 
   9424.329   1.402902e-16 
   9426.968   1.416362e-16 
   9429.606   1.492378e-16 
   9432.246   1.451812e-16 
   9434.885   1.236022e-16 
   9437.524   1.360664e-16 
   9440.163   1.506178e-16 
   9442.803   1.622711e-16 
   9445.441   1.632929e-16 
   9448.081   1.534998e-16 
    9450.72   1.651875e-16 
   9453.359   1.747455e-16 
   9455.998   1.852773e-16 
   9458.638   1.924766e-16 
   9461.276   1.780316e-16 
   9463.915   1.990426e-16 
   9466.555   2.130196e-16 
   9469.193   1.779201e-16 
   9471.833   1.746952e-16 
   9474.472   2.009758e-16 
   9477.111   2.100371e-16 
    9479.75   2.038011e-16 
    9482.39   2.002253e-16 
   9485.028    1.73246e-16 
   9487.668   1.473922e-16 
   9490.307   1.357429e-16 
   9492.946   1.247623e-16 
   9495.585   1.539871e-16 
   9498.224   1.833387e-16 
   9500.863   1.891302e-16 
   9503.502   1.815231e-16 
   9506.142   1.723073e-16 
    9508.78   1.673083e-16 
    9511.42   1.627847e-16 
   9514.059   1.654476e-16 
   9516.698   1.638448e-16 
   9519.337   1.635812e-16 
   9521.977   1.688317e-16 
   9524.615   1.784886e-16 
   9527.254   1.657563e-16 
   9529.894    1.48058e-16 
   9532.532   1.563182e-16 
   9535.172   1.620146e-16 
   9537.811   1.550937e-16 
    9540.45   1.707076e-16 
   9543.089   1.797761e-16 
   9545.729   1.782164e-16 
   9548.367   1.718408e-16 
   9551.007   1.616252e-16 
   9553.646   1.559565e-16 
   9556.285   1.512099e-16 
   9558.924   1.441236e-16 
   9561.562   1.482099e-16 
   9564.202   1.536509e-16 
   9566.841   1.618767e-16 
    9569.48   1.707673e-16 
   9572.119   1.670753e-16 
   9574.759   1.650407e-16 
   9577.397   1.569809e-16 
   9580.037   1.485232e-16 
   9582.676    1.42785e-16 
   9585.315   1.414229e-16 
   9587.954   1.462831e-16 
   9590.594   1.537335e-16 
   9593.232    1.61531e-16 
   9595.871   1.597384e-16 
   9598.511   1.589023e-16 
   9601.149   1.620987e-16 
   9603.789   1.564261e-16 
   9606.428   1.468065e-16 
   9609.067   1.388801e-16 
   9611.706   1.374838e-16 
   9614.346    1.36226e-16 
   9616.984   1.406739e-16 
   9619.624   1.514904e-16 
   9622.263   1.633064e-16 
   9624.902   1.632489e-16 
   9627.541   1.435863e-16 
    9630.18   1.257358e-16 
   9632.819   1.210315e-16 
   9635.458    1.19774e-16 
   9638.098   1.186629e-16 
   9640.736     1.1643e-16 
   9643.376   1.240424e-16 
   9646.015   1.339176e-16 
   9648.654   1.311901e-16 
   9651.293   1.362457e-16 
   9653.933   1.265777e-16 
   9656.571   1.311658e-16 
   9659.211   1.190426e-16 
    9661.85   1.159911e-16 
   9664.488   1.302602e-16 
   9667.128   1.275806e-16 
   9669.767    1.13207e-16 
   9672.406   1.064572e-16 
   9675.045   1.127526e-16 
   9677.685   1.132531e-16 
   9680.323   1.165826e-16 
   9682.963   1.198389e-16 
   9685.602   1.170735e-16 
   9688.241   1.173957e-16 
    9690.88   1.093979e-16 
   9693.519   9.739577e-17 
   9696.158   9.353756e-17 
   9698.797   9.510297e-17 
   9701.437    9.26369e-17 
   9704.075   9.225445e-17 
   9706.715   1.078088e-16 
   9709.354   1.068173e-16 
   9711.993   1.165993e-16 
   9714.632    1.17384e-16 
   9717.271   1.152791e-16 
    9719.91   1.037183e-16 
    9722.55   8.587026e-17 
   9725.188   9.284202e-17 
   9727.827   9.439751e-17 
   9730.467   9.301477e-17 
   9733.105   8.853718e-17 
   9735.745   8.492207e-17 
   9738.384   8.302313e-17 
   9741.023   7.870461e-17 
   9743.662     8.6309e-17 
   9746.302   9.406778e-17 
    9748.94   8.476222e-17 
    9751.58    7.92131e-17 
   9754.219   8.383564e-17 
   9756.858   8.412377e-17 
   9759.497   8.382422e-17 
   9762.136   8.914581e-17 
   9764.775   8.426744e-17 
   9767.414   8.439491e-17 
   9770.054   8.984175e-17 
   9772.692   8.737332e-17 
   9775.332   8.853435e-17 
   9777.971   9.407757e-17 
    9780.61   8.181936e-17 
   9783.249   7.186883e-17 
   9785.889   6.984704e-17 
   9788.527   7.213808e-17 
   9791.167   7.481636e-17 
   9793.806   7.622076e-17 
   9796.444   7.988405e-17 
   9799.084   7.549002e-17 
   9801.723   7.595449e-17 
   9804.362   8.247279e-17 
   9807.001    8.18955e-17 
   9809.641   7.709141e-17 
   9812.279   6.973115e-17 
   9814.919   6.386417e-17 
   9817.558   5.973483e-17 
   9820.197   6.395731e-17 
   9822.836   7.215958e-17 
   9825.475   7.209016e-17 
   9828.114   6.810375e-17 
   9830.753   7.026828e-17 
   9833.393    7.20196e-17 
   9836.031   5.663892e-17 
   9838.671   5.585316e-17 
    9841.31   6.211146e-17 
   9843.949   6.242322e-17 
   9846.588   6.182612e-17 
   9849.228   6.279439e-17 
   9851.866   5.821779e-17 
   9854.506   6.114589e-17 
   9857.145   6.043644e-17 
   9859.783   6.769438e-17 
   9862.423   7.470244e-17 
   9865.062   7.654253e-17 
   9867.701   7.933085e-17 
    9870.34   7.385209e-17 
   9872.979   6.182309e-17 
   9875.618   4.991673e-17 
   9878.258   5.051371e-17 
   9880.896   5.544778e-17 
   9883.536    5.68399e-17 
   9886.175   5.560839e-17 
   9888.814   5.097037e-17 
   9891.453   5.241659e-17 
   9894.092   5.907019e-17 
   9896.731   5.063853e-17 
    9899.37   5.050116e-17 
    9902.01   6.198887e-17 
   9904.648   4.412377e-17 
   9907.288   4.214354e-17 
   9909.927   4.362745e-17 
   9912.566   4.229439e-17 
   9915.205   4.065211e-17 
   9917.845    4.05595e-17 
   9920.483   4.528427e-17 
   9923.123   4.414952e-17 
   9925.762   4.874865e-17 
     9928.4   4.948404e-17 
    9931.04   4.674228e-17 
   9933.679    5.51218e-17 
   9936.318   5.311735e-17 
   9938.957   4.633825e-17 
   9941.597   4.390623e-17 
   9944.235   4.282353e-17 
   9946.875   4.301249e-17 
   9949.514   4.758384e-17 
   9952.153   4.674222e-17 
   9954.792   4.501937e-17 
   9957.432   3.933407e-17 
    9960.07   3.872944e-17 
   9962.709   4.620515e-17 
   9965.349   4.388537e-17 
   9967.987   3.861459e-17 
   9970.627   4.321407e-17 
   9973.266   3.743108e-17 
   9975.905   3.609321e-17 
   9978.544   3.268073e-17 
   9981.184   3.515005e-17 
   9983.822   4.411698e-17 
   9986.462   4.391955e-17 
   9989.101   3.472834e-17 
   9991.739   3.474876e-17 
   9994.379   3.802778e-17 
   9997.018   3.439158e-17 
   9999.657   3.557122e-17 
    10002.3   3.376002e-17 
   10004.94    3.06721e-17 
   10007.57   2.997347e-17 
   10010.21   2.610295e-17 
   10012.85   2.772057e-17 
   10015.49   3.238115e-17 
   10018.13   3.147648e-17 
   10020.77   2.628534e-17 
   10023.41   2.945274e-17 
   10026.05   2.699194e-17 
   10028.69   2.777508e-17 
   10031.33   3.077318e-17 
   10033.97   3.384654e-17 
    10036.6   3.043413e-17 
   10039.24    2.39639e-17 
   10041.88   2.246045e-17 
   10044.52   2.599681e-17 
   10047.16   2.825229e-17 
    10049.8   2.780236e-17 
   10052.44   3.112596e-17 
   10055.08   3.427188e-17 
   10057.72   3.033466e-17 
   10060.36   2.932762e-17 
    10063.0   2.754037e-17 
   10065.63   1.959637e-17 
   10068.27   2.059114e-17 
   10070.91   2.075057e-17 
   10073.55   2.139844e-17 
   10076.19   2.406076e-17 
   10078.83   2.233483e-17 
   10081.47   2.115508e-17 
   10084.11   2.524936e-17 
   10086.75   2.591421e-17 
   10089.39   2.194704e-17 
   10092.03   2.457696e-17 
   10094.67   2.040793e-17 
    10097.3   2.000495e-17 
   10099.94    2.12431e-17 
   10102.58   3.055185e-17 
   10105.22    3.29345e-17 
   10107.86   2.729655e-17 
    10110.5    2.72513e-17 
   10113.14   2.400582e-17 
   10115.78   1.921652e-17 
   10118.42   2.114055e-17 
   10121.06   2.094711e-17 
    10123.7   2.031682e-17 
   10126.33   2.650889e-17 
   10128.97   2.402636e-17 
   10131.61    1.93882e-17 
   10134.25   2.709786e-17 
   10136.89   2.032444e-17 
   10139.53   1.880277e-17 
   10142.17   2.127534e-17 
   10144.81   1.819947e-17 
   10147.45     1.7209e-17 
   10150.09   1.606988e-17 
   10152.73   2.217906e-17 
   10155.37    1.95135e-17 
    10158.0   1.472315e-17 
   10160.64   2.092954e-17 
   10163.28    1.82036e-17 
   10165.92   2.055619e-17 
   10168.56   1.709517e-17 
    10171.2   2.198934e-17 
   10173.84   1.949529e-17 
   10176.48   2.157718e-17 
   10179.12   2.008425e-17 
   10181.76   1.696408e-17 
    10184.4   2.203521e-17 
   10187.04   2.119765e-17 
   10189.67   2.075962e-17 
   10192.31   2.410264e-17 
   10194.95   2.411227e-17 
   10197.59   2.524865e-17 
   10200.23   2.277885e-17 
   10202.87   1.717445e-17 
   10205.51   2.015839e-17 
   10208.15   2.038905e-17 
   10210.79   2.423067e-17 
   10213.43   1.787147e-17 
   10216.07   1.919704e-17 
    10218.7   1.528249e-17 
   10221.34   1.709959e-17 
   10223.98   2.005232e-17 
   10226.62   1.569622e-17 
   10229.26   1.484545e-17 
    10231.9   1.524161e-17 
   10234.54   9.548625e-18 
   10237.18    1.40986e-17 
   10239.82   1.572588e-17 
   10242.46   1.642483e-17 
    10245.1   1.811833e-17 
   10247.73   2.046926e-17 
   10250.37   1.652358e-17 
   10253.01    1.72305e-17 
   10255.65   1.585692e-17 
   10258.29   1.081928e-17 
   10260.93   1.652735e-17 
   10263.57   1.790245e-17 
   10266.21   2.358323e-17 
   10268.85   2.282279e-17 
   10271.49   1.850441e-17 
   10274.13   1.786532e-17 
   10276.76   6.238406e-18 
    10279.4  -1.364355e-17 
   10282.04  -1.254267e-17 
   10284.68   7.479793e-18 
   10287.32   2.013891e-17 
   10289.96   1.949469e-17 
    10292.6   2.002684e-17 
   10295.24   1.904819e-17 
   10297.88   1.596378e-17 
   10300.52    1.45776e-17 
   10303.16   1.603061e-17 
   10305.79   1.719308e-17 
   10308.43    1.99872e-17 
   10311.07   1.309846e-17 
   10313.71   1.716359e-17 
   10316.35   2.746344e-17 
   10318.99   1.768451e-17 
   10321.63   2.081097e-17 
   10324.27   3.102309e-17 
   10326.91   2.428982e-17 
   10329.55   1.738708e-17 
   10332.19   1.763433e-17 
   10334.83   2.210557e-17 
   10337.46    1.39488e-17 
    10340.1   1.539433e-17 
   10342.74   1.478878e-17 
   10345.38   1.706077e-17 
   10348.02    9.66818e-18 
   10350.66   1.141568e-17 
    10353.3   1.871552e-17 
   10355.94    1.82503e-17 
