# STATUS =
# OBJECT = 2019kwu
# TELESCOPE = Keck1
# INSTRUMENT = LRIS
# DATE-OBS = 2019-07-02 00:00:00.000
# MJD = 58666.0
# EXPTIME =
# AIRMASS =
# SLIT =
# DISPERSER =
# SOURCE = DOI 10.3847/1538-4357/aca161
# FILTER =
# RESOLUTION =
# FLUX_STANDARD =
# EXTINCTION_CORRECTED =
# PHOTOMETRY_CALIBRATED =
# TELLURIC_CORRECTED =
# FLUX_UNITS =
# WAVE_UNITS =
# QUALITY =
# MIN_WAVE = 3092.312
# MAX_WAVE = 10306.774
# COMMENT =
 Wavelength          Flux 
  3094.2625  -6.26877e-17 
  3096.2136  -5.75708e-17 
  3098.1653   1.67413e-18 
  3100.1174  -6.14483e-17 
  3102.0703    3.6418e-17 
  3104.0239   5.62155e-17 
   3105.978    2.3977e-17 
  3107.9329   6.34178e-18 
  3109.8882   3.08993e-17 
  3111.8442  -4.39163e-18 
  3113.8008   1.09196e-17 
  3115.7581  -2.00565e-18 
  3117.7158  -2.22074e-18 
  3119.6743   7.28732e-18 
  3121.6333   1.16351e-17 
   3123.593   2.30218e-17 
  3125.5535   -3.1486e-17 
  3127.5144   -5.6773e-18 
  3129.4758  -1.87098e-17 
   3131.438   2.99201e-17 
  3133.4009   2.05216e-17 
   3135.364   1.84285e-17 
  3137.3281  -1.81884e-17 
  3139.2925   1.27327e-17 
  3141.2578   4.79451e-18 
  3143.2236  -1.55527e-17 
  3145.1899   2.39989e-17 
   3147.157   -1.0679e-17 
  3149.1245   -4.7536e-18 
  3151.0928  -2.31836e-17 
  3153.0615   1.46995e-17 
  3155.0308   2.06156e-17 
  3157.0007  -2.41636e-17 
  3158.9714   1.22299e-19 
  3160.9424   7.41757e-18 
  3162.9143   1.76154e-19 
  3164.8867  -9.21122e-18 
  3166.8596   9.94273e-18 
   3168.833   4.65512e-18 
  3170.8071  -6.66384e-18 
   3172.782  -1.24578e-18 
  3174.7571  -1.15522e-18 
  3176.7332   5.57517e-18 
  3178.7097   1.81385e-17 
  3180.6868    5.1233e-18 
  3182.6643   1.67576e-17 
  3184.6426   8.72665e-18 
  3186.6213  -4.12111e-18 
  3188.6006   1.54513e-17 
  3190.5808  -5.83856e-18 
  3192.5613   7.87562e-18 
  3194.5425   1.81896e-17 
  3196.5242   5.43649e-19 
  3198.5063   2.05266e-18 
  3200.4893  -1.44257e-18 
  3202.4727   1.96937e-18 
  3204.4565  -1.16719e-17 
  3206.4412   1.47746e-17 
  3208.4265   7.35885e-19 
  3210.4121  -5.12784e-18 
  3212.3984   1.21167e-17 
  3214.3853  -6.17291e-19 
  3216.3728   1.35786e-17 
  3218.3606   1.41455e-18 
  3220.3491   6.62731e-18 
  3222.3384  -3.47523e-18 
  3224.3279  -2.70044e-18 
  3226.3184  -8.33806e-19 
  3228.3091  -8.68154e-19 
  3230.3005   -5.8501e-18 
  3232.2925   8.78269e-18 
  3234.2849  -1.69306e-19 
  3236.2778  -5.29029e-18 
  3238.2715  -1.21407e-17 
  3240.2656   7.30515e-20 
  3242.2605   7.14869e-18 
  3244.2556   7.22862e-18 
  3246.2517  -6.23212e-18 
  3248.2478   7.60682e-18 
  3250.2449   2.39054e-18 
  3252.2424  -2.30369e-18 
  3254.2405  -9.03686e-20 
   3256.239   6.92657e-18 
   3258.238   -4.6746e-18 
  3260.2378   1.60965e-18 
   3262.238  -8.23293e-18 
  3264.2388   5.28655e-20 
  3266.2402  -7.16594e-18 
  3268.2419   6.13263e-18 
  3270.2444  -1.10531e-18 
  3272.2473   -7.6183e-19 
   3274.251  -1.07478e-18 
  3276.2549   4.94128e-18 
  3278.2595    5.1076e-18 
  3280.2646  -4.46515e-18 
  3282.2703  -9.38278e-18 
  3284.2764   3.40167e-18 
  3286.2832  -3.22937e-18 
  3288.2903   3.38844e-18 
  3290.2981  -5.12518e-18 
  3292.3064  -2.31979e-18 
  3294.3152  -5.49771e-19 
  3296.3247  -3.26963e-19 
  3298.3347   6.74296e-18 
   3300.345  -1.40517e-18 
   3302.356   6.94717e-18 
  3304.3674   5.13798e-18 
  3306.3794   3.62343e-18 
  3308.3921   5.54932e-18 
   3310.405   1.51759e-18 
  3312.4187  -4.36272e-20 
  3314.4329   1.47726e-19 
  3316.4475   3.77292e-18 
  3318.4626  -2.77232e-18 
  3320.4783   2.81063e-18 
  3322.4944   2.79585e-19 
  3324.5112   4.96929e-18 
  3326.5283   5.71332e-18 
  3328.5461   6.53503e-18 
  3330.5645   7.50694e-18 
  3332.5833   8.68039e-19 
  3334.6025  -4.38875e-18 
  3336.6223  -1.19222e-18 
  3338.6426  -3.38059e-18 
  3340.6636   4.19443e-18 
  3342.6848  -2.09165e-18 
  3344.7065   2.14524e-18 
   3346.729  -1.15298e-19 
  3348.7517  -1.19801e-18 
  3350.7751  -4.22062e-18 
  3352.7991   6.73372e-18 
  3354.8235   2.45107e-18 
  3356.8484   -2.2998e-18 
  3358.8738   -7.5388e-18 
  3360.8997   5.17982e-18 
   3362.926   3.95938e-18 
  3364.9529   3.95611e-18 
  3366.9802    6.5998e-18 
  3369.0081  -2.79972e-18 
  3371.0366   3.02971e-18 
  3373.0654  -7.49776e-18 
  3375.0947   9.72047e-18 
  3377.1245  -5.48011e-18 
   3379.155   4.15121e-18 
  3381.1858   1.14465e-18 
  3383.2173   7.28955e-18 
   3385.249    2.1544e-18 
  3387.2812  -4.07396e-18 
  3389.3142  -8.84919e-19 
  3391.3474   1.65248e-18 
  3393.3813   4.68756e-18 
  3395.4155   4.31695e-18 
  3397.4502  -1.19333e-18 
  3399.4856  -2.66491e-18 
  3401.5212   2.62839e-18 
  3403.5576   7.32232e-19 
  3405.5942   1.01885e-18 
  3407.6313  -9.89975e-19 
  3409.6689   1.45513e-18 
  3411.7073  -1.43819e-18 
  3413.7458  -1.00914e-18 
  3415.7849   1.83486e-18 
  3417.8245    4.2923e-18 
  3419.8645  -1.71706e-18 
   3421.905    8.6106e-19 
   3423.946     4.586e-18 
  3425.9875   7.51769e-19 
  3428.0295   1.05346e-18 
   3430.072   -1.7198e-18 
  3432.1147   2.33739e-18 
  3434.1582   -7.2213e-19 
  3436.2019    3.7843e-18 
  3438.2463  -4.74942e-18 
   3440.291    -9.023e-19 
  3442.3362  -2.82686e-18 
  3444.3821   2.70127e-18 
   3446.428  -1.40566e-18 
  3448.4749   3.04792e-18 
  3450.5217   6.48105e-19 
  3452.5693    6.5135e-18 
  3454.6174  -2.83122e-19 
   3456.666   2.31505e-18 
  3458.7148   5.39226e-18 
  3460.7642   2.08794e-18 
  3462.8142  -6.03568e-19 
  3464.8645    4.4669e-18 
   3466.915  -1.25372e-18 
  3468.9663    2.4642e-18 
  3471.0181   6.69504e-19 
  3473.0703   2.02509e-18 
  3475.1228   -1.9534e-18 
  3477.1758  -3.60794e-18 
  3479.2292   1.94446e-18 
  3481.2832   1.96801e-18 
  3483.3376  -3.72209e-18 
  3485.3923    4.8094e-18 
  3487.4478   2.61237e-18 
  3489.5034   4.31796e-18 
  3491.5596    9.4568e-19 
  3493.6162   -4.2774e-19 
  3495.6733  -5.28919e-19 
  3497.7307  -6.79318e-19 
  3499.7888   2.30411e-18 
  3501.8472  -3.50684e-18 
   3503.906    9.6928e-19 
  3505.9653  -5.53373e-19 
  3508.0249   1.79824e-19 
  3510.0852    6.2009e-19 
  3512.1458   1.00447e-19 
  3514.2068   2.24646e-18 
  3516.2683  -1.69265e-18 
  3518.3301   6.52923e-20 
  3520.3926  -1.07244e-19 
  3522.4553   2.71776e-18 
  3524.5186   2.61117e-18 
   3526.582   5.31469e-18 
  3528.6462   2.99232e-18 
  3530.7107  -6.49133e-19 
  3532.7756   5.74639e-20 
  3534.8408   2.81582e-18 
  3536.9067   1.92778e-18 
  3538.9729  -8.90002e-19 
  3541.0396  -1.66487e-18 
  3543.1067   1.46414e-18 
  3545.1741   9.76747e-19 
  3547.2419   7.56673e-19 
  3549.3103  -1.82216e-18 
  3551.3792   1.39965e-18 
  3553.4482   1.41251e-18 
  3555.5178   5.59479e-18 
  3557.5879  -1.47299e-18 
  3559.6582  -2.06497e-18 
  3561.7292  -3.42882e-19 
  3563.8003    9.0174e-19 
  3565.8721   1.68653e-18 
  3567.9441    5.5893e-20 
  3570.0166   5.79611e-19 
  3572.0896   6.55376e-19 
  3574.1631   2.59857e-18 
  3576.2368  -2.06003e-18 
  3578.3108   2.24325e-18 
  3580.3855   4.43796e-18 
  3582.4604  -7.84589e-19 
  3584.5359   3.81121e-19 
  3586.6118   1.14332e-19 
   3588.688   1.65445e-18 
  3590.7644  -1.12187e-18 
  3592.8416  -1.29949e-18 
  3594.9189   6.50448e-19 
  3596.9968  -7.66367e-19 
   3599.075   3.73412e-18 
  3601.1538  -1.36233e-18 
  3603.2327   1.55731e-18 
   3605.312   1.97135e-18 
  3607.3921  -6.19719e-19 
  3609.4722   3.89313e-18 
  3611.5527   1.06654e-18 
  3613.6338  -1.63735e-19 
  3615.7153   1.45682e-18 
  3617.7971   1.97769e-18 
  3619.8794   2.95503e-18 
  3621.9619   2.89161e-18 
  3624.0449   1.96116e-18 
  3626.1284  -9.96602e-20 
  3628.2122   1.44565e-18 
  3630.2964   1.54262e-18 
  3632.3811  -1.15981e-18 
  3634.4658   2.31411e-19 
  3636.5513    3.8928e-18 
   3638.637   4.57102e-19 
  3640.7231   3.73246e-19 
  3642.8098  -3.97666e-18 
  3644.8965   2.91518e-18 
  3646.9839   5.76396e-19 
  3649.0715   3.37216e-18 
  3651.1597    3.4026e-18 
   3653.248  -9.44849e-19 
  3655.3369   2.67174e-19 
   3657.426   2.84006e-18 
  3659.5156   1.68944e-18 
  3661.6057   9.24979e-19 
  3663.6958   4.67826e-18 
  3665.7866  -1.57234e-19 
  3667.8777  -8.84046e-19 
  3669.9692  -1.39895e-18 
   3672.061   2.33315e-18 
  3674.1533   3.43881e-18 
  3676.2458   9.49814e-19 
  3678.3389   3.11607e-18 
  3680.4321    5.4152e-19 
  3682.5259    4.0416e-18 
  3684.6201  -1.25776e-19 
  3686.7144   3.78444e-18 
  3688.8093    2.2622e-18 
  3690.9045   3.70354e-18 
     3693.0   2.55539e-18 
  3695.0959   1.79814e-19 
  3697.1921   1.14923e-18 
  3699.2888  -2.01993e-18 
   3701.386   1.33366e-18 
  3703.4834   6.40417e-21 
  3705.5811  -2.39438e-19 
  3707.6792   9.73243e-19 
  3709.7776   2.53311e-19 
  3711.8765   3.40407e-18 
  3713.9756   2.50797e-18 
  3716.0752   2.77224e-18 
   3718.175   2.10236e-18 
  3720.2754   1.34535e-18 
   3722.376   2.41539e-19 
  3724.4771   1.26126e-19 
  3726.5784   4.64403e-18 
  3728.6799   1.78779e-20 
   3730.782  -3.30242e-19 
  3732.8845   2.69132e-18 
  3734.9873   4.71954e-18 
  3737.0903   2.84112e-18 
  3739.1938   1.68374e-18 
  3741.2976   2.95532e-18 
  3743.4016   8.75394e-19 
  3745.5063    4.6057e-19 
  3747.6111   1.20229e-18 
  3749.7163   2.43375e-18 
  3751.8218    1.3121e-18 
  3753.9277  -1.93114e-19 
  3756.0339   4.89734e-19 
  3758.1404   -2.9088e-18 
  3760.2476   1.38499e-18 
  3762.3547   2.07963e-18 
  3764.4624   3.22881e-18 
  3766.5703  -2.47576e-19 
  3768.6787   8.85767e-19 
  3770.7871    2.5613e-18 
  3772.8962   9.28742e-19 
  3775.0056   1.07821e-18 
   3777.115   2.41644e-18 
  3779.2251   2.15314e-18 
  3781.3354   8.02851e-19 
   3783.446   2.68076e-18 
  3785.5569   2.31463e-18 
  3787.6682  -7.79415e-19 
    3789.78   3.77304e-19 
  3791.8921   1.81074e-18 
  3794.0044   4.10142e-20 
  3796.1169   3.40059e-18 
    3798.23   -4.6222e-19 
  3800.3433   3.58525e-18 
  3802.4568   1.04109e-18 
  3804.5708   1.28471e-18 
  3806.6851   6.89434e-19 
  3808.7998   8.13844e-19 
  3810.9146   2.35607e-18 
  3813.0298   4.51471e-19 
  3815.1455  -1.94578e-18 
  3817.2615   6.02282e-19 
  3819.3777   1.42875e-18 
  3821.4941    4.2217e-18 
  3823.6111   3.80432e-19 
  3825.7283   3.15058e-18 
  3827.8457   1.05171e-18 
  3829.9636   1.86464e-18 
  3832.0818   1.45911e-18 
  3834.2002   3.25236e-18 
  3836.3191   1.70032e-18 
   3838.438  -2.67485e-18 
  3840.5576   1.50219e-18 
  3842.6772   2.18721e-18 
  3844.7974   2.44966e-18 
  3846.9177  -1.51621e-18 
  3849.0383  -2.15508e-18 
  3851.1592   4.30478e-19 
  3853.2805   3.42045e-19 
  3855.4021   7.90598e-19 
  3857.5242   2.87866e-18 
  3859.6465    1.9674e-18 
  3861.7688   1.72255e-18 
  3863.8916   7.54047e-19 
  3866.0149  -3.20115e-19 
  3868.1382   1.60656e-18 
  3870.2622   1.03452e-18 
   3872.386   3.06329e-18 
  3874.5105    1.6215e-19 
  3876.6353   1.82685e-18 
    3878.76   1.57662e-18 
  3880.8855   -9.9476e-20 
   3883.011   1.64379e-18 
   3885.137   9.88996e-19 
  3887.2629   1.17125e-18 
  3889.3894   8.59508e-19 
  3891.5164    5.1433e-19 
  3893.6433   1.08594e-18 
  3895.7708   2.81666e-19 
  3897.8984   2.30794e-18 
  3900.0264   3.14312e-19 
  3902.1545   1.48369e-18 
  3904.2832   2.99552e-19 
  3906.4119  -7.07004e-19 
   3908.541  -1.58464e-19 
  3910.6704   1.53831e-18 
  3912.8003   1.78613e-18 
  3914.9302   2.62665e-18 
  3917.0605   9.98085e-19 
  3919.1912   1.98783e-18 
   3921.322   -7.6299e-20 
  3923.4531  -1.78203e-19 
  3925.5847   9.65856e-19 
  3927.7163   2.40275e-19 
  3929.8484    4.1694e-18 
  3931.9807   5.14555e-19 
  3934.1133   1.74933e-18 
  3936.2461   1.31949e-18 
  3938.3792   3.13607e-18 
  3940.5127  -3.62096e-19 
  3942.6465    2.8535e-19 
  3944.7805   1.75986e-18 
  3946.9146    2.5031e-18 
  3949.0493   7.14749e-19 
  3951.1841   1.58796e-18 
  3953.3191   2.56408e-18 
  3955.4546   8.38049e-19 
  3957.5901   9.78533e-19 
  3959.7261  -2.83161e-19 
  3961.8623   8.18996e-19 
  3963.9988   2.82184e-18 
  3966.1355   4.15949e-18 
  3968.2727   2.88849e-18 
  3970.4099   1.35981e-18 
  3972.5476   1.14394e-18 
  3974.6853   2.53392e-19 
  3976.8235   5.26706e-19 
  3978.9619   3.56687e-18 
  3981.1006    4.5316e-19 
  3983.2395   2.08544e-18 
  3985.3787   2.38177e-18 
  3987.5181   4.15305e-20 
   3989.658   9.99506e-19 
  3991.7979   1.69981e-18 
   3993.938   1.54544e-18 
  3996.0786   1.10982e-18 
  3998.2195   6.13311e-19 
  4000.3606   1.93176e-18 
  4002.5017   3.83711e-18 
  4004.6433   7.38176e-19 
  4006.7852   6.61258e-19 
  4008.9272   1.16883e-18 
  4011.0696   1.52249e-18 
  4013.2124   1.07402e-18 
  4015.3552  -5.62879e-20 
  4017.4983   1.20964e-19 
  4019.6416   1.03927e-18 
  4021.7854   1.91328e-18 
  4023.9292   1.63866e-18 
  4026.0735   1.10932e-18 
  4028.2178   1.24453e-18 
  4030.3625   7.36488e-19 
  4032.5073   1.61764e-18 
  4034.6526   2.89619e-18 
  4036.7981   1.71042e-18 
  4038.9436    2.4514e-18 
  4041.0896   2.77674e-18 
  4043.2358   1.86249e-18 
  4045.3821    6.8341e-19 
  4047.5288   7.81885e-19 
  4049.6758   9.71986e-19 
   4051.823   8.39892e-19 
  4053.9702   1.33127e-18 
  4056.1179   1.91763e-18 
  4058.2659   2.92338e-18 
  4060.4141   6.50073e-19 
  4062.5625   1.20646e-18 
  4064.7112   2.02493e-18 
  4066.8601   2.09661e-18 
   4069.009   1.27374e-18 
  4071.1584   1.05631e-18 
  4073.3081   1.01764e-18 
   4075.458   8.97961e-19 
  4077.6079  -5.70568e-20 
  4079.7583   1.19717e-18 
  4081.9087   1.87752e-18 
  4084.0596   2.44194e-18 
  4086.2107   2.82039e-18 
  4088.3618   2.29341e-18 
  4090.5134   1.82399e-19 
  4092.6653   8.80988e-19 
  4094.8171   2.02715e-18 
  4096.9692   1.68733e-18 
  4099.1216   2.42608e-18 
  4101.2744   1.57293e-18 
  4103.4272   5.09689e-18 
  4105.5806   1.29752e-18 
  4107.7339   1.45971e-18 
  4109.8872  -6.16488e-19 
  4112.0415  -6.08361e-20 
  4114.1953   1.02501e-18 
  4116.3496   2.24138e-18 
  4118.5039   2.43657e-18 
  4120.6587   1.41697e-18 
   4122.814   3.65421e-18 
  4124.9692   1.49863e-18 
  4127.1245    4.1823e-18 
  4129.2798   7.58708e-19 
   4131.436   5.07814e-18 
  4133.5918   1.48834e-18 
   4135.748   4.87046e-19 
  4137.9048   1.54849e-18 
  4140.0615   1.78019e-18 
  4142.2183   1.68688e-18 
  4144.3755   5.63361e-19 
  4146.5332   2.05006e-18 
  4148.6909   4.05888e-18 
  4150.8486   2.90381e-18 
  4153.0063   2.15727e-18 
   4155.165   2.38823e-18 
  4157.3232   1.97103e-18 
  4159.4819   1.56155e-18 
  4161.6411    1.2428e-18 
  4163.7998   2.56937e-18 
  4165.9595   1.70608e-18 
  4168.1191   1.47045e-18 
  4170.2788   1.77183e-18 
  4172.4385   1.90993e-18 
  4174.5991   1.00767e-18 
  4176.7593   2.62195e-18 
  4178.9199   5.50269e-19 
  4181.0806   5.54573e-19 
  4183.2417    3.6324e-18 
  4185.4028   2.29748e-18 
  4187.5645   6.20531e-19 
  4189.7261   2.31325e-18 
  4191.8877   1.51239e-18 
  4194.0498   1.78976e-18 
  4196.2124   1.83575e-18 
  4198.3745    2.9083e-18 
  4200.5376    2.6399e-18 
  4202.7002    1.6338e-18 
  4204.8633   1.08773e-18 
  4207.0269   1.06721e-18 
  4209.1899   9.98567e-19 
   4211.354   1.07924e-18 
  4213.5176   1.79138e-18 
  4215.6816   2.57765e-18 
  4217.8462   1.45125e-18 
  4220.0107   7.60279e-19 
  4222.1753   1.58981e-18 
  4224.3403    1.0169e-18 
  4226.5054   8.65375e-19 
  4228.6704   1.62702e-18 
  4230.8359   7.29481e-19 
  4233.0015   1.51297e-18 
  4235.1675   2.36985e-18 
  4237.3335   2.93485e-19 
  4239.4995   3.16133e-19 
   4241.666   2.07824e-18 
  4243.8325   2.11857e-18 
  4245.9995   2.10206e-18 
  4248.1665   1.70493e-18 
   4250.334   2.35677e-18 
   4252.501   1.38313e-18 
  4254.6685      1.74e-18 
  4256.8364   2.21158e-18 
  4259.0044   7.28272e-19 
  4261.1724   1.93251e-18 
  4263.3408   1.61546e-18 
  4265.5093   8.35767e-19 
  4267.6782   1.22851e-18 
  4269.8467   1.04252e-18 
  4272.0161   2.01452e-18 
  4274.1851   1.14024e-18 
  4276.3545   2.11443e-18 
  4278.5244   4.92645e-19 
  4280.6943   1.10376e-18 
  4282.8638   9.54859e-19 
  4285.0342   1.91443e-18 
  4287.2046   3.06593e-18 
   4289.375   7.75982e-20 
  4291.5459   1.99692e-18 
  4293.7168    7.0291e-19 
  4295.8877   1.87235e-18 
  4298.0586   2.44979e-18 
    4300.23   1.19045e-18 
  4302.4019   5.09943e-19 
  4304.5737   2.95971e-18 
  4306.7456   3.16541e-18 
  4308.9175   1.68409e-18 
  4311.0898   1.88201e-18 
  4313.2622   2.59591e-18 
  4315.4351    4.4231e-18 
  4317.6079   1.81152e-18 
  4319.7808   1.61745e-18 
  4321.9536   3.60794e-18 
   4324.127   2.93337e-18 
  4326.3008   2.15072e-18 
  4328.4741   3.02249e-18 
  4330.6479    1.3495e-18 
  4332.8218   4.58218e-18 
  4334.9961   3.95938e-18 
  4337.1704   1.83997e-18 
  4339.3447   1.99335e-18 
  4341.5195   5.34476e-18 
  4343.6943   3.07907e-18 
  4345.8691   2.92133e-18 
  4348.0444     1.624e-18 
  4350.2197   2.09433e-18 
   4352.395   3.69258e-18 
  4354.5708   1.34393e-18 
  4356.7466   4.03102e-18 
  4358.9224   2.26949e-18 
  4361.0986   1.13693e-18 
  4363.2749    2.6729e-18 
  4365.4512   3.99445e-18 
  4367.6279   5.44895e-18 
  4369.8047   3.70378e-18 
  4371.9814   3.98703e-18 
  4374.1587   5.88596e-18 
  4376.3359   1.93856e-18 
  4378.5132    1.5094e-18 
  4380.6909   4.96355e-18 
  4382.8687   4.40406e-18 
  4385.0464   4.19227e-18 
  4387.2241   3.87131e-18 
  4389.4023   4.89361e-18 
  4391.5806   1.83326e-18 
  4393.7593   2.18686e-18 
   4395.938   2.66802e-18 
  4398.1167   3.00778e-18 
  4400.2954   2.01184e-18 
  4402.4746   5.64859e-18 
  4404.6538   3.07098e-18 
   4406.833   3.58164e-18 
  4409.0127   2.90992e-18 
  4411.1924   1.58252e-18 
  4413.3721   4.35772e-18 
  4415.5518   2.73955e-18 
  4417.7319   2.30578e-18 
  4419.9121   4.48794e-18 
  4422.0928   3.30382e-18 
  4424.2734   3.16922e-18 
  4426.4541   2.31381e-18 
  4428.6348   3.42927e-18 
  4430.8159   3.63189e-18 
  4432.9966   2.17094e-18 
  4435.1782   3.65834e-18 
  4437.3594   4.89763e-18 
   4439.541   3.38081e-18 
  4441.7227   3.97702e-18 
  4443.9043   5.18688e-18 
  4446.0864   5.32093e-18 
  4448.2686   2.77005e-18 
  4450.4507   3.74185e-18 
  4452.6328   4.93631e-18 
  4454.8154    2.7512e-18 
   4456.998   3.54347e-18 
  4459.1807   4.80643e-18 
  4461.3638   3.78562e-18 
  4463.5469   2.75874e-18 
    4465.73    3.5186e-18 
  4467.9136   2.84859e-18 
  4470.0967   3.20851e-18 
  4472.2803   4.52749e-18 
  4474.4639   4.26323e-18 
  4476.6479   2.84443e-18 
   4478.832    2.3238e-18 
  4481.0161   3.14016e-18 
  4483.2002   4.63463e-18 
  4485.3848   5.16604e-18 
  4487.5693   3.41289e-18 
  4489.7539   2.00397e-18 
  4491.9385   4.37411e-18 
  4494.1235   2.61186e-18 
  4496.3086   5.60052e-18 
  4498.4937   1.90003e-18 
  4500.6787    3.7824e-18 
  4502.8643   5.44386e-18 
  4505.0498   4.92794e-18 
  4507.2354   4.34752e-18 
  4509.4209   3.83187e-18 
  4511.6069   4.33603e-18 
   4513.793   4.02861e-18 
   4515.979   4.13552e-18 
  4518.1655   2.72407e-18 
  4520.3516   3.45467e-18 
  4522.5381   3.25533e-18 
  4524.7251   2.84259e-18 
  4526.9116   1.91807e-18 
  4529.0986   3.37514e-18 
  4531.2856    4.1721e-18 
  4533.4727   2.83693e-18 
  4535.6597   3.71674e-18 
  4537.8472   3.09927e-18 
  4540.0347   3.62438e-18 
  4542.2222   5.24695e-18 
  4544.4097   5.29111e-18 
  4546.5977   3.56818e-18 
  4548.7856   4.41096e-18 
  4550.9736    4.0637e-18 
  4553.1616   3.23008e-18 
  4555.3501   3.95099e-18 
  4557.5386   3.99227e-18 
  4559.7271   4.68361e-18 
  4561.9155   4.14626e-18 
   4564.104   4.38402e-18 
   4566.293   5.52554e-18 
  4568.4819   5.55003e-18 
  4570.6709   5.71158e-18 
  4572.8604   4.10171e-18 
  4575.0493   4.37175e-18 
  4577.2388    6.1484e-18 
  4579.4282   4.09768e-18 
  4581.6177   5.49154e-18 
  4583.8076   5.71697e-18 
  4585.9976   4.36212e-18 
  4588.1875   3.79874e-18 
  4590.3774   4.58853e-18 
  4592.5674   2.91782e-18 
  4594.7578   5.18063e-18 
  4596.9482   4.10264e-18 
  4599.1382   4.11845e-18 
  4601.3291   4.81013e-18 
  4603.5195   4.21233e-18 
  4605.7104   5.60503e-18 
  4607.9014   4.88506e-18 
  4610.0923   5.18772e-18 
  4612.2832   5.24871e-18 
  4614.4741   4.69994e-18 
  4616.6655   4.20317e-18 
  4618.8569   4.35749e-18 
  4621.0483   6.17203e-18 
  4623.2397   3.54406e-18 
  4625.4316   6.57475e-18 
  4627.6235   5.24892e-18 
  4629.8149   5.92232e-18 
  4632.0073   3.62733e-18 
  4634.1992   5.81872e-18 
  4636.3911   3.70445e-18 
  4638.5835   5.54938e-18 
  4640.7759   5.96102e-18 
  4642.9683   5.98601e-18 
  4645.1606   5.72333e-18 
  4647.3535   5.56039e-18 
  4649.5459   6.10172e-18 
  4651.7388    5.8365e-18 
  4653.9316   6.11781e-18 
  4656.1245   4.46954e-18 
  4658.3179   5.18531e-18 
  4660.5107   6.48784e-18 
  4662.7041   6.44404e-18 
  4664.8975   4.71404e-18 
  4667.0908   4.76551e-18 
  4669.2842   6.99268e-18 
   4671.478   6.39978e-18 
  4673.6719   6.26117e-18 
  4675.8657   5.20501e-18 
  4678.0591   5.58567e-18 
  4680.2534   4.62217e-18 
  4682.4473   7.13155e-18 
  4684.6416   7.03909e-18 
  4686.8359   5.98658e-18 
  4689.0298   6.82446e-18 
  4691.2241   5.35676e-18 
  4693.4189   4.21549e-18 
  4695.6133     5.691e-18 
  4697.8081   4.97687e-18 
  4700.0029   6.37481e-18 
  4702.1973   6.11394e-18 
  4704.3921   7.13586e-18 
  4706.5874   5.60811e-18 
  4708.7822    5.5639e-18 
  4710.9775   5.41692e-18 
  4713.1729    5.3324e-18 
  4715.3677   5.90104e-18 
  4717.5635   6.82262e-18 
  4719.7588   4.30907e-18 
  4721.9541    5.8901e-18 
  4724.1499   5.89459e-18 
  4726.3457   5.58468e-18 
   4728.541   5.69955e-18 
  4730.7368    4.8667e-18 
  4732.9331   5.85815e-18 
  4735.1289   5.54899e-18 
  4737.3252   4.49396e-18 
   4739.521   4.46104e-18 
  4741.7173   5.91451e-18 
  4743.9136   5.89026e-18 
  4746.1099   5.50261e-18 
  4748.3062   5.35154e-18 
  4750.5029   4.88428e-18 
  4752.6992   5.72527e-18 
   4754.896   4.69583e-18 
  4757.0928   4.17531e-18 
  4759.2896   4.96763e-18 
  4761.4863   4.35173e-18 
  4763.6831   5.35848e-18 
  4765.8804   4.23604e-18 
  4768.0771   3.57778e-18 
  4770.2744   4.64789e-18 
  4772.4717   4.29545e-18 
  4774.6689   3.43591e-18 
  4776.8662   3.84205e-18 
  4779.0635   5.51526e-18 
  4781.2612     5.948e-18 
  4783.4585   5.49444e-18 
  4785.6562   3.07163e-18 
  4787.8535   3.01617e-18 
  4790.0513   5.68443e-18 
   4792.249   4.04858e-18 
  4794.4468    4.7078e-18 
   4796.645    3.9322e-18 
  4798.8428   4.54177e-18 
   4801.041   3.54312e-18 
  4803.2388   4.27857e-18 
   4805.437   4.49066e-18 
  4807.6353   4.79827e-18 
  4809.8335   4.25857e-18 
  4812.0322   4.69585e-18 
  4814.2305   4.09815e-18 
  4816.4287   3.87529e-18 
  4818.6274   5.43168e-18 
  4820.8262   4.80114e-18 
  4823.0244   4.12003e-18 
  4825.2231   3.14065e-18 
  4827.4219   3.26667e-18 
  4829.6206   2.82036e-18 
  4831.8198   4.43442e-18 
  4834.0186   2.84469e-18 
  4836.2178   4.23112e-18 
  4838.4165   5.34448e-18 
  4840.6157   4.73094e-18 
  4842.8149   4.26962e-18 
  4845.0142   4.74889e-18 
  4847.2134   4.49007e-18 
  4849.4126   4.26979e-18 
  4851.6118   4.87926e-18 
  4853.8115    2.6705e-18 
  4856.0107   4.85404e-18 
  4858.2104   3.69593e-18 
  4860.4097   4.16438e-18 
  4862.6094   4.15769e-18 
  4864.8091    3.8294e-18 
  4867.0088   3.18678e-18 
  4869.2085   4.44969e-18 
  4871.4082   3.39847e-18 
  4873.6084   4.91095e-18 
  4875.8081   3.63937e-18 
  4878.0083   2.83091e-18 
   4880.208   2.67039e-18 
  4882.4082   4.13487e-18 
  4884.6084   4.44047e-18 
  4886.8086   3.23392e-18 
  4889.0088   4.96633e-18 
   4891.209   4.04381e-18 
  4893.4092   3.48813e-18 
  4895.6094   5.96787e-18 
  4897.8101   5.51859e-18 
  4900.0103    3.8828e-18 
  4902.2109   6.68037e-18 
  4904.4111    3.9046e-18 
  4906.6118   4.34859e-18 
  4908.8125   5.78622e-18 
  4911.0132   4.20837e-18 
  4913.2139   5.51158e-18 
  4915.4146   3.03161e-18 
  4917.6152   4.65099e-18 
  4919.8159   5.88751e-18 
  4922.0166   4.03869e-18 
  4924.2178    4.8562e-18 
  4926.4185   4.79048e-18 
  4928.6196   3.98511e-18 
  4930.8203   5.11627e-18 
  4933.0215   3.92983e-18 
  4935.2227   5.16509e-18 
  4937.4238   3.81642e-18 
   4939.625   5.23295e-18 
  4941.8262   4.82155e-18 
  4944.0273   5.02315e-18 
  4946.2285    3.2154e-18 
  4948.4297   6.83793e-18 
  4950.6309   5.37339e-18 
  4952.8325   4.80028e-18 
  4955.0337    4.4871e-18 
  4957.2354   3.65959e-18 
  4959.4365    3.8077e-18 
  4961.6382    5.0648e-18 
  4963.8398   5.91265e-18 
  4966.0415   6.04456e-18 
  4968.2427   4.52107e-18 
  4970.4443   5.57681e-18 
   4972.646   4.75977e-18 
  4974.8477   6.16381e-18 
  4977.0498   4.30669e-18 
  4979.2515   5.43281e-18 
  4981.4531   3.96073e-18 
  4983.6548    5.9223e-18 
  4985.8569   4.87369e-18 
  4988.0586   4.91884e-18 
  4990.2607   4.40642e-18 
  4992.4624   5.70031e-18 
  4994.6641   5.24352e-18 
  4996.8662   4.89487e-18 
  4999.0684   4.54141e-18 
  5001.2705   5.89178e-18 
  5003.4722   4.17348e-18 
  5005.6743   5.05072e-18 
  5007.8765     6.686e-18 
  5010.0786   6.23427e-18 
  5012.2808   4.88303e-18 
  5014.4829   4.55832e-18 
  5016.6851   5.53043e-18 
  5018.8877    5.3248e-18 
  5021.0898   5.69995e-18 
   5023.292   6.41229e-18 
  5025.4941    6.7653e-18 
  5027.6968   5.09327e-18 
  5029.8989   4.95684e-18 
  5032.1016   5.52588e-18 
  5034.3037   6.30436e-18 
  5036.5063   5.58067e-18 
  5038.7085   4.91233e-18 
  5040.9111   3.73446e-18 
  5043.1133   6.46268e-18 
  5045.3159   4.88026e-18 
  5047.5186   5.72952e-18 
  5049.7212   4.36131e-18 
  5051.9238   4.37348e-18 
   5054.126   4.74758e-18 
  5056.3286   7.30947e-18 
  5058.5312   5.27418e-18 
  5060.7339   5.69684e-18 
  5062.9365   6.36624e-18 
  5065.1392   6.21721e-18 
  5067.3418   6.12351e-18 
  5069.5444   3.98056e-18 
  5071.7471   5.49001e-18 
  5073.9497   4.59165e-18 
  5076.1528    5.3823e-18 
  5078.3555   4.28241e-18 
  5080.5581   5.06226e-18 
  5082.7607    4.9097e-18 
  5084.9639   4.84129e-18 
  5087.1665   4.39962e-18 
  5089.3691   5.70011e-18 
  5091.5723   5.60562e-18 
  5093.7749   6.39279e-18 
   5095.978   6.00368e-18 
  5098.1807   4.98608e-18 
  5100.3833   5.39426e-18 
  5102.5864   5.60118e-18 
  5104.7891   5.62545e-18 
  5106.9922   5.45806e-18 
  5109.1953   6.42574e-18 
  5111.3979   5.31427e-18 
  5113.6011   6.78918e-18 
  5115.8037   5.07229e-18 
  5118.0068   5.33083e-18 
  5120.2095   6.36232e-18 
  5122.4126   5.96395e-18 
  5124.6157   4.91197e-18 
  5126.8184   5.93726e-18 
  5129.0215   3.91837e-18 
  5131.2246   6.35875e-18 
  5133.4277    5.3846e-18 
  5135.6304   6.21902e-18 
  5137.8335   4.85827e-18 
  5140.0366    5.6543e-18 
  5142.2397   6.43773e-18 
  5144.4424   5.84597e-18 
  5146.6455   3.82762e-18 
  5148.8486   4.92487e-18 
  5151.0518   5.30312e-18 
  5153.2549   7.47939e-18 
  5155.4575   5.21128e-18 
  5157.6606   5.01222e-18 
  5159.8638   5.76872e-18 
  5162.0669   6.69881e-18 
    5164.27   4.86455e-18 
  5166.4727   5.95852e-18 
  5168.6758   5.53171e-18 
  5170.8789   6.35222e-18 
   5173.082   4.23029e-18 
  5175.2852    5.2658e-18 
  5177.4883   5.41627e-18 
  5179.6909    5.3558e-18 
   5181.894   4.83903e-18 
  5184.0972   5.91588e-18 
  5186.3003   6.24684e-18 
  5188.5034   7.34381e-18 
  5190.7065   5.17578e-18 
  5192.9092   5.90394e-18 
  5195.1123   4.64002e-18 
  5197.3154   5.30877e-18 
  5199.5186   7.15076e-18 
  5201.7212   5.06799e-18 
  5203.9243   6.30126e-18 
  5206.1274   6.58498e-18 
  5208.3306    5.6024e-18 
  5210.5332   5.30921e-18 
  5212.7363   6.42406e-18 
  5214.9395    6.0772e-18 
  5217.1426   4.77554e-18 
  5219.3452   5.41582e-18 
  5221.5483   5.23315e-18 
  5223.7515   6.72108e-18 
  5225.9541   5.59881e-18 
  5228.1572   6.14285e-18 
  5230.3599   5.23957e-18 
   5232.563   4.68685e-18 
  5234.7661   4.98026e-18 
  5236.9688   6.00636e-18 
  5239.1719   5.43517e-18 
  5241.3745   5.85249e-18 
  5243.5776   3.58538e-18 
  5245.7803   5.48968e-18 
  5247.9834   5.39489e-18 
   5250.186   3.92907e-18 
  5252.3892   6.55303e-18 
  5254.5918   5.83306e-18 
  5256.7949   3.56784e-18 
  5258.9976   5.97446e-18 
  5261.2002   5.45364e-18 
  5263.4033   6.58386e-18 
   5265.606   5.21627e-18 
  5267.8086   3.46433e-18 
  5270.0112   5.66776e-18 
  5272.2139   5.50261e-18 
   5274.417   5.47812e-18 
  5276.6196   5.44152e-18 
  5278.8223   4.83902e-18 
  5281.0249   4.54208e-18 
  5283.2275   5.64092e-18 
  5285.4302   6.17964e-18 
  5287.6328   5.69412e-18 
  5289.8354   5.33841e-18 
  5292.0381   4.57827e-18 
  5294.2407   6.47094e-18 
  5296.4434   4.16278e-18 
   5298.646   5.24412e-18 
  5300.8486   4.67547e-18 
  5303.0508    5.7838e-18 
  5305.2534   5.36074e-18 
  5307.4561   6.03614e-18 
  5309.6582   5.61961e-18 
  5311.8608   5.41586e-18 
   5314.063   5.05171e-18 
  5316.2656   5.43553e-18 
  5318.4678   5.20386e-18 
  5320.6704   5.42822e-18 
  5322.8726   4.91039e-18 
  5325.0752    6.4666e-18 
  5327.2773   5.61224e-18 
  5329.4795   5.98995e-18 
  5331.6821   4.49112e-18 
  5333.8843   3.32793e-18 
  5336.0864   6.54524e-18 
  5338.2886   3.89763e-18 
  5340.4907   5.26972e-18 
  5342.6929   4.93718e-18 
   5344.895   4.59449e-18 
  5347.0972   6.35501e-18 
  5349.2993   5.96951e-18 
  5351.5015   4.18341e-18 
  5353.7036   6.68307e-18 
  5355.9053   6.38927e-18 
  5358.1074   5.58884e-18 
  5360.3096   6.11866e-18 
  5362.5112   5.62805e-18 
  5364.7134   4.78165e-18 
   5366.915   5.89114e-18 
  5369.1172   5.21006e-18 
  5371.3188   6.21723e-18 
   5373.521   5.04524e-18 
  5375.7227   5.19756e-18 
  5377.9243   4.26678e-18 
   5380.126   7.00777e-18 
  5382.3276   5.82007e-18 
  5384.5293   6.94924e-18 
   5386.731   5.87741e-18 
  5388.9326   6.02334e-18 
  5391.1343   4.87187e-18 
  5393.3359   5.62268e-18 
  5395.5376   6.35723e-18 
  5397.7393   5.82112e-18 
  5399.9404   4.97936e-18 
  5402.1421   6.90594e-18 
  5404.3433   7.24189e-18 
  5406.5449   7.83475e-18 
  5408.7461   6.92846e-18 
  5410.9478    5.6799e-18 
  5413.1489   7.43056e-18 
  5415.3501   4.72889e-18 
  5417.5513   5.48118e-18 
  5419.7529   4.95897e-18 
  5421.9541    6.3088e-18 
  5424.1548   6.37808e-18 
   5426.356   7.93552e-18 
  5428.5571   5.85794e-18 
  5430.7583   4.13947e-18 
  5432.9595   6.25357e-18 
  5435.1602   5.05492e-18 
  5437.3613   6.61946e-18 
  5439.5625   6.58567e-18 
  5441.7632   6.89665e-18 
  5443.9639     5.438e-18 
   5446.165   4.98339e-18 
  5448.3657   6.43321e-18 
  5450.5664   5.80952e-18 
  5452.7671    6.6329e-18 
  5454.9678   6.09897e-18 
  5457.1685   6.14375e-18 
  5459.3691   6.91697e-18 
  5461.5698   5.13431e-18 
  5463.7705   3.87105e-18 
  5465.9707   5.62643e-18 
  5468.1714   6.22539e-18 
  5470.3716   6.31752e-18 
  5472.5723    5.9054e-18 
  5474.7725   6.66538e-18 
  5476.9727   6.70034e-18 
  5479.1733   4.58328e-18 
  5481.3735   7.14196e-18 
  5483.5737   6.49364e-18 
  5485.7739   5.95091e-18 
  5487.9741   7.47144e-18 
  5490.1738   6.30547e-18 
   5492.374   5.16531e-18 
  5494.5742   5.34872e-18 
  5496.7739   6.52035e-18 
  5498.9741   6.10502e-18 
  5501.1738   6.22256e-18 
   5503.374   5.90256e-18 
  5505.5737   5.62733e-18 
  5507.7734   7.29502e-18 
  5509.9731   6.65445e-18 
  5512.1729   6.17219e-18 
  5514.3726   6.72145e-18 
  5516.5723   4.68224e-18 
  5518.7715   6.86821e-18 
  5520.9712   5.74187e-18 
  5523.1709   8.54458e-18 
  5525.3701    5.5059e-18 
  5527.5698   7.30638e-18 
   5529.769   4.52862e-18 
  5531.9683   4.98314e-18 
  5534.1675   7.32708e-18 
  5536.3667   5.58767e-18 
  5538.5659   5.33626e-18 
  5540.7651   8.51095e-18 
  5542.9644   6.50324e-18 
  5545.1631   4.00957e-18 
  5547.3623   7.99955e-18 
  5549.5615   5.81878e-18 
  5551.7603   6.00481e-18 
   5553.959   8.10371e-18 
  5556.1582   5.38567e-18 
  5558.3569   5.02625e-18 
  5560.5557   4.37347e-18 
  5562.7544    4.6363e-18 
  5564.9531   5.49854e-18 
  5567.1514   4.45724e-18 
  5569.3501   4.33937e-18 
  5571.5488   7.30782e-18 
  5573.7471   3.56744e-18 
  5575.9453   1.58287e-17 
   5578.144   5.24989e-18 
  5580.3423     4.425e-18 
  5582.5405   9.80557e-19 
  5584.7388   8.89638e-18 
   5586.937   6.58428e-18 
  5589.1348   6.07714e-18 
   5591.333   6.18911e-18 
  5593.5312    7.0182e-18 
   5595.729   9.63548e-18 
  5597.9272   6.45434e-18 
   5600.125   3.88383e-18 
  5602.3228   8.36801e-18 
  5604.5205   5.83224e-18 
  5606.7183   6.98983e-18 
   5608.916   5.37267e-18 
  5611.1138   4.76939e-18 
  5613.3115   5.60778e-18 
  5615.5088   5.91636e-18 
  5617.7065   5.00153e-18 
  5619.9038    7.4669e-18 
  5622.1011   5.06616e-18 
  5624.2983   8.23833e-18 
  5626.4956   5.92531e-18 
  5628.6929    6.1969e-18 
  5630.8901   7.87888e-18 
  5633.0874   7.57378e-18 
  5635.2842   4.67794e-18 
  5637.4814   3.70998e-18 
  5639.6782   5.67198e-18 
  5641.8755   9.53524e-18 
  5644.0723    5.0074e-18 
   5646.269   8.22377e-18 
  5648.4658    7.8402e-18 
  5650.6626    5.8576e-18 
  5652.8589   6.31831e-18 
  5655.0557   4.38052e-18 
  5657.2524    6.8141e-18 
  5659.4487   4.67377e-18 
   5661.645    7.3187e-18 
  5663.8418   7.32651e-18 
  5666.0381   8.65321e-18 
  5666.0942   7.56375e-18 
  5667.2422   4.38893e-18 
  5668.3901   3.08154e-18 
  5669.5381   6.61719e-18 
  5670.6865   6.85804e-18 
  5671.8345   1.15207e-17 
  5672.9829   6.00449e-18 
  5674.1309   8.71524e-18 
  5675.2793   5.08491e-18 
  5676.4272   5.74004e-18 
  5677.5757   4.54647e-18 
  5678.7241   6.33469e-18 
  5679.8721   6.16322e-18 
  5681.0205   4.95215e-18 
  5682.1689   8.78675e-18 
  5683.3174   6.96609e-18 
  5684.4658   9.45522e-18 
  5685.6143   9.20845e-18 
  5686.7627   1.48767e-18 
  5687.9116    8.8607e-18 
  5689.0601   6.50061e-18 
  5690.2085   7.07206e-18 
  5691.3574   7.48659e-18 
  5692.5059    3.4189e-18 
  5693.6543   6.27688e-18 
  5694.8032   6.08008e-18 
  5695.9517   6.99502e-18 
  5697.1006   5.26012e-18 
  5698.2495   8.30942e-18 
  5699.3984   7.36199e-18 
  5700.5469   7.26176e-18 
  5701.6958   6.66662e-18 
  5702.8447   3.03325e-18 
  5703.9937   5.56951e-18 
  5705.1426   8.32371e-18 
  5706.2915   6.67265e-18 
  5707.4404   7.68305e-18 
  5708.5898   8.58635e-18 
  5709.7388   7.59085e-18 
  5710.8877   1.19134e-17 
  5712.0366   9.58422e-18 
   5713.186    6.1149e-18 
   5714.335   5.78862e-18 
  5715.4844   1.02198e-17 
  5716.6333   1.05468e-17 
  5717.7827   5.62636e-18 
  5718.9321   9.54931e-18 
  5720.0815   7.33668e-18 
  5721.2305   4.47085e-18 
  5722.3799   7.35519e-18 
  5723.5293   6.49815e-18 
  5724.6787   8.96192e-18 
  5725.8281   7.39726e-18 
  5726.9775   8.23299e-18 
  5728.1274   8.60467e-18 
  5729.2769   1.07649e-17 
  5730.4263   8.53523e-18 
  5731.5757   7.53873e-18 
  5732.7256   1.04572e-17 
   5733.875   8.42292e-18 
  5735.0249   9.58638e-18 
  5736.1743   5.17433e-18 
  5737.3242     9.068e-18 
  5738.4741   9.97574e-18 
  5739.6235   7.75135e-18 
  5740.7734   7.27272e-18 
  5741.9233   6.73225e-18 
  5743.0732   3.48127e-18 
  5744.2231   9.98026e-18 
   5745.373    7.9485e-18 
  5746.5229   7.81673e-18 
  5747.6729   5.62641e-18 
  5748.8232   6.49225e-18 
  5749.9731   6.56041e-18 
   5751.123   4.08383e-18 
  5752.2734   6.14517e-18 
  5753.4233   9.44328e-18 
  5754.5737     5.242e-18 
  5755.7236   6.85058e-18 
   5756.874   7.17904e-18 
  5758.0239   4.45802e-18 
  5759.1743   6.73745e-18 
  5760.3247   1.08619e-17 
  5761.4751   4.38172e-18 
  5762.6255   9.89063e-18 
  5763.7759   6.79213e-18 
  5764.9263   4.78233e-18 
  5766.0767   8.60908e-18 
  5767.2271   7.68647e-18 
  5768.3774   5.61455e-18 
  5769.5283    7.2875e-18 
  5770.6787   6.63982e-18 
  5771.8291   6.83644e-18 
    5772.98   7.42794e-18 
  5774.1304   6.15755e-18 
  5775.2812   7.11052e-18 
  5776.4321    4.4278e-18 
   5777.583   7.48905e-18 
  5778.7334   6.61146e-18 
  5779.8843   7.48223e-18 
  5781.0352    6.2507e-18 
   5782.186   8.23561e-18 
  5783.3369   6.74797e-18 
  5784.4878   8.32769e-18 
  5785.6387   7.17884e-18 
    5786.79   8.34605e-18 
  5787.9409   5.37076e-18 
  5789.0918   6.56433e-18 
  5790.2427   8.77051e-18 
   5791.394    8.6261e-18 
  5792.5454   7.76055e-18 
  5793.6963   3.58899e-18 
  5794.8477   8.59007e-18 
  5795.9985   8.96968e-18 
  5797.1499   7.38243e-18 
  5798.3013    8.7754e-18 
  5799.4526   4.61041e-18 
   5800.604   6.91043e-18 
  5801.7554   7.45705e-18 
  5802.9067   5.11417e-18 
  5804.0581   6.05255e-18 
  5805.2095   6.20853e-18 
  5806.3613   5.69249e-18 
  5807.5127   8.54752e-18 
  5808.6641   3.72532e-18 
  5809.8159   5.56857e-18 
  5810.9673   6.47859e-18 
  5812.1191   7.75679e-18 
  5813.2705   5.70139e-18 
  5814.4224   4.67596e-18 
  5815.5742   6.52652e-18 
  5816.7261   9.11771e-18 
  5817.8779   9.56539e-18 
  5819.0298    6.3563e-18 
  5820.1816   8.74888e-18 
  5821.3335   7.20848e-18 
  5822.4854   7.55003e-18 
  5823.6372   7.22768e-18 
  5824.7891   4.87236e-18 
  5825.9414   6.95703e-18 
  5827.0933   6.11864e-18 
  5828.2456   6.49158e-18 
  5829.3975   7.15453e-18 
  5830.5498   6.43006e-18 
  5831.7017   4.58076e-18 
   5832.854   6.73103e-18 
  5834.0063   7.23599e-18 
  5835.1587   6.61748e-18 
   5836.311   7.18482e-18 
  5837.4634   7.97807e-18 
  5838.6157    7.8063e-18 
  5839.7681   7.12065e-18 
  5840.9204   4.91804e-18 
  5842.0728   6.46991e-18 
  5843.2251   5.31241e-18 
  5844.3779   7.56334e-18 
  5845.5303   4.49892e-18 
  5846.6831   6.06196e-18 
  5847.8354   7.61222e-18 
  5848.9883   8.88148e-18 
  5850.1411   1.11552e-17 
  5851.2935   7.66917e-18 
  5852.4463   6.65164e-18 
  5853.5991   7.45139e-18 
   5854.752   5.58132e-18 
  5855.9048   5.77971e-18 
  5857.0576   3.72106e-18 
  5858.2104   7.18136e-18 
  5859.3633    1.0565e-17 
  5860.5166   8.00218e-18 
  5861.6694   6.06954e-18 
  5862.8223   4.91038e-18 
  5863.9756    5.9961e-18 
  5865.1284   6.88563e-18 
  5866.2817   8.71853e-18 
  5867.4346   6.45898e-18 
  5868.5879   4.95312e-18 
  5869.7412   1.02253e-17 
  5870.8945   5.67787e-18 
  5872.0479   9.36629e-18 
  5873.2012   7.96596e-18 
  5874.3545   9.51389e-18 
  5875.5078   6.54618e-18 
  5876.6611   5.85907e-18 
  5877.8145   5.51832e-18 
  5878.9683    8.1549e-18 
  5880.1216   6.17331e-18 
  5881.2749    6.9273e-18 
  5882.4287   7.89412e-18 
  5883.5825     7.912e-18 
  5884.7358   6.54956e-18 
  5885.8896   5.86794e-18 
   5887.043    5.9085e-18 
  5888.1968   7.83682e-18 
  5889.3506   6.11012e-18 
  5890.5044   8.73569e-18 
  5891.6582   9.32203e-18 
   5892.812   6.87288e-18 
  5893.9663   8.12281e-18 
  5895.1201   7.22442e-18 
  5896.2739   7.29243e-18 
  5897.4277   7.29818e-18 
   5898.582   1.91694e-18 
  5899.7358   1.05626e-17 
  5900.8901   8.48858e-18 
  5902.0444   4.17124e-18 
  5903.1982   6.81969e-18 
  5904.3525   7.49542e-18 
  5905.5068   5.76395e-18 
  5906.6611   8.35996e-18 
  5907.8154   4.52361e-18 
  5908.9697   7.20188e-18 
   5910.124   8.34163e-18 
  5911.2783   6.97268e-18 
  5912.4326    6.7341e-18 
  5913.5874   9.70346e-18 
  5914.7417   5.63374e-18 
   5915.896   5.53414e-18 
  5917.0508   9.41889e-18 
  5918.2051   7.47086e-18 
  5919.3599   1.06943e-17 
  5920.5146    5.1347e-18 
  5921.6694   9.79905e-18 
  5922.8237   6.34597e-18 
  5923.9785   6.74496e-18 
  5925.1333   1.02503e-17 
  5926.2881   5.13758e-18 
  5927.4429   5.86134e-18 
  5928.5977    7.2962e-18 
  5929.7529   9.00429e-18 
  5930.9077   5.50948e-18 
  5932.0625   6.26231e-18 
  5933.2178   8.15994e-18 
  5934.3726   7.47686e-18 
  5935.5278   7.07247e-18 
  5936.6831   7.81358e-18 
  5937.8379    6.2261e-18 
  5938.9932   5.38323e-18 
  5940.1484   8.09184e-18 
  5941.3037   6.46556e-18 
   5942.459   6.30831e-18 
  5943.6143   6.41028e-18 
  5944.7695   5.78594e-18 
  5945.9248   2.30356e-18 
  5947.0801   7.32328e-18 
  5948.2358   6.45288e-18 
  5949.3911   6.68169e-18 
  5950.5464   9.34849e-18 
  5951.7021   7.34292e-18 
  5952.8579   4.47457e-18 
  5954.0132    8.8041e-18 
  5955.1689   6.41128e-18 
  5956.3247   4.52222e-18 
  5957.4805   8.08134e-18 
  5958.6362   6.56097e-18 
   5959.792   7.33818e-18 
  5960.9478   4.72639e-18 
  5962.1035    7.3123e-18 
  5963.2593   7.49774e-18 
   5964.415   6.82408e-18 
  5965.5713   4.80938e-18 
  5966.7271   8.70727e-18 
  5967.8828   6.89944e-18 
  5969.0391   5.18499e-18 
  5970.1953   7.46926e-18 
  5971.3511    7.9791e-18 
  5972.5073   5.43906e-18 
  5973.6636    4.7053e-18 
  5974.8198   8.32106e-18 
  5975.9761   4.51347e-18 
  5977.1323   5.78936e-18 
  5978.2886   6.47876e-18 
  5979.4448   5.04255e-18 
  5980.6011     6.034e-18 
  5981.7578   7.31316e-18 
  5982.9141   6.78642e-18 
  5984.0703   5.25744e-18 
  5985.2271   5.71166e-18 
  5986.3833   6.16622e-18 
    5987.54   7.64934e-18 
  5988.6968   5.71063e-18 
  5989.8535   6.91509e-18 
  5991.0098   7.42482e-18 
  5992.1665    7.4813e-18 
  5993.3232   5.95621e-18 
    5994.48   3.68405e-18 
  5995.6372   3.50663e-18 
  5996.7939   7.36546e-18 
  5997.9507   5.95607e-18 
  5999.1074   4.90711e-18 
  6000.2646   7.60414e-18 
  6001.4214   3.82999e-18 
  6002.5786   6.06773e-18 
  6003.7358   6.81538e-18 
  6004.8926   7.17334e-18 
  6006.0498   5.82312e-18 
   6007.207   2.85664e-18 
  6008.3643    6.2011e-18 
  6009.5215   3.64437e-18 
  6010.6787     5.986e-18 
  6011.8359   5.87012e-18 
  6012.9932   6.93318e-18 
  6014.1504   4.18621e-18 
  6015.3081   4.60414e-18 
  6016.4653    5.8057e-18 
  6017.6226    6.0436e-18 
  6018.7803   6.29816e-18 
  6019.9375   4.93337e-18 
  6021.0952   5.80557e-18 
  6022.2529   6.20268e-18 
  6023.4106   5.35618e-18 
  6024.5679   4.75334e-18 
  6025.7256   7.74353e-18 
  6026.8833   7.20408e-18 
  6028.0415   7.28939e-18 
  6029.1992   7.47544e-18 
  6030.3569   6.78014e-18 
  6031.5146   5.38027e-18 
  6032.6724   4.88583e-18 
  6033.8306   5.28441e-18 
  6034.9883   6.90922e-18 
  6036.1465   5.19669e-18 
  6037.3047   6.54252e-18 
  6038.4624   7.99766e-18 
  6039.6206   5.13296e-18 
  6040.7788   5.14462e-18 
   6041.937   6.74321e-18 
  6043.0952   6.94133e-18 
  6044.2534   8.59443e-18 
  6045.4116   7.85175e-18 
  6046.5698   5.34142e-18 
  6047.7285    5.5043e-18 
  6048.8867    6.6804e-18 
  6050.0449   6.20931e-18 
  6051.2036   6.94189e-18 
  6052.3618   6.22837e-18 
  6053.5205   6.33526e-18 
  6054.6792   6.01382e-18 
  6055.8374      6.49e-18 
  6056.9961   7.36473e-18 
  6058.1548   5.88526e-18 
  6059.3135   6.36859e-18 
  6060.4722    7.6285e-18 
  6061.6309   4.01887e-18 
    6062.79   6.53808e-18 
  6063.9487   7.47662e-18 
  6065.1074   7.33388e-18 
  6066.2666   7.51871e-18 
  6067.4253   7.47327e-18 
   6068.584   1.04306e-17 
  6069.7432   5.62473e-18 
  6070.9023   9.88329e-18 
  6072.0615   7.36858e-18 
  6073.2202   6.43472e-18 
  6074.3794   6.73354e-18 
  6075.5386   4.96377e-18 
  6076.6978   8.96252e-18 
  6077.8569   5.47184e-18 
  6079.0166   7.29003e-18 
  6080.1758   5.10256e-18 
   6081.335   5.47146e-18 
  6082.4946   5.59716e-18 
  6083.6538   6.55046e-18 
   6084.813    7.5866e-18 
  6085.9727    4.2436e-18 
  6087.1323   7.71304e-18 
   6088.292   7.43994e-18 
  6089.4512   7.20694e-18 
  6090.6108   5.64815e-18 
  6091.7705   7.82398e-18 
  6092.9302    7.3764e-18 
  6094.0898   4.83702e-18 
  6095.2495   6.52354e-18 
  6096.4097   8.07304e-18 
  6097.5693    5.3462e-18 
   6098.729   7.31632e-18 
  6099.8892    8.1015e-18 
  6101.0488   7.70399e-18 
   6102.209   6.13484e-18 
  6103.3691   5.28476e-18 
  6104.5288   8.73641e-18 
   6105.689   8.37242e-18 
  6106.8491   6.91289e-18 
  6108.0093   5.07624e-18 
  6109.1694   4.41719e-18 
  6110.3296   5.40531e-18 
  6111.4897   5.53264e-18 
  6112.6499   5.59444e-18 
  6113.8105   8.69363e-18 
  6114.9707   3.59381e-18 
  6116.1309   5.99609e-18 
  6117.2915   7.58522e-18 
  6118.4521   7.64259e-18 
  6119.6123   9.31974e-18 
  6120.7729   4.92689e-18 
  6121.9336   7.42479e-18 
  6123.0942   6.85919e-18 
  6124.2549   5.61618e-18 
  6125.4155   4.96376e-18 
  6126.5762    6.0186e-18 
  6127.7368   7.58056e-18 
  6128.8975   7.14975e-18 
  6130.0581   7.45649e-18 
  6131.2192   4.38976e-18 
  6132.3799   8.51904e-18 
   6133.541   6.13634e-18 
  6134.7017   6.36208e-18 
  6135.8628   7.53963e-18 
  6137.0239   7.25598e-18 
  6138.1846   7.23569e-18 
  6139.3457   8.96279e-18 
  6140.5068   5.43294e-18 
   6141.668   6.63734e-18 
  6142.8291   7.26582e-18 
  6143.9907   6.84573e-18 
  6145.1519   1.04771e-17 
   6146.313   7.31131e-18 
  6147.4746   5.25174e-18 
  6148.6357    4.9429e-18 
  6149.7969   6.08169e-18 
  6150.9585   7.86391e-18 
  6152.1201   6.76493e-18 
  6153.2812   6.64773e-18 
  6154.4429   7.09134e-18 
  6155.6045   8.77369e-18 
  6156.7661   4.82759e-18 
  6157.9277    6.5545e-18 
  6159.0894   6.32515e-18 
   6160.251   6.85571e-18 
  6161.4126   6.44829e-18 
  6162.5747   7.05093e-18 
  6163.7363   4.56826e-18 
  6164.8984   4.46443e-18 
  6166.0601   4.01164e-18 
  6167.2222   5.76286e-18 
  6168.3838   4.51194e-18 
  6169.5459   6.67578e-18 
   6170.708   8.05673e-18 
  6171.8701   5.64086e-18 
  6173.0322   7.95882e-18 
  6174.1943   5.23839e-18 
  6175.3564   7.86156e-18 
  6176.5186   6.13183e-18 
  6177.6807   6.26816e-18 
  6178.8428   6.24575e-18 
  6180.0054    7.2858e-18 
  6181.1675   4.46447e-18 
  6182.3301   7.17738e-18 
  6183.4922   6.89885e-18 
  6184.6548   7.87369e-18 
  6185.8174   5.29034e-18 
  6186.9795   5.24368e-18 
  6188.1421   6.01512e-18 
  6189.3047   6.52829e-18 
  6190.4673    7.1681e-18 
  6191.6299   7.03709e-18 
   6192.793   8.81311e-18 
  6193.9556    5.6178e-18 
  6195.1182   6.13246e-18 
  6196.2808    6.7476e-18 
  6197.4438   7.24274e-18 
  6198.6069   6.70277e-18 
  6199.7695   6.82792e-18 
  6200.9326   7.20277e-18 
  6202.0952    6.4442e-18 
  6203.2583   7.00096e-18 
  6204.4214   7.28375e-18 
  6205.5845    5.8243e-18 
  6206.7476   7.93436e-18 
  6207.9106   7.39286e-18 
  6209.0737   7.55787e-18 
  6210.2373   5.98262e-18 
  6211.4004   8.07952e-18 
  6212.5635   6.69859e-18 
  6213.7271   7.88832e-18 
  6214.8901   7.20821e-18 
  6216.0537   5.08096e-18 
  6217.2168   7.47542e-18 
  6218.3804   4.55502e-18 
  6219.5439   4.93704e-18 
  6220.7075   7.65753e-18 
  6221.8711   6.64423e-18 
  6223.0347   7.52424e-18 
  6224.1982   6.91677e-18 
  6225.3618   3.71137e-18 
  6226.5254   7.46493e-18 
   6227.689   7.24395e-18 
   6228.853   5.00984e-18 
  6230.0166   5.71683e-18 
  6231.1807   8.61878e-18 
  6232.3447   5.14426e-18 
  6233.5083   6.77505e-18 
  6234.6724   6.91031e-18 
  6235.8364   7.63849e-18 
  6237.0005   8.26574e-18 
  6238.1641   7.79292e-18 
  6239.3286   4.80822e-18 
  6240.4927   9.57416e-18 
  6241.6567   4.81333e-18 
  6242.8208   7.04344e-18 
  6243.9849   8.24252e-18 
  6245.1494   8.19987e-18 
  6246.3135   8.34009e-18 
   6247.478   9.38461e-18 
  6248.6421   1.01494e-17 
  6249.8066   6.63751e-18 
  6250.9712   6.49222e-18 
  6252.1357   9.90338e-18 
  6253.2998   4.45394e-18 
  6254.4644   6.38409e-18 
  6255.6289   8.16705e-18 
  6256.7935   5.74742e-18 
  6257.9585   8.62455e-18 
   6259.123   4.28769e-18 
  6260.2876   7.91098e-18 
  6261.4526   7.11306e-18 
  6262.6172   7.85099e-18 
  6263.7817   7.68654e-18 
  6264.9468   5.99697e-18 
  6266.1118   9.00246e-18 
  6267.2764   7.61051e-18 
  6268.4414   8.66393e-18 
  6269.6064   6.08058e-18 
  6270.7715   7.19707e-18 
  6271.9365   6.82779e-18 
  6273.1016   6.16675e-18 
  6274.2666   7.69858e-18 
  6275.4321   6.92824e-18 
  6276.5972   7.58489e-18 
  6277.7622    8.7553e-18 
  6278.9277   8.00697e-18 
  6280.0928   8.39963e-18 
  6281.2583   8.22982e-18 
  6282.4238   7.57968e-18 
  6283.5889   7.74389e-18 
  6284.7544    1.0818e-17 
  6285.9199   9.48738e-18 
  6287.0854   1.24615e-17 
   6288.251   5.42626e-18 
  6289.4165    8.5805e-18 
   6290.582   9.02453e-18 
  6291.7476   7.99233e-18 
  6292.9136   5.86865e-18 
  6294.0791   8.66686e-18 
  6295.2451   8.66404e-18 
  6296.4106   8.30621e-18 
  6297.5767   1.03048e-19 
  6298.7422   5.90717e-18 
  6299.9082    1.2181e-17 
  6301.0742   8.64515e-18 
  6302.2402   1.14861e-17 
  6303.4062   6.82424e-18 
  6304.5723   3.66788e-18 
  6305.7383   6.44677e-18 
  6306.9043   3.15358e-18 
  6308.0703   5.48062e-18 
  6309.2363    9.1626e-18 
  6310.4028   6.54379e-18 
  6311.5688   7.01077e-18 
  6312.7354   6.23898e-18 
  6313.9014   7.46205e-18 
  6315.0679   4.99555e-18 
  6316.2344   5.23089e-18 
  6317.4009   6.38081e-18 
  6318.5669   6.98656e-18 
  6319.7334   7.27073e-18 
  6320.8999   5.32179e-18 
  6322.0664   9.05043e-18 
  6323.2334   6.01857e-18 
  6324.3999   6.93333e-18 
  6325.5664   1.02098e-17 
  6326.7334   8.29807e-18 
  6327.8999   8.58474e-18 
  6329.0664   8.87119e-18 
  6330.2334   6.80461e-18 
  6331.4004   7.18055e-18 
  6332.5669   6.00653e-18 
  6333.7339   4.06295e-18 
  6334.9009   8.02152e-18 
  6336.0679    5.7974e-18 
  6337.2349   8.32972e-18 
  6338.4019   6.88532e-18 
  6339.5688   5.72922e-18 
  6340.7363   6.64245e-18 
  6341.9033    7.9934e-18 
  6343.0703   7.58992e-18 
  6344.2378   1.03723e-17 
  6345.4048   7.76874e-18 
  6346.5723   8.44743e-18 
  6347.7393   7.61168e-18 
  6348.9067   7.25373e-18 
  6350.0742   8.47018e-18 
  6351.2417   6.69041e-18 
  6352.4092   6.45609e-18 
  6353.5767   6.60437e-18 
  6354.7441   8.21965e-18 
  6355.9116   7.85778e-18 
  6357.0791   9.46698e-18 
  6358.2466   5.74276e-18 
  6359.4146    7.7613e-18 
   6360.582   5.76705e-18 
    6361.75   1.08072e-17 
  6362.9175   4.44151e-18 
  6364.0854   9.60924e-18 
  6365.2534   8.43366e-18 
  6366.4209    2.0081e-18 
  6367.5889   1.07641e-17 
  6368.7568   6.78904e-18 
  6369.9248   7.97992e-18 
  6371.0928   7.05749e-18 
  6372.2607   6.81852e-18 
  6373.4292   6.75657e-18 
  6374.5972    9.2412e-18 
  6375.7651   7.70949e-18 
  6376.9336   7.45365e-18 
  6378.1016   7.03893e-18 
    6379.27   5.88797e-18 
   6380.438   8.12285e-18 
  6381.6064   5.09241e-18 
  6382.7749   5.53874e-18 
  6383.9434   7.08725e-18 
  6385.1118   7.08241e-18 
  6386.2803   7.21397e-18 
  6387.4487   8.26085e-18 
  6388.6172   7.99884e-18 
  6389.7856   5.43795e-18 
  6390.9541   8.29044e-18 
  6392.1226    6.5277e-18 
  6393.2915   5.62902e-18 
    6394.46   6.83779e-18 
  6395.6289   6.49211e-18 
  6396.7974   7.41792e-18 
  6397.9663   6.51738e-18 
  6399.1353   7.74024e-18 
  6400.3042   7.85079e-18 
  6401.4731   7.32276e-18 
  6402.6421     7.046e-18 
   6403.811   6.15948e-18 
    6404.98   6.97697e-18 
  6406.1489   8.08489e-18 
  6407.3179   6.56458e-18 
  6408.4873   9.31991e-18 
  6409.6562   9.06122e-18 
  6410.8252   7.50535e-18 
  6411.9946   7.50285e-18 
  6413.1641   9.06793e-18 
   6414.333   5.52927e-18 
  6415.5024   5.94799e-18 
  6416.6719    4.1571e-18 
  6417.8413    7.0158e-18 
  6419.0107   1.09092e-17 
  6420.1802   6.60034e-18 
  6421.3496   8.11322e-18 
   6422.519   5.97182e-18 
  6423.6885   7.76207e-18 
  6424.8579   7.31191e-18 
  6426.0278   6.63827e-18 
  6427.1973   5.67981e-18 
  6428.3672   5.29032e-18 
  6429.5366    9.0002e-18 
  6430.7065   7.05564e-18 
  6431.8765   6.98701e-18 
  6433.0464   6.03266e-18 
  6434.2158   6.97365e-18 
  6435.3857   7.93746e-18 
  6436.5557   8.38626e-18 
  6437.7256   7.20072e-18 
   6438.896   2.99485e-18 
  6440.0659   6.76286e-18 
  6441.2358   8.49651e-18 
  6442.4058   7.12978e-18 
  6443.5762   8.17851e-18 
  6444.7461   7.17867e-18 
  6445.9165   5.67536e-18 
  6447.0869   9.30384e-18 
  6448.2568   6.34995e-18 
  6449.4272   7.11298e-18 
  6450.5977   5.50107e-18 
  6451.7681   5.77501e-18 
  6452.9385    7.4575e-18 
  6454.1089   8.11479e-18 
  6455.2793   7.31517e-18 
  6456.4497   7.53585e-18 
  6457.6201   6.04022e-18 
   6458.791    7.0617e-18 
  6459.9614   9.29786e-18 
  6461.1323   6.80977e-18 
  6462.3027   6.69169e-18 
  6463.4736    7.6807e-18 
   6464.644   7.14865e-18 
  6465.8149   4.44739e-18 
  6466.9858   5.30094e-18 
  6468.1567   6.58045e-18 
  6469.3276   7.87372e-18 
  6470.4985   9.34741e-18 
  6471.6694   7.54375e-18 
  6472.8403   6.53368e-18 
  6474.0112   6.16125e-18 
  6475.1821   9.51032e-18 
  6476.3535   8.54294e-18 
  6477.5244   5.60785e-18 
  6478.6958   7.32141e-18 
  6479.8667   7.23338e-18 
  6481.0381   7.83453e-18 
  6482.2095    6.1466e-18 
  6483.3804    5.0569e-18 
  6484.5518   7.69287e-18 
  6485.7231    6.8838e-18 
  6486.8945   6.30966e-18 
  6488.0659   6.68469e-18 
  6489.2373   6.46355e-18 
  6490.4092   6.75475e-18 
  6491.5806   6.75401e-18 
   6492.752   7.28619e-18 
  6493.9238   5.82191e-18 
  6495.0952   7.60376e-18 
  6496.2671   5.56979e-18 
  6497.4385   9.84221e-18 
  6498.6104    4.4071e-18 
  6499.7822   5.35264e-18 
  6500.9536   9.27682e-18 
  6502.1255   7.63955e-18 
  6503.2974   8.80157e-18 
  6504.4692   6.91603e-18 
  6505.6411   6.88341e-18 
   6506.813   5.11489e-18 
  6507.9854   7.06058e-18 
  6509.1572   7.83623e-18 
  6510.3291   6.43683e-18 
  6511.5015   7.22104e-18 
  6512.6733   4.80813e-18 
  6513.8457   6.36058e-18 
  6515.0176   7.82038e-18 
  6516.1899    5.1448e-18 
  6517.3623   4.26536e-18 
  6518.5347   8.02152e-18 
   6519.707   5.64819e-18 
  6520.8794   6.91378e-18 
  6522.0518    8.8362e-18 
  6523.2241   7.52517e-18 
  6524.3965   6.78898e-18 
  6525.5688   6.34944e-18 
  6526.7417   5.77227e-18 
  6527.9141   4.83584e-18 
  6529.0869   6.02862e-18 
  6530.2593   7.61901e-18 
  6531.4321   8.27108e-18 
  6532.6045   7.16351e-18 
  6533.7773   5.80109e-18 
  6534.9502    7.9507e-18 
   6536.123   6.20059e-18 
  6537.2959   6.61767e-18 
  6538.4683   6.82311e-18 
  6539.6416   7.22815e-18 
  6540.8145   6.19143e-18 
  6541.9873   6.95145e-18 
  6543.1602   6.47846e-18 
  6544.3335    7.5574e-18 
  6545.5063   6.64815e-18 
  6546.6792   7.50584e-18 
  6547.8525   7.90125e-18 
  6549.0259   1.07182e-17 
  6550.1987   5.32535e-18 
  6551.3721   7.41746e-18 
  6552.5454   6.78452e-18 
  6553.7188   6.74877e-18 
  6554.8921   4.41065e-18 
  6556.0654   5.07218e-18 
  6557.2388   6.29487e-18 
  6558.4121   7.77895e-18 
  6559.5854   7.70086e-18 
  6560.7588   7.06528e-18 
  6561.9326   7.35196e-18 
   6563.106    6.4513e-18 
  6564.2798   8.00833e-18 
  6565.4531   6.33042e-18 
   6566.627   6.96983e-18 
  6567.8008   7.28754e-18 
  6568.9741   8.63064e-18 
  6570.1479   6.05942e-18 
  6571.3218    7.4344e-18 
  6572.4956   6.92672e-18 
  6573.6694     9.316e-18 
  6574.8433   7.24893e-18 
  6576.0171   7.65085e-18 
  6577.1914   9.63436e-18 
  6578.3652   5.18224e-18 
  6579.5391   5.17861e-18 
  6580.7134   7.10869e-18 
  6581.8872   5.36429e-18 
  6583.0615   6.45543e-18 
  6584.2358   7.12268e-18 
  6585.4097    7.1686e-18 
   6586.584   7.23474e-18 
  6587.7583   7.18193e-18 
  6588.9326   7.85653e-18 
  6590.1069   6.51247e-18 
  6591.2812   8.36608e-18 
  6592.4556   6.74536e-18 
  6593.6299   5.38621e-18 
  6594.8042   8.89636e-18 
   6595.979   8.46872e-18 
  6597.1533    6.6738e-18 
  6598.3276   5.92759e-18 
  6599.5024   8.30813e-18 
  6600.6768   6.53189e-18 
  6601.8516   6.87037e-18 
  6603.0264   7.73862e-18 
  6604.2007   8.49928e-18 
  6605.3755   6.69826e-18 
  6606.5503   6.94196e-18 
  6607.7251   5.73633e-18 
  6608.8999   6.81956e-18 
  6610.0747   7.45667e-18 
    6611.25   6.27762e-18 
  6612.4248   6.45509e-18 
  6613.5996    7.2628e-18 
  6614.7744   5.15461e-18 
  6615.9497   6.38559e-18 
  6617.1245   8.42122e-18 
  6618.2998   8.41134e-18 
  6619.4751   5.69391e-18 
  6620.6499   5.82535e-18 
  6621.8252   7.16005e-18 
  6623.0005   6.03899e-18 
  6624.1758   6.47492e-18 
  6625.3511   8.13169e-18 
  6626.5264   6.22324e-18 
  6627.7017   6.54157e-18 
   6628.877   6.98247e-18 
  6630.0522   7.33642e-18 
   6631.228   8.06485e-18 
  6632.4033   7.12553e-18 
  6633.5786   6.96808e-18 
  6634.7544   8.44179e-18 
  6635.9297   7.11143e-18 
  6637.1055   8.06351e-18 
  6638.2812   6.58883e-18 
   6639.457   8.31595e-18 
  6640.6323   5.99469e-18 
  6641.8081   6.87116e-18 
  6642.9839   7.86924e-18 
  6644.1597   7.20078e-18 
  6645.3354   5.62394e-18 
  6646.5117   5.59911e-18 
  6647.6875   7.01121e-18 
  6648.8633   6.34023e-18 
  6650.0391   5.76033e-18 
  6651.2153   7.29094e-18 
  6652.3911   7.71967e-18 
  6653.5674   7.45878e-18 
  6654.7432   9.26696e-18 
  6655.9194   6.11783e-18 
  6657.0957   8.53185e-18 
   6658.272   7.47483e-18 
  6659.4482   6.22112e-18 
   6660.624   5.94116e-18 
  6661.8003   6.31061e-18 
  6662.9766   7.03107e-18 
  6664.1533    4.8671e-18 
  6665.3296   6.65356e-18 
  6666.5059   5.24758e-18 
  6667.6821    7.8223e-18 
  6668.8589   5.07004e-18 
  6670.0352   6.66493e-18 
  6671.2119   3.76123e-18 
  6672.3882   7.91775e-18 
  6673.5649   6.89824e-18 
  6674.7417   5.75106e-18 
   6675.918   8.18046e-18 
  6677.0947   6.64158e-18 
  6678.2715   5.66369e-18 
  6679.4482   6.67011e-18 
   6680.625   7.05711e-18 
  6681.8018   5.71394e-18 
   6682.979   9.16159e-18 
  6684.1558   6.86273e-18 
  6685.3325   4.32802e-18 
  6686.5098   5.66335e-18 
  6687.6865   8.75819e-18 
  6688.8633   5.98387e-18 
  6690.0405   5.16372e-18 
  6691.2178   6.46322e-18 
  6692.3945   5.72039e-18 
  6693.5718   8.49163e-18 
   6694.749      6.82e-18 
  6695.9263   4.69333e-18 
  6697.1035   1.04224e-17 
  6698.2808   6.55875e-18 
   6699.458   7.61398e-18 
  6700.6353   5.17269e-18 
  6701.8125   4.92473e-18 
  6702.9902   6.11851e-18 
  6704.1675   4.78996e-18 
  6705.3447   6.09645e-18 
  6706.5225   6.34015e-18 
  6707.6997   7.53847e-18 
  6708.8774   5.77386e-18 
  6710.0547   5.76865e-18 
  6711.2324   6.23052e-18 
  6712.4102   4.60618e-18 
  6713.5879   6.54716e-18 
  6714.7656   6.25321e-18 
  6715.9434   6.31351e-18 
  6717.1211   7.45787e-18 
  6718.2988   7.63424e-18 
  6719.4766   6.42352e-18 
  6720.6543   6.87844e-18 
  6721.8325   7.04057e-18 
  6723.0103   5.96955e-18 
   6724.188   6.23516e-18 
  6725.3662   5.57343e-18 
  6726.5439   7.06546e-18 
  6727.7222   4.36393e-18 
  6728.9004   7.22644e-18 
  6730.0781   5.29479e-18 
  6731.2563   5.68018e-18 
  6732.4346   7.72502e-18 
  6733.6128   6.42338e-18 
   6734.791   5.68982e-18 
  6735.9692   5.33084e-18 
  6737.1475   5.51285e-18 
  6738.3257   4.73594e-18 
  6739.5044   6.56145e-18 
  6740.6826    6.8152e-18 
  6741.8608   8.52145e-18 
  6743.0396   5.97436e-18 
  6744.2178   8.39247e-18 
  6745.3965    7.6151e-18 
  6746.5747   5.68873e-18 
  6747.7534   6.51117e-18 
  6748.9321   6.50048e-18 
  6750.1108   6.63174e-18 
  6751.2891   6.08798e-18 
  6752.4678   6.07902e-18 
  6753.6465   4.17711e-18 
  6754.8257   6.95771e-18 
  6756.0044   6.10555e-18 
  6757.1831   6.99091e-18 
  6758.3618   7.36845e-18 
   6759.541   6.62349e-18 
  6760.7197   6.70137e-18 
  6761.8984   7.00511e-18 
  6763.0776   7.09031e-18 
  6764.2563    5.0959e-18 
  6765.4355   5.12938e-18 
  6766.6147   7.39996e-18 
  6767.7935   5.15425e-18 
  6768.9727   6.44661e-18 
  6770.1519   4.67021e-18 
  6771.3311   6.13921e-18 
  6772.5103   7.40518e-18 
  6773.6895   5.27196e-18 
  6774.8687   5.72013e-18 
  6776.0483   7.57393e-18 
  6777.2275   6.25202e-18 
  6778.4067   6.49696e-18 
  6779.5864   5.95437e-18 
  6780.7656   5.44867e-18 
  6781.9448   4.52182e-18 
  6783.1245   4.74104e-18 
  6784.3042   5.71447e-18 
  6785.4834   6.27452e-18 
  6786.6631   6.40636e-18 
  6787.8428   7.84826e-18 
  6789.0225   5.36736e-18 
  6790.2021   5.32812e-18 
  6791.3818   5.83943e-18 
  6792.5615   7.66326e-18 
  6793.7412   6.66215e-18 
  6794.9209   6.23989e-18 
  6796.1006   5.48692e-18 
  6797.2808   5.31523e-18 
  6798.4604   5.27643e-18 
  6799.6401   5.19542e-18 
  6800.8203   6.33161e-18 
     6802.0   6.28112e-18 
  6803.1802   6.22965e-18 
  6804.3604   6.90209e-18 
  6805.5405   5.60338e-18 
  6806.7202   5.26082e-18 
  6807.9004   5.88542e-18 
  6809.0806    8.8103e-18 
  6810.2607   4.53368e-18 
  6811.4409   6.57138e-18 
  6812.6211   4.74896e-18 
  6813.8013   4.47796e-18 
  6814.9819    6.0407e-18 
  6816.1621   5.87769e-18 
  6817.3423   3.64053e-18 
  6818.5229   7.78958e-18 
  6819.7031   5.49486e-18 
  6820.8838   5.89093e-18 
   6822.064   7.38439e-18 
  6823.2446   3.70834e-18 
  6824.4253   5.35377e-18 
  6825.6055   4.64261e-18 
  6826.7861   7.02925e-18 
  6827.9668   5.48007e-18 
  6829.1475   7.61274e-18 
  6830.3281   4.89535e-18 
  6831.5088   5.40736e-18 
  6832.6899   6.47665e-18 
  6833.8706   5.96075e-18 
  6835.0513   5.70237e-18 
  6836.2319   7.19812e-18 
  6837.4131   5.39043e-18 
  6838.5938   6.73347e-18 
  6839.7749   6.45803e-18 
  6840.9556   6.18464e-18 
  6842.1367   4.93233e-18 
  6843.3174   6.91576e-18 
  6844.4985   6.28379e-18 
  6845.6797   5.41063e-18 
  6846.8608   5.40295e-18 
   6848.042   6.30863e-18 
  6849.2231   7.79261e-18 
  6850.4043   5.17779e-18 
  6851.5854   5.34148e-18 
  6852.7666   5.09808e-18 
  6853.9478   4.59126e-18 
  6855.1294   4.80212e-18 
  6856.3105   5.13846e-18 
  6857.4917   8.45579e-18 
  6858.6733    7.9538e-18 
  6859.8545   6.85751e-18 
  6861.0361   4.41396e-18 
  6862.2178   6.63253e-18 
  6863.3989   6.80237e-18 
  6864.5806   4.07506e-18 
  6865.7622   8.37865e-18 
  6866.9438   1.26086e-17 
  6868.1255    5.0118e-18 
  6869.3071   6.36852e-18 
  6870.4888   6.54484e-18 
  6871.6704   6.16162e-18 
  6872.8521   5.19542e-18 
  6874.0337   7.27955e-18 
  6875.2158   4.95774e-18 
  6876.3975   3.95138e-18 
  6877.5796   3.84244e-18 
  6878.7612   6.47795e-18 
  6879.9429   6.09798e-18 
   6881.125   5.47892e-18 
  6882.3071   6.77416e-18 
  6883.4888   6.21811e-18 
  6884.6709    5.8738e-18 
   6885.853   2.83704e-18 
  6887.0352   6.12459e-18 
  6888.2173   8.79006e-18 
  6889.3994   3.95665e-18 
  6890.5815   5.31961e-18 
  6891.7637   5.58499e-18 
  6892.9458    4.9393e-18 
  6894.1284   5.07344e-18 
  6895.3105   5.03559e-18 
  6896.4927   5.48137e-18 
  6897.6753   4.89824e-18 
  6898.8574   5.65019e-18 
    6900.04   3.69278e-18 
  6901.2222   5.75958e-18 
  6902.4048   6.04929e-18 
  6903.5874   4.97145e-18 
    6904.77    4.3709e-18 
  6905.9526   5.28557e-18 
  6907.1348   5.38599e-18 
  6908.3174     6.056e-18 
     6909.5   7.56436e-18 
  6910.6826   5.73568e-18 
  6911.8657   5.60995e-18 
  6913.0483   4.76709e-18 
   6914.231   5.53069e-18 
  6915.4136   5.38616e-18 
  6916.5967   3.17011e-18 
  6917.7793   5.65821e-18 
  6918.9624   4.64938e-18 
   6920.145   6.54716e-18 
  6921.3281   2.82846e-18 
  6922.5107   3.27543e-18 
  6923.6938    5.4332e-18 
   6924.877   5.43936e-18 
  6926.0601   5.91891e-18 
  6927.2427   5.00771e-18 
  6928.4258   5.25224e-18 
  6929.6089   5.25499e-18 
   6930.792   4.89512e-18 
  6931.9756   5.79878e-18 
  6933.1587   6.08712e-18 
  6934.3418   6.01603e-18 
  6935.5249   4.09377e-18 
  6936.7085   7.41018e-18 
  6937.8916   5.69527e-18 
  6939.0752   5.76139e-18 
  6940.2583   3.71514e-18 
  6941.4419   4.58997e-18 
   6942.625   4.86795e-18 
  6943.8086   5.33394e-18 
  6944.9922   4.65855e-18 
  6946.1753   6.73776e-18 
  6947.3589   7.92153e-18 
  6948.5425   4.33883e-18 
  6949.7261   3.41061e-18 
  6950.9097   6.30689e-18 
  6952.0933   6.52823e-18 
  6953.2773   5.63881e-18 
  6954.4609   3.93028e-18 
  6955.6445   4.69511e-18 
  6956.8281   5.22184e-18 
  6958.0122   4.70178e-18 
  6959.1958   3.84082e-18 
  6960.3799   6.00279e-18 
  6961.5635   5.99996e-18 
  6962.7476   5.02832e-18 
  6963.9316   6.65879e-18 
  6965.1152   4.79298e-18 
  6966.2993   6.13628e-18 
  6967.4834   4.91491e-18 
  6968.6675   4.75692e-18 
  6969.8516   5.80236e-18 
  6971.0356   6.33068e-18 
  6972.2197   3.75216e-18 
  6973.4038   4.18859e-18 
  6974.5879   4.73234e-18 
   6975.772   4.15542e-18 
  6976.9565   3.75481e-18 
  6978.1406   5.20869e-18 
  6979.3247   4.21159e-18 
  6980.5093   5.27433e-18 
  6981.6934    5.8318e-18 
  6982.8779   7.27109e-18 
   6984.062   5.10571e-18 
  6985.2466   4.97483e-18 
  6986.4312   4.38003e-18 
  6987.6157   4.85441e-18 
  6988.7998   5.29935e-18 
  6989.9844   7.45693e-18 
  6991.1689    5.5477e-18 
  6992.3535   3.73543e-18 
  6993.5381   4.09571e-18 
  6994.7227   6.16691e-18 
  6995.9077   7.12435e-18 
  6997.0923   3.79502e-18 
  6998.2769   5.90175e-18 
  6999.4619   5.44968e-18 
  7000.6465   4.87892e-18 
  7001.8311   4.60963e-18 
  7003.0161   4.69899e-18 
  7004.2007   5.86951e-18 
  7005.3857   5.63396e-18 
  7006.5708   5.65311e-18 
  7007.7554    5.1535e-18 
  7008.9404   4.73547e-18 
  7010.1255   5.98516e-18 
  7011.3105    5.0015e-18 
  7012.4956   7.31559e-18 
  7013.6807   5.71098e-18 
  7014.8657   5.13054e-18 
  7016.0508   5.60206e-18 
  7017.2358   6.05567e-18 
  7018.4214     5.016e-18 
  7019.6064   2.92591e-18 
  7020.7915   4.61307e-18 
  7021.9766   6.01898e-18 
  7023.1621   6.04031e-18 
  7024.3472   5.15073e-18 
  7025.5327   5.69748e-18 
  7026.7183   4.83344e-18 
  7027.9033   6.05903e-18 
  7029.0889   5.70676e-18 
  7030.2744   6.78998e-18 
    7031.46    6.2908e-18 
  7032.6455   6.48808e-18 
  7033.8306   6.21927e-18 
  7035.0166   5.46835e-18 
  7036.2017   5.10249e-18 
  7037.3877   4.34723e-18 
  7038.5732   4.91012e-18 
  7039.7588   4.06373e-18 
  7040.9443   5.22962e-18 
  7042.1304   5.07827e-18 
  7043.3159   4.63176e-18 
  7044.5015   4.59564e-18 
  7045.6875   5.86402e-18 
  7046.8735     6.394e-18 
  7048.0591    5.0169e-18 
  7049.2451   4.43562e-18 
  7050.4307    5.0932e-18 
  7051.6167   6.18661e-18 
  7052.8027   4.31524e-18 
  7053.9888   5.23034e-18 
  7055.1748   4.78037e-18 
  7056.3608   5.70126e-18 
  7057.5469   5.66774e-18 
  7058.7329   5.83525e-18 
  7059.9189   5.74581e-18 
   7061.105   6.56038e-18 
   7062.291   5.21481e-18 
  7063.4775   7.51904e-18 
  7064.6636   6.39645e-18 
  7065.8496   4.16559e-18 
  7067.0361   4.71615e-18 
  7068.2222   5.27416e-18 
  7069.4087     5.996e-18 
  7070.5952   5.79201e-18 
  7071.7812   5.59746e-18 
  7072.9678   5.11788e-18 
  7074.1543   4.13975e-18 
  7075.3408   5.91103e-18 
  7076.5269   5.44686e-18 
  7077.7134   5.42992e-18 
  7078.8999   4.93071e-18 
  7080.0864   6.69442e-18 
  7081.2729    5.5589e-18 
  7082.4595   4.19991e-18 
  7083.6465   5.75944e-18 
   7084.833   6.26479e-18 
  7086.0195   6.44706e-18 
  7087.2065   4.96635e-18 
  7088.3931    6.4654e-18 
  7089.5796   6.25213e-18 
  7090.7666    5.5874e-18 
  7091.9536   7.36866e-18 
  7093.1401   5.74386e-18 
  7094.3271   4.98552e-18 
  7095.5142   6.02635e-18 
  7096.7007   3.57846e-18 
  7097.8877   4.14747e-18 
  7099.0747   5.78192e-18 
  7100.2617   6.02617e-18 
  7101.4487   7.25483e-18 
  7102.6357   6.24781e-18 
  7103.8228   5.40259e-18 
  7105.0098   5.18368e-18 
  7106.1968   7.19212e-18 
  7107.3843     4.805e-18 
  7108.5713   5.44186e-18 
  7109.7583   6.52769e-18 
  7110.9458   5.87675e-18 
  7112.1328   5.51918e-18 
  7113.3203   5.17308e-18 
  7114.5073   5.39284e-18 
  7115.6948   7.50856e-18 
  7116.8823   5.90982e-18 
  7118.0693   5.71846e-18 
  7119.2568   5.34844e-18 
  7120.4443   5.91775e-18 
  7121.6318   5.81872e-18 
  7122.8193   4.82907e-18 
  7124.0068   4.59341e-18 
  7125.1943   6.68508e-18 
  7126.3818   6.13033e-18 
  7127.5693   6.31939e-18 
  7128.7568   7.10197e-18 
  7129.9443   6.79358e-18 
  7131.1323   6.15314e-18 
  7132.3198   6.74913e-18 
  7133.5073   6.77286e-18 
  7134.6953    7.6918e-18 
  7135.8828   6.07866e-18 
  7137.0708   5.33266e-18 
  7138.2583   6.69533e-18 
  7139.4463   6.85127e-18 
  7140.6343   6.39342e-18 
  7141.8218     5.874e-18 
  7143.0098   5.38454e-18 
  7144.1978   4.02771e-18 
  7145.3857   7.29232e-18 
  7146.5737   5.15337e-18 
  7147.7617   5.34095e-18 
  7148.9497   4.94879e-18 
  7150.1377   6.13442e-18 
  7151.3257   7.25955e-18 
  7152.5137   6.20559e-18 
  7153.7017   6.66294e-18 
  7154.8901   6.82044e-18 
  7156.0781   5.29187e-18 
  7157.2666   6.65976e-18 
  7158.4546   5.32713e-18 
  7159.6426   5.03968e-18 
  7160.8311   7.17366e-18 
  7162.0195   4.50857e-18 
  7163.2075   7.50715e-18 
   7164.396   6.09071e-18 
  7165.5845   6.78468e-18 
  7166.7725   4.91902e-18 
  7167.9609   5.74711e-18 
  7169.1494   4.32663e-18 
  7170.3379   4.40607e-18 
  7171.5264   7.08482e-18 
  7172.7148   7.44333e-18 
  7173.9033   6.69318e-18 
  7175.0923   7.38592e-18 
  7176.2808   5.69337e-18 
  7177.4692   6.85261e-18 
  7178.6577   5.20953e-18 
  7179.8467   6.96642e-18 
  7181.0352   5.48812e-18 
  7182.2241    6.4559e-18 
  7183.4126   6.90806e-18 
  7184.6011   7.48913e-18 
    7185.79   5.66503e-18 
   7186.979   5.26813e-18 
  7188.1675   5.71051e-18 
  7189.3564   5.49227e-18 
  7190.5454   5.55475e-18 
  7191.7344   6.91774e-18 
  7192.9233   6.32721e-18 
  7194.1123   5.34733e-18 
  7195.3013   5.31733e-18 
  7196.4902    5.6641e-18 
  7197.6792   6.92106e-18 
  7198.8682   6.84773e-18 
  7200.0571   6.38336e-18 
  7201.2461   5.76249e-18 
  7202.4355   8.66555e-18 
  7203.6245   7.09998e-18 
  7204.8135   5.81395e-18 
  7206.0029   4.80747e-18 
  7207.1919    7.1588e-18 
  7208.3813   6.84322e-18 
  7209.5703   4.46087e-18 
  7210.7598   7.71257e-18 
  7211.9492   6.35288e-18 
  7213.1382   6.07107e-18 
  7214.3276   6.84074e-18 
  7215.5171   6.81863e-18 
  7216.7065   6.25256e-18 
   7217.896    6.0753e-18 
  7219.0854    7.0811e-18 
  7220.2749   7.54618e-18 
  7221.4644   4.85984e-18 
  7222.6538   5.80801e-18 
  7223.8433   4.67715e-18 
  7225.0327   5.74666e-18 
  7226.2227   6.68845e-18 
  7227.4121   6.07558e-18 
  7228.6016   8.70781e-18 
  7229.7915    5.9741e-18 
   7230.981   7.70327e-18 
  7232.1709   8.83886e-18 
  7233.3604   9.28928e-18 
  7234.5503   8.27585e-18 
  7235.7397   6.79482e-18 
  7236.9297   5.38759e-18 
  7238.1196   7.42894e-18 
  7239.3096     2.651e-18 
   7240.499   7.25841e-18 
   7241.689   5.21165e-19 
  7242.8789   9.44354e-18 
  7244.0688   7.15771e-18 
  7245.2588   6.54449e-18 
  7246.4487   8.63636e-18 
  7247.6387     9.634e-18 
  7248.8291   7.08977e-18 
   7250.019   7.68941e-18 
   7251.209   6.77441e-18 
  7252.3989     4.787e-18 
  7253.5894   9.49716e-18 
  7254.7793   7.65146e-18 
  7255.9697   6.92406e-18 
  7257.1597   5.32702e-18 
  7258.3501   6.29351e-18 
    7259.54   7.59051e-18 
  7260.7305   7.07133e-18 
  7261.9209   7.54239e-18 
  7263.1108   3.19503e-18 
  7264.3013   6.41575e-18 
  7265.4917   5.33815e-18 
  7266.6821    6.2088e-18 
  7267.8726    6.3194e-18 
   7269.063   6.20843e-18 
  7270.2534   7.85228e-18 
  7271.4438   7.12661e-18 
  7272.6343   4.23981e-18 
  7273.8247   3.61845e-18 
  7275.0151   7.57347e-18 
  7276.2056   8.96672e-18 
  7277.3965   7.04829e-18 
  7278.5869   7.46068e-18 
  7279.7773    8.5114e-18 
  7280.9683   1.01561e-17 
  7282.1587   8.80439e-18 
  7283.3496   9.58526e-18 
    7284.54   3.75622e-18 
   7285.731    7.0173e-18 
  7286.9219   8.37432e-18 
  7288.1123   7.36137e-18 
  7289.3032   8.41433e-18 
  7290.4941   7.26809e-18 
  7291.6851   7.42158e-18 
   7292.876   7.86452e-18 
  7294.0669    7.0681e-18 
  7295.2578   6.42545e-18 
  7296.4487   5.13205e-18 
  7297.6396   8.32652e-18 
  7298.8306    7.3456e-18 
  7300.0215   5.46007e-18 
  7301.2124   1.05536e-17 
  7302.4033   8.56072e-18 
  7303.5947   5.38601e-18 
  7304.7856   5.74393e-18 
  7305.9766    7.9528e-18 
   7307.168   3.95863e-18 
  7308.3589    6.3352e-18 
  7309.5503   7.59006e-18 
  7310.7412   6.00547e-18 
  7311.9326   7.66249e-18 
   7313.124   9.25206e-18 
  7314.3149    8.0148e-18 
  7315.5063   4.61054e-18 
  7316.6978   6.98066e-18 
  7317.8892   6.11687e-18 
  7319.0806    5.7088e-18 
   7320.272   8.82465e-18 
  7321.4634   5.95713e-18 
  7322.6548   6.39003e-18 
  7323.8462   5.38522e-18 
  7325.0376   7.04275e-18 
   7326.229   8.01522e-18 
  7327.4204   7.43649e-18 
  7328.6118   7.85491e-18 
  7329.8037   7.92207e-18 
  7330.9951    9.2278e-18 
  7332.1865    7.8688e-18 
  7333.3784    6.7974e-18 
  7334.5698   6.61374e-18 
  7335.7617   4.52928e-18 
  7336.9531   7.03942e-18 
   7338.145   8.48128e-18 
  7339.3369   6.58975e-18 
  7340.5283   3.43912e-18 
  7341.7202   1.07535e-17 
  7342.9121   7.51092e-18 
   7344.104   9.26194e-18 
  7345.2959   6.62362e-18 
  7346.4873   7.23187e-18 
  7347.6792   6.52575e-18 
  7348.8711   6.80106e-18 
   7350.063   7.35075e-18 
  7351.2549   7.69099e-18 
  7352.4473   6.97624e-18 
  7353.6392   7.02944e-18 
  7354.8311   6.49225e-18 
  7356.0229   8.41118e-18 
  7357.2153   8.34475e-18 
  7358.4072   5.48063e-18 
  7359.5991   7.00303e-18 
  7360.7915   8.53528e-18 
  7361.9834   8.23579e-18 
  7363.1758   7.30499e-18 
  7364.3677   8.19045e-18 
  7365.5601   8.90123e-18 
  7366.7524   6.75862e-18 
  7367.9443   4.76253e-18 
  7369.1367   5.80147e-18 
  7370.3291   8.44223e-18 
  7371.5215   6.60292e-18 
  7372.7134   6.34578e-18 
  7373.9058   7.35945e-18 
  7375.0981   7.11341e-18 
  7376.2905   6.90506e-18 
  7377.4829   6.10135e-18 
  7378.6758   6.25946e-18 
  7379.8682   7.35508e-18 
  7381.0605   6.86496e-18 
  7382.2529   6.60701e-18 
  7383.4453   6.21374e-18 
  7384.6382   7.02347e-18 
  7385.8306     8.765e-18 
  7387.0229   7.21522e-18 
  7388.2158   7.38104e-18 
  7389.4082   8.55505e-18 
  7390.6011   7.15397e-18 
  7391.7935   6.46493e-18 
  7392.9863   4.88462e-18 
  7394.1792   8.06422e-18 
  7395.3716   6.12936e-18 
  7396.5645   5.62419e-18 
  7397.7573   4.31216e-18 
  7398.9502   6.76301e-18 
  7400.1426   4.96745e-18 
  7401.3354   8.40711e-18 
  7402.5283   7.04386e-18 
  7403.7212   7.31767e-18 
  7404.9141   8.66878e-18 
  7406.1069   9.66264e-18 
  7407.2998    7.1038e-18 
  7408.4927   6.48175e-18 
   7409.686   5.93774e-18 
  7410.8789   7.10798e-18 
  7412.0718   4.95055e-18 
  7413.2651   6.06156e-18 
   7414.458   6.95781e-18 
  7415.6509   6.77451e-18 
  7416.8442   7.49004e-18 
  7418.0371   7.71739e-18 
  7419.2305   7.62497e-18 
  7420.4233   7.50363e-18 
  7421.6167   8.40761e-18 
  7422.8096   6.73925e-18 
  7424.0029   6.55246e-18 
  7425.1963   7.73515e-18 
  7426.3896   6.66455e-18 
   7427.583   8.54061e-18 
  7428.7759   7.56286e-18 
  7429.9692   7.90399e-18 
  7431.1626   7.63037e-18 
   7432.356   9.77484e-18 
  7433.5493    7.1244e-18 
  7434.7427   5.75496e-18 
   7435.936   7.15865e-18 
  7437.1294   7.38306e-18 
  7438.3232   6.59687e-18 
  7439.5166   6.54093e-18 
    7440.71    6.6779e-18 
  7441.9033   6.91862e-18 
  7443.0972   7.60214e-18 
  7444.2905   7.31732e-18 
  7445.4844   6.71503e-18 
  7446.6777   6.95417e-18 
  7447.8716    8.0249e-18 
  7449.0649    7.6682e-18 
  7450.2588   5.52776e-18 
  7451.4521   6.99083e-18 
   7452.646   8.01448e-18 
  7453.8398   6.26516e-18 
  7455.0332   6.76107e-18 
  7456.2271   6.25339e-18 
  7457.4209   7.27467e-18 
  7458.6147   5.88779e-18 
  7459.8086   7.26685e-18 
  7461.0024    6.7634e-18 
  7462.1963   6.96604e-18 
  7463.3901   6.16263e-18 
   7464.584   7.36992e-18 
  7465.7778   7.48091e-18 
  7466.9717   4.62227e-18 
  7468.1655   6.69807e-18 
  7469.3594   5.48151e-18 
  7470.5537    7.8986e-18 
  7471.7476   6.16903e-18 
  7472.9414   7.43144e-18 
  7474.1357   6.66444e-18 
  7475.3296   8.65644e-18 
  7476.5239   6.46129e-18 
  7477.7178   5.34281e-18 
  7478.9121   6.21296e-18 
   7480.106   7.54856e-18 
  7481.3003   7.38985e-18 
  7482.4946   7.31378e-18 
  7483.6885   1.02852e-17 
  7484.8828   8.76821e-18 
  7486.0771    6.7553e-18 
  7487.2715   7.02285e-18 
  7488.4658   4.99291e-18 
  7489.6597   7.01323e-18 
   7490.854   8.24211e-18 
  7492.0483   7.08892e-18 
  7493.2427   8.05915e-18 
  7494.4375    6.6779e-18 
  7495.6318   6.30359e-18 
  7496.8262   6.30903e-18 
  7498.0205    6.4234e-18 
  7499.2148   5.99969e-18 
  7500.4092   5.38514e-18 
   7501.604   6.30255e-18 
  7502.7983   7.83199e-18 
  7503.9927   6.11406e-18 
  7505.1875   4.98125e-18 
  7506.3818    6.4401e-18 
  7507.5767   5.93158e-18 
   7508.771   6.27994e-18 
  7509.9658   6.76879e-18 
  7511.1602   6.75201e-18 
   7512.355   7.52589e-18 
  7513.5498    6.6261e-18 
  7514.7441   5.89934e-18 
   7515.939   5.92049e-18 
  7517.1338   6.90467e-18 
  7518.3286   7.08313e-18 
  7519.5234   5.44041e-18 
  7520.7178   7.40547e-18 
  7521.9126   6.80806e-18 
  7523.1074   7.51007e-18 
  7524.3022   7.04329e-18 
  7525.4971   5.32955e-18 
  7526.6924   3.91383e-18 
  7527.8872    5.2505e-18 
   7529.082   6.50301e-18 
  7530.2769   6.16138e-18 
  7531.4717   5.50543e-18 
   7532.667   6.26343e-18 
  7533.8618   5.35033e-18 
  7535.0566    7.3782e-18 
   7536.252   6.90709e-18 
  7537.4468   5.10327e-18 
  7538.6421   6.00005e-18 
  7539.8369   5.27118e-18 
  7541.0322    6.4188e-18 
  7542.2271   5.10099e-18 
  7543.4224   5.53711e-18 
  7544.6172   5.41478e-18 
  7545.8125   6.19442e-18 
  7547.0078   5.70949e-18 
  7548.2031   5.28025e-18 
  7549.3984   6.18038e-18 
  7550.5933   6.71128e-18 
  7551.7886   3.90538e-18 
  7552.9839   5.82432e-18 
  7554.1792   4.87722e-18 
  7555.3745    7.2609e-18 
  7556.5698     5.761e-18 
  7557.7651    6.3843e-18 
  7558.9604   6.52161e-18 
  7560.1558   5.55113e-18 
  7561.3511    6.0607e-18 
  7562.5469   6.44175e-18 
  7563.7422    5.6086e-18 
  7564.9375    5.4651e-18 
  7566.1333    6.7342e-18 
  7567.3286   4.72039e-18 
  7568.5239   4.90493e-18 
  7569.7197   4.56123e-18 
   7570.915   6.05918e-18 
  7572.1108   3.86629e-18 
  7573.3062   4.05705e-18 
   7574.502   5.85697e-18 
  7575.6973   7.09569e-18 
  7576.8931   5.81214e-18 
  7578.0889   7.30292e-18 
  7579.2842   5.39999e-18 
    7580.48   4.45041e-18 
  7581.6758   5.21845e-18 
  7582.8716   8.17542e-18 
  7584.0674   7.97301e-18 
  7585.2627   6.31297e-18 
  7586.4585   7.05913e-18 
  7587.6543    5.2336e-18 
  7588.8501    7.4001e-18 
  7590.0459   5.71687e-18 
  7591.2417    7.2045e-18 
   7592.438    6.8111e-18 
  7593.6338   6.78944e-18 
  7594.8296   6.50952e-18 
  7596.0254    4.0432e-18 
  7597.2212   8.61075e-18 
  7598.4175   5.11056e-18 
  7599.6133   6.76918e-18 
  7600.8091   6.56392e-18 
  7602.0054   7.48146e-18 
  7603.2012   1.28047e-17 
  7604.3975   4.44197e-18 
  7605.5933   8.86538e-18 
  7606.7896   9.05338e-18 
  7607.9854   3.90425e-18 
  7609.1816   6.13085e-18 
  7610.3779   6.81562e-18 
  7611.5737   5.34704e-18 
    7612.77     5.648e-18 
  7613.9663   3.21139e-18 
  7615.1621   5.14927e-18 
  7616.3584   6.07519e-18 
  7617.5547   3.75945e-18 
   7618.751   4.70285e-18 
  7619.9473    5.4226e-18 
  7621.1436   6.94658e-18 
  7622.3398   5.68042e-18 
  7623.5361   7.61245e-18 
  7624.7324   4.47621e-18 
  7625.9287   5.09478e-18 
   7627.125   1.01893e-17 
  7628.3213   2.92995e-18 
  7629.5176    6.7101e-18 
  7630.7139   8.57455e-18 
  7631.9106   5.80313e-18 
  7633.1069   5.43731e-18 
  7634.3032   5.72645e-18 
     7635.5   4.35211e-18 
  7636.6963   5.94998e-18 
  7637.8931   6.03435e-18 
  7639.0894   5.94771e-18 
  7640.2861   5.80575e-18 
  7641.4824    4.3289e-18 
  7642.6792   6.07541e-18 
  7643.8755    5.7692e-18 
  7645.0723   4.63466e-18 
   7646.269   4.98771e-18 
  7647.4653   4.61556e-18 
  7648.6621   5.46972e-18 
  7649.8589   6.30894e-18 
  7651.0552   5.88715e-18 
   7652.252   6.27548e-18 
  7653.4487   6.53427e-18 
  7654.6455   5.32573e-18 
  7655.8423   5.17471e-18 
  7657.0391   3.15671e-18 
  7658.2358   4.82471e-18 
  7659.4326   5.76536e-18 
  7660.6294   6.55266e-18 
  7661.8262   4.91562e-18 
  7663.0229   6.33158e-18 
  7664.2202   5.11802e-18 
   7665.417   5.14586e-18 
  7666.6138   6.84869e-18 
  7667.8105   5.81524e-18 
  7669.0078   5.31309e-18 
  7670.2046   5.82835e-18 
  7671.4014   6.08615e-18 
  7672.5986   5.19037e-18 
  7673.7954   4.91127e-18 
  7674.9922   4.94712e-18 
  7676.1895    5.4468e-18 
  7677.3867   6.03814e-18 
  7678.5835   5.24074e-18 
  7679.7808   7.15892e-18 
  7680.9775    4.3067e-18 
  7682.1748   6.13684e-18 
  7683.3721     6.239e-18 
  7684.5688   5.46561e-18 
  7685.7661   4.46723e-18 
  7686.9634   5.38622e-18 
  7688.1606   6.09135e-18 
  7689.3574   5.23501e-18 
  7690.5547   6.77018e-18 
   7691.752   6.20577e-18 
  7692.9492   4.25376e-18 
  7694.1465    6.3826e-18 
  7695.3438   4.89679e-18 
   7696.541    4.5686e-18 
  7697.7383   6.07107e-18 
  7698.9355   5.61005e-18 
  7700.1333   6.14516e-18 
  7701.3306   5.62827e-18 
  7702.5278   5.98095e-18 
  7703.7251   4.97892e-18 
  7704.9224    4.5339e-18 
  7706.1201   6.07377e-18 
  7707.3174   5.08634e-18 
  7708.5146   6.43641e-18 
  7709.7124   6.74437e-18 
  7710.9097   3.53229e-18 
  7712.1074   3.13597e-18 
  7713.3047   8.61293e-18 
  7714.5024   4.75157e-18 
  7715.6997   5.57771e-18 
  7716.8975   3.80953e-18 
  7718.0947   3.58753e-18 
  7719.2925   1.53305e-18 
  7720.4902   6.38309e-18 
  7721.6875   7.42756e-18 
  7722.8853   2.51277e-18 
   7724.083   4.95311e-18 
  7725.2808   5.29416e-18 
   7726.478   7.26424e-18 
  7727.6758   7.70414e-18 
  7728.8735   4.15818e-18 
  7730.0713   6.27252e-18 
   7731.269   4.29757e-18 
  7732.4668   6.47648e-18 
  7733.6646   4.88776e-18 
  7734.8623   4.47832e-18 
  7736.0601   5.91393e-18 
  7737.2578   4.03734e-18 
  7738.4556    5.4158e-18 
  7739.6533   7.73894e-18 
  7740.8516    4.3574e-18 
  7742.0493     5.626e-18 
  7743.2471   5.45755e-18 
  7744.4448   3.99557e-18 
  7745.6431   7.84451e-18 
  7746.8408   6.16416e-18 
  7748.0386   4.50764e-18 
  7749.2368   8.47515e-18 
  7750.4346   7.62077e-18 
  7751.6328   6.25686e-18 
  7752.8306   7.13051e-18 
  7754.0288   1.89074e-18 
  7755.2266   4.80645e-18 
  7756.4248   4.33825e-18 
  7757.6226   2.89111e-18 
  7758.8208   7.08397e-18 
   7760.019   4.60983e-18 
  7761.2168   3.92491e-18 
   7762.415   4.71496e-18 
  7763.6133    4.4903e-18 
  7764.8115   6.83874e-18 
  7766.0093   6.26651e-18 
  7767.2075    5.9601e-18 
  7768.4058   5.13766e-18 
   7769.604     6.634e-18 
  7770.8022   5.81575e-18 
  7772.0005   6.40024e-18 
  7773.1987   6.30328e-18 
   7774.397   6.49608e-18 
  7775.5952   3.43092e-18 
  7776.7935    3.2641e-18 
  7777.9917   4.49087e-18 
  7779.1904     1.685e-18 
  7780.3887   3.89918e-18 
  7781.5869   4.42174e-18 
  7782.7852   3.14088e-18 
  7783.9834   6.04985e-18 
  7785.1821   6.56013e-18 
  7786.3804   3.93117e-18 
  7787.5786   4.49924e-18 
  7788.7773   3.55011e-18 
  7789.9756   2.09289e-18 
  7791.1738   5.23193e-18 
  7792.3726   4.71471e-18 
  7793.5708   3.47518e-18 
  7794.7695    4.7613e-18 
  7795.9678   7.63546e-18 
  7797.1665   4.91208e-18 
  7798.3652   5.34307e-18 
  7799.5635   6.43144e-18 
  7800.7622   4.80713e-18 
  7801.9609   5.24725e-18 
  7803.1592   6.97868e-18 
  7804.3579   6.10972e-18 
  7805.5566   6.02846e-18 
  7806.7549   5.68038e-18 
  7807.9536   5.72699e-18 
  7809.1523   5.76089e-18 
  7810.3511   4.88818e-18 
  7811.5498   5.47923e-18 
  7812.7485   3.79137e-18 
  7813.9473    6.3287e-18 
   7815.146   4.38691e-18 
  7816.3447   4.12158e-18 
  7817.5435   6.59478e-18 
  7818.7422   6.44901e-18 
  7819.9409   5.28619e-18 
  7821.1396   6.15343e-18 
  7822.3384   5.76999e-18 
  7823.5371    7.2681e-19 
  7824.7363   5.92593e-18 
  7825.9351   2.18776e-18 
  7827.1338   3.98492e-18 
  7828.3325   4.63943e-18 
  7829.5317   6.04848e-18 
  7830.7305   6.21135e-18 
  7831.9292   6.04794e-18 
  7833.1284   5.74584e-18 
  7834.3271   4.89094e-18 
  7835.5264   3.80957e-18 
  7836.7251   7.13252e-18 
  7837.9243    4.3392e-18 
   7839.123   4.61933e-18 
  7840.3223   4.56595e-18 
   7841.521   5.07699e-18 
  7842.7202   5.64386e-18 
  7843.9194    5.5757e-18 
  7845.1182   5.34972e-18 
  7846.3174   5.54872e-18 
  7847.5166   4.87162e-18 
  7848.7153   6.39069e-18 
  7849.9146    5.4749e-18 
  7851.1138   6.19193e-18 
   7852.313    7.9838e-18 
  7853.5122   2.79286e-18 
  7854.7114   7.94315e-18 
  7855.9102   5.20802e-18 
  7857.1094   5.06144e-18 
  7858.3086   3.38942e-18 
  7859.5078   4.81082e-18 
   7860.707   6.15532e-18 
  7861.9062   5.71987e-18 
  7863.1055   1.96344e-18 
  7864.3047   5.61545e-18 
  7865.5044   6.59411e-18 
  7866.7036   8.23402e-18 
  7867.9028   6.75531e-18 
  7869.1021     3.536e-18 
  7870.3013    3.0554e-18 
   7871.501   6.35301e-18 
  7872.7002   3.16525e-18 
  7873.8994   2.16858e-18 
  7875.0986   5.94412e-18 
  7876.2983   3.33129e-18 
  7877.4976   5.70345e-18 
  7878.6968   7.39172e-18 
  7879.8965   5.63666e-18 
  7881.0957   5.74967e-18 
  7882.2954   5.39581e-18 
  7883.4946   4.27191e-18 
  7884.6943   5.04373e-18 
   7885.894    5.9156e-18 
  7887.0933   4.37998e-18 
   7888.293   5.27502e-18 
  7889.4922   6.49149e-18 
  7890.6919   6.69476e-18 
  7891.8916   4.73957e-18 
  7893.0908   3.91964e-18 
  7894.2905   7.56292e-18 
  7895.4902   4.59087e-18 
  7896.6899   5.81958e-18 
  7897.8892   5.69858e-18 
  7899.0889   6.26466e-18 
  7900.2886   4.53436e-18 
  7901.4883   5.18135e-18 
   7902.688   5.18572e-18 
  7903.8877   4.44487e-18 
  7905.0874   4.46877e-18 
  7906.2871   4.43282e-18 
  7907.4868    2.5233e-18 
  7908.6865   5.57598e-18 
  7909.8862  -6.99755e-19 
  7911.0859   8.17533e-18 
  7912.2856   3.11125e-18 
  7913.4854    2.6506e-18 
  7914.6851   1.68461e-18 
  7915.8848   2.52083e-18 
  7917.0845   6.76749e-18 
  7918.2842   6.57344e-18 
  7919.4844   4.77699e-18 
  7920.6841   7.60136e-18 
  7921.8838   5.18726e-18 
   7923.084   6.06122e-18 
  7924.2837   4.09679e-18 
  7925.4834   3.70605e-18 
  7926.6836   6.84776e-18 
  7927.8833   3.76639e-18 
   7929.083   1.72169e-18 
  7930.2832   4.75059e-18 
  7931.4829   5.79092e-18 
  7932.6831   5.27392e-18 
  7933.8828   4.62565e-18 
   7935.083   4.41059e-18 
  7936.2827    4.9189e-18 
  7937.4829   5.61419e-18 
  7938.6831   7.14416e-18 
  7939.8828    4.3129e-18 
   7941.083   6.57574e-18 
  7942.2832   6.74417e-18 
  7943.4829   5.97542e-18 
  7944.6831   3.75844e-18 
  7945.8833   5.02273e-18 
  7947.0835   6.16423e-18 
  7948.2832   3.39938e-18 
  7949.4834   6.48035e-18 
  7950.6836   4.92848e-18 
  7951.8838   5.15961e-18 
   7953.084   6.02598e-18 
  7954.2842   4.85513e-18 
  7955.4844   3.81101e-18 
  7956.6846   5.08106e-18 
  7957.8843   5.16553e-18 
  7959.0845   4.78146e-18 
  7960.2847   5.98944e-18 
  7961.4854   5.25637e-18 
  7962.6855   3.67902e-18 
  7963.8857   5.41173e-18 
  7965.0859   4.08738e-18 
  7966.2861   6.45897e-18 
  7967.4863    5.0611e-18 
  7968.6865   6.11037e-18 
  7969.8872   3.77292e-18 
  7971.0874   4.41454e-18 
  7972.2876   4.49635e-18 
  7973.4878   5.48772e-18 
  7974.6885    6.3437e-18 
  7975.8887   6.25899e-18 
  7977.0889   4.35176e-18 
  7978.2891   2.94297e-18 
  7979.4897   6.46041e-18 
  7980.6899   4.20828e-18 
  7981.8906   3.90974e-18 
  7983.0908   3.80254e-18 
  7984.2915   5.34194e-18 
  7985.4917   5.82669e-18 
  7986.6924    5.1318e-18 
  7987.8926   5.49541e-18 
  7989.0933   9.51179e-18 
  7990.2935   7.11997e-18 
  7991.4941   1.30319e-18 
  7992.6948   5.30125e-18 
   7993.895   5.48727e-18 
  7995.0957   5.28031e-18 
  7996.2959   5.90096e-18 
  7997.4966   5.26531e-18 
  7998.6973   3.09723e-18 
  7999.8979   6.46093e-18 
  8001.0981   6.04982e-18 
  8002.2988   5.42601e-18 
  8003.4995   5.56872e-18 
  8004.7002   4.28754e-18 
  8005.9009   3.86722e-18 
  8007.1011   4.04619e-18 
  8008.3018   4.75971e-18 
  8009.5024   4.79728e-18 
  8010.7031   3.58368e-18 
  8011.9038   6.90477e-18 
  8013.1045   4.38732e-18 
  8014.3052   5.89408e-18 
  8015.5059   8.85516e-18 
  8016.7065   6.24411e-18 
  8017.9072   3.83873e-18 
  8019.1079   5.21899e-18 
  8020.3086   5.50415e-18 
  8021.5098   5.85018e-18 
  8022.7104   4.54626e-18 
  8023.9111   6.52553e-18 
  8025.1118   2.88586e-18 
  8026.3125   8.28815e-18 
  8027.5132   5.50735e-18 
  8028.7144   6.44734e-18 
   8029.915    5.2025e-18 
  8031.1157   4.40813e-18 
  8032.3164   6.08043e-18 
  8033.5176    5.8327e-18 
  8034.7183   4.08436e-18 
  8035.9194   6.09293e-18 
  8037.1201   4.59835e-18 
  8038.3208   4.44877e-18 
   8039.522   6.26019e-18 
  8040.7227   5.44774e-18 
  8041.9238   4.96611e-18 
  8043.1245   3.10581e-18 
  8044.3257   4.63263e-18 
  8045.5264   4.73242e-18 
  8046.7275   4.15497e-18 
  8047.9282   6.22604e-18 
  8049.1294   5.95842e-18 
  8050.3301   5.31195e-18 
  8051.5312   2.85932e-18 
  8052.7324    5.0114e-18 
  8053.9331   3.62287e-18 
  8055.1343   4.16612e-18 
   8056.335   3.75231e-18 
  8057.5361   5.03081e-18 
  8058.7373    1.9499e-18 
  8059.9385   4.79619e-18 
  8061.1392  -3.99304e-21 
  8062.3403   7.80609e-18 
  8063.5415   5.08755e-18 
  8064.7427   3.70896e-18 
  8065.9438   4.93771e-18 
   8067.145    5.8483e-18 
  8068.3457   4.91552e-18 
  8069.5469   3.91709e-18 
   8070.748   3.86026e-18 
  8071.9492   4.13873e-18 
  8073.1504   5.23423e-18 
  8074.3516    7.7483e-18 
  8075.5527   5.12677e-18 
  8076.7539    6.0963e-18 
  8077.9551   6.48793e-18 
  8079.1562   6.66956e-18 
  8080.3574   5.44236e-18 
  8081.5586   4.02932e-18 
  8082.7598    5.1038e-18 
  8083.9614   3.39124e-18 
  8085.1626   5.47806e-18 
  8086.3638   5.55356e-18 
  8087.5649   4.95524e-18 
  8088.7661   6.91509e-18 
  8089.9673    4.9994e-18 
  8091.1685   2.72736e-18 
  8092.3701   5.74254e-18 
  8093.5713   2.94462e-18 
  8094.7725   5.22264e-18 
  8095.9741   4.70401e-18 
  8097.1753   3.66795e-18 
  8098.3765   4.89624e-18 
  8099.5781    5.3243e-18 
  8100.7793   7.65961e-18 
  8101.9805   5.46518e-18 
  8103.1821   9.31684e-18 
  8104.3833   7.53941e-18 
  8105.5845   6.31612e-18 
  8106.7861   7.27449e-18 
  8107.9873    6.0059e-18 
   8109.189   4.81577e-18 
  8110.3901   5.01984e-18 
  8111.5918   4.41223e-18 
   8112.793   5.06295e-18 
  8113.9946   6.59935e-18 
  8115.1963   3.37316e-18 
  8116.3975   5.77177e-18 
  8117.5991   5.99354e-18 
  8118.8003   5.97655e-18 
   8120.002   5.90099e-18 
  8121.2036   5.22912e-18 
  8122.4048   4.28171e-18 
  8123.6064   3.64231e-18 
  8124.8081   5.64974e-18 
  8126.0093   4.53181e-18 
  8127.2109   3.16729e-18 
  8128.4126    5.1161e-18 
  8129.6143   5.65572e-18 
  8130.8159   5.43447e-18 
  8132.0171   4.41139e-18 
  8133.2188   6.20447e-18 
  8134.4204   6.15668e-18 
  8135.6221   5.67806e-18 
  8136.8237   7.07934e-18 
  8138.0249   6.56349e-18 
  8139.2266   4.62819e-18 
  8140.4282    4.1549e-18 
  8141.6299   4.65442e-18 
  8142.8315   3.05318e-18 
  8144.0332   5.89873e-18 
  8145.2349   4.86439e-18 
  8146.4365    5.2526e-18 
  8147.6382   5.36625e-18 
  8148.8398   6.05307e-18 
  8150.0415   4.53362e-18 
  8151.2432   3.20446e-18 
  8152.4448   5.33871e-18 
  8153.6465   5.96121e-18 
  8154.8486   5.82519e-18 
  8156.0503   5.88605e-18 
   8157.252    4.2216e-18 
  8158.4536   5.56105e-18 
  8159.6553   5.28522e-18 
  8160.8569    3.4201e-18 
  8162.0586   3.62447e-18 
  8163.2607   5.28072e-18 
  8164.4624   3.63657e-18 
  8165.6641   4.97518e-18 
  8166.8657   4.30754e-18 
  8168.0679   3.83269e-18 
  8169.2695    6.8234e-18 
  8170.4712   4.89947e-18 
  8171.6733   6.88104e-18 
   8172.875   4.14922e-18 
  8174.0767   4.94456e-18 
  8175.2788   3.97164e-18 
  8176.4805   3.64155e-18 
  8177.6821   5.55019e-18 
  8178.8843   4.18449e-18 
  8180.0859   5.69406e-18 
  8181.2881   4.59982e-18 
  8182.4897   3.79448e-18 
  8183.6914   5.53563e-18 
  8184.8936   5.35988e-18 
  8186.0952   5.13107e-18 
  8187.2974   5.79979e-18 
  8188.4995   5.61976e-18 
  8189.7012   5.30577e-18 
  8190.9033   4.12389e-18 
  8192.1055   5.55323e-18 
  8193.3066   5.87165e-18 
  8194.5088   3.46212e-18 
  8195.7109   6.01092e-18 
  8196.9131   4.49347e-18 
  8198.1152   5.30385e-18 
  8199.3164   6.68751e-18 
  8200.5186   5.95942e-18 
  8201.7207   5.61055e-18 
  8202.9229    6.1063e-18 
   8204.125   6.30377e-18 
  8205.3271   6.02941e-18 
  8206.5283   4.51396e-18 
  8207.7305   5.08211e-18 
  8208.9326   4.87718e-18 
  8210.1348   4.81418e-18 
  8211.3369   4.79816e-18 
  8212.5391   5.33846e-18 
  8213.7412   3.74776e-18 
  8214.9434   6.28565e-18 
  8216.1455   5.11628e-18 
  8217.3477   7.27699e-18 
  8218.5488   5.30503e-18 
   8219.751     5.734e-18 
  8220.9531   5.93042e-18 
  8222.1553   4.12283e-18 
  8223.3574   4.67995e-18 
  8224.5596   4.18893e-18 
  8225.7617   3.49367e-18 
  8226.9639   4.63661e-18 
   8228.166   2.85377e-18 
  8229.3682   4.24284e-18 
  8230.5703   4.77807e-18 
  8231.7725   4.82058e-18 
  8232.9746   4.94607e-18 
  8234.1768   6.27454e-18 
  8235.3789   5.33612e-18 
  8236.5811   7.57577e-18 
  8237.7832   6.16079e-18 
  8238.9854   4.45769e-18 
  8240.1875     5.531e-18 
  8241.3896    5.9278e-18 
  8242.5918    5.8019e-18 
  8243.7939   4.29486e-18 
  8244.9971   4.47826e-18 
  8246.1992   6.03579e-18 
  8247.4014   3.98297e-18 
  8248.6035   6.00459e-18 
  8249.8057   4.46236e-18 
  8251.0078   4.88332e-18 
    8252.21   5.66766e-18 
  8253.4121    6.3085e-18 
  8254.6143   4.94252e-18 
  8255.8174   5.68901e-18 
  8257.0195   5.52403e-18 
  8258.2217   6.42528e-18 
  8259.4238   4.42759e-18 
   8260.626   4.42671e-18 
  8261.8281   3.38327e-18 
  8263.0303   3.83591e-18 
  8264.2324    6.6348e-18 
  8265.4355   5.04615e-18 
  8266.6377   5.35778e-18 
  8267.8398   3.92043e-18 
   8269.042   5.09571e-18 
  8270.2441   5.22604e-18 
  8271.4473   5.01874e-18 
  8272.6494   4.07231e-18 
  8273.8516   4.62146e-18 
  8275.0537   5.25521e-18 
  8276.2559   5.14937e-18 
   8277.459   3.20775e-18 
  8278.6611   5.30016e-18 
  8279.8633   6.48463e-18 
  8281.0654   1.02405e-18 
  8282.2686   7.15316e-18 
  8283.4707   3.71635e-18 
  8284.6729   5.60466e-18 
   8285.875    2.0052e-18 
  8287.0781   5.63865e-18 
  8288.2803   4.88526e-18 
  8289.4824   5.09721e-18 
  8290.6855   4.60692e-18 
  8291.8877   3.24571e-19 
  8293.0898   6.27404e-18 
   8294.292   6.96637e-18 
  8295.4951   1.92995e-18 
  8296.6973   9.23724e-18 
  8297.8994   7.52964e-18 
  8299.1025   6.05764e-18 
  8300.3047    6.3333e-18 
  8301.5068   5.50492e-18 
    8302.71   3.46283e-18 
  8303.9121   2.63196e-18 
  8305.1143   3.56502e-18 
  8306.3174   7.00844e-18 
  8307.5195   2.83689e-18 
  8308.7217   4.99165e-18 
  8309.9248   7.38709e-18 
   8311.127   6.71734e-18 
  8312.3301   5.05814e-18 
  8313.5322   4.26557e-18 
  8314.7344    4.9468e-18 
  8315.9375   3.75291e-18 
  8317.1396    5.3774e-18 
  8318.3428   6.33252e-18 
  8319.5449   4.76114e-18 
  8320.7471   5.18456e-18 
  8321.9502   4.52362e-18 
  8323.1523   5.01468e-18 
  8324.3555   5.69681e-18 
  8325.5576   5.84457e-18 
  8326.7598   4.94354e-18 
  8327.9629   3.87014e-18 
   8329.165    5.3529e-18 
  8330.3682   7.04782e-18 
  8331.5703   4.69961e-18 
  8332.7734   5.05277e-18 
  8333.9756    5.7467e-18 
  8335.1787   6.50863e-18 
  8336.3809   3.96843e-18 
   8337.584   5.88526e-18 
  8338.7861   7.38348e-18 
  8339.9893   4.13287e-18 
  8341.1914   5.47191e-18 
  8342.3945   8.97276e-18 
  8343.5967   6.53465e-18 
  8344.7988  -1.50736e-18 
   8346.002   1.29035e-17 
  8347.2051   6.05101e-18 
  8348.4072   9.51986e-18 
  8349.6104   5.07209e-18 
  8350.8125    5.3165e-18 
  8352.0156   6.38554e-18 
  8353.2178   1.86775e-18 
  8354.4209   4.61481e-18 
   8355.623   7.74556e-18 
  8356.8262    5.5647e-18 
  8358.0283   4.29026e-18 
  8359.2314   5.04727e-18 
  8360.4336   3.80175e-18 
  8361.6367   2.43236e-18 
  8362.8398   6.73409e-18 
   8364.042   5.28636e-18 
  8365.2451   2.86467e-18 
  8366.4473   6.59157e-18 
  8367.6504   6.48948e-18 
  8368.8525   6.02365e-18 
  8370.0557   5.43655e-18 
  8371.2578   6.27259e-18 
  8372.4609   5.12765e-18 
  8373.6641   5.60248e-18 
  8374.8662   6.67907e-18 
  8376.0693    4.8248e-18 
  8377.2725   5.89969e-18 
  8378.4746   5.12188e-18 
  8379.6777   4.80762e-18 
  8380.8799     3.365e-18 
   8382.083   9.04386e-18 
  8383.2861   5.27225e-18 
  8384.4883   5.95912e-18 
  8385.6914    6.4523e-18 
  8386.8945   5.50775e-18 
  8388.0967   5.41915e-18 
  8389.2998   4.13327e-18 
   8390.502   3.99077e-18 
  8391.7051    5.1013e-18 
  8392.9082   4.44936e-18 
  8394.1104   5.14762e-18 
  8395.3135   5.66379e-18 
  8396.5166    6.8905e-18 
  8397.7188   6.66934e-18 
  8398.9219   3.55766e-18 
   8400.125   5.11978e-18 
  8401.3271   7.26061e-18 
  8402.5303   6.97962e-18 
  8403.7334   4.94973e-18 
  8404.9355   6.09311e-18 
  8406.1387   5.24628e-18 
  8407.3418   6.43138e-18 
  8408.5449   5.91505e-18 
  8409.7471   5.85949e-18 
  8410.9502   6.10986e-18 
  8412.1533   4.49472e-18 
  8413.3555   5.33517e-18 
  8414.5586   5.40767e-18 
  8415.7617   4.77792e-18 
  8416.9639    4.6628e-18 
   8418.167   6.25464e-18 
  8419.3701   5.21598e-18 
  8420.5732   6.22156e-18 
  8421.7754    5.8412e-18 
  8422.9785   5.61768e-18 
  8424.1816   5.62505e-18 
  8425.3848   3.57335e-18 
  8426.5869   7.00523e-18 
    8427.79   2.61065e-18 
  8428.9932   7.11494e-18 
  8430.1953   9.32474e-18 
  8431.3984   1.03263e-17 
  8432.6016   4.50815e-18 
  8433.8047   7.36045e-18 
  8435.0078   3.24195e-18 
    8436.21   6.24559e-18 
  8437.4131   5.38394e-18 
  8438.6162   5.68863e-18 
  8439.8193   3.97516e-18 
  8441.0215   5.52004e-18 
  8442.2246   5.01897e-18 
  8443.4277   7.12762e-18 
  8444.6309   5.79593e-18 
   8445.833   4.27975e-18 
  8447.0361   5.71474e-18 
  8448.2393   4.18785e-18 
  8449.4424   5.42131e-18 
  8450.6455   4.65203e-18 
  8451.8477   5.55326e-18 
  8453.0508   4.23032e-18 
  8454.2539   6.22045e-18 
   8455.457    3.7803e-18 
  8456.6602   4.01834e-18 
  8457.8623   5.73186e-18 
  8459.0654   4.00027e-18 
  8460.2686   5.07734e-18 
  8461.4717   4.57618e-18 
  8462.6748   1.08574e-18 
   8463.877   6.41138e-18 
  8465.0801   8.69746e-18 
  8466.2832   5.44822e-18 
  8467.4863   9.50089e-19 
  8468.6895   8.42728e-18 
  8469.8926   7.70739e-18 
  8471.0947   5.31349e-18 
  8472.2979   5.95698e-18 
   8473.501   6.36519e-18 
  8474.7041    5.4589e-18 
  8475.9072   6.88772e-18 
  8477.1094    4.5788e-18 
  8478.3125   5.65033e-18 
  8479.5156   5.70608e-18 
  8480.7188   5.55664e-18 
  8481.9219    5.6336e-18 
   8483.125   6.23072e-18 
  8484.3271   5.68216e-18 
  8485.5303   4.97875e-18 
  8486.7334   5.72636e-18 
  8487.9365   5.59283e-18 
  8489.1396   6.11596e-18 
  8490.3428   5.51603e-18 
  8491.5459   5.37268e-18 
   8492.748   4.82062e-18 
  8493.9512   6.64752e-18 
  8495.1543   2.58608e-18 
  8496.3574    5.6377e-18 
  8497.5605   4.47708e-18 
  8498.7637   5.21648e-18 
  8499.9668    6.6163e-18 
  8501.1689   6.61122e-18 
  8502.3721   4.79862e-18 
  8503.5752   6.27387e-18 
  8504.7783   7.60809e-18 
  8505.9814   6.46792e-18 
  8507.1846   4.97281e-18 
  8508.3877   7.00079e-18 
  8509.5908   5.52835e-18 
   8510.793    5.9287e-18 
  8511.9961   5.97461e-18 
  8513.1992    6.2925e-18 
  8514.4023    6.2038e-18 
  8515.6055   4.83472e-18 
  8516.8086   3.76369e-18 
  8518.0117   5.78804e-18 
  8519.2148   4.78821e-18 
   8520.417   5.88735e-18 
  8521.6201   6.69171e-18 
  8522.8232   5.68764e-18 
  8524.0264   5.80701e-18 
  8525.2295   4.63927e-18 
  8526.4326   5.49636e-18 
  8527.6357   6.72996e-18 
  8528.8389   5.30695e-18 
   8530.041   4.89517e-18 
  8531.2441   6.01224e-18 
  8532.4473   5.53587e-18 
  8533.6504   5.70306e-18 
  8534.8535   3.90947e-18 
  8536.0566   6.01153e-18 
  8537.2598   5.76451e-18 
  8538.4629   4.38026e-18 
   8539.666   5.58807e-18 
  8540.8691   4.12793e-18 
  8542.0713   5.02235e-18 
  8543.2744   5.11995e-18 
  8544.4775   4.89342e-18 
  8545.6807   5.95602e-18 
  8546.8838   6.98706e-18 
  8548.0869   2.49421e-18 
    8549.29   6.02584e-18 
  8550.4932   4.56303e-18 
  8551.6963   6.15209e-18 
  8552.8994   5.79334e-18 
  8554.1016   4.57602e-18 
  8555.3047    5.6848e-18 
  8556.5078   5.47152e-18 
  8557.7109   5.72672e-18 
  8558.9141   6.77597e-18 
  8560.1172   5.48574e-18 
  8561.3203   5.22986e-18 
  8562.5234   6.49727e-18 
  8563.7266    5.0476e-18 
  8564.9297   5.17088e-18 
  8566.1318   5.67746e-18 
   8567.335   5.67758e-18 
  8568.5381   4.66158e-18 
  8569.7412   5.20096e-18 
  8570.9443    5.8631e-18 
  8572.1475    4.8907e-18 
  8573.3506     5.473e-18 
  8574.5537   5.01679e-18 
  8575.7568   3.38816e-18 
    8576.96    4.5038e-18 
  8578.1631   4.25004e-18 
  8579.3652   6.62018e-18 
  8580.5684   4.35732e-18 
  8581.7715   5.32256e-18 
  8582.9746    5.8046e-18 
  8584.1777   7.06617e-18 
  8585.3809   5.72119e-18 
   8586.584   6.01832e-18 
  8587.7871   5.64763e-18 
  8588.9902   3.27052e-18 
  8590.1934   5.67111e-18 
  8591.3955   6.44281e-18 
  8592.5986   5.57927e-18 
  8593.8018    6.7582e-18 
  8595.0049   5.53518e-18 
   8596.208   6.05149e-18 
  8597.4111   7.77443e-18 
  8598.6143   5.57865e-18 
  8599.8174   5.02422e-18 
  8601.0205   5.40439e-18 
  8602.2236   4.88778e-18 
  8603.4258   5.14776e-18 
  8604.6289   4.73752e-18 
   8605.832   5.63282e-18 
  8607.0352   5.64905e-18 
  8608.2383   6.36015e-18 
  8609.4414   5.41207e-18 
  8610.6445    6.8403e-18 
  8611.8477   4.32389e-18 
  8613.0508   5.65698e-18 
  8614.2529   5.89228e-18 
  8615.4561   5.09825e-18 
  8616.6592   7.08251e-18 
  8617.8623   7.17265e-18 
  8619.0654   6.33615e-18 
  8620.2686   6.08083e-18 
  8621.4717   4.96595e-18 
  8622.6748   4.61795e-18 
  8623.8779    7.2034e-18 
  8625.0801   2.00638e-18 
  8626.2832   4.50299e-18 
  8627.4863   4.57576e-18 
  8628.6895   4.03562e-18 
  8629.8926   3.07927e-18 
  8631.0957   4.78824e-18 
  8632.2988   4.02623e-18 
   8633.502   2.84834e-18 
  8634.7041   4.90116e-18 
  8635.9072   7.05216e-18 
  8637.1104   6.65815e-18 
  8638.3135   5.26617e-18 
  8639.5166   5.13523e-18 
  8640.7197   6.11372e-18 
  8641.9229   3.73719e-18 
   8643.126   5.35441e-18 
  8644.3281   4.75611e-18 
  8645.5312   5.54232e-18 
  8646.7344   5.26259e-18 
  8647.9375     6.818e-18 
  8649.1406    7.4282e-18 
  8650.3438   3.61442e-18 
  8651.5469   6.88748e-18 
   8652.749   6.24096e-18 
  8653.9521   3.84757e-18 
  8655.1553   3.69817e-18 
  8656.3584   4.85137e-18 
  8657.5615   1.35367e-18 
  8658.7646   3.56751e-18 
  8659.9678   1.86998e-18 
  8661.1699   5.91979e-18 
   8662.373   6.63038e-18 
  8663.5762   6.72748e-18 
  8664.7793    4.5412e-18 
  8665.9824   5.93697e-18 
  8667.1855    7.4392e-18 
  8668.3877   3.81998e-18 
  8669.5908   4.49076e-18 
  8670.7939   5.51016e-18 
  8671.9971   5.38871e-18 
  8673.2002   7.70296e-18 
  8674.4023   7.89589e-18 
  8675.6055   4.55753e-18 
  8676.8086   3.75925e-18 
  8678.0117   4.17694e-18 
  8679.2148   5.20007e-18 
   8680.418   4.26695e-18 
  8681.6201   3.86113e-18 
  8682.8232   5.33426e-18 
  8684.0264   4.56484e-18 
  8685.2295   5.43712e-18 
  8686.4326   5.02551e-18 
  8687.6348   5.96273e-18 
  8688.8379   5.24195e-18 
   8690.041   4.42993e-18 
  8691.2441   6.12952e-18 
  8692.4473   5.06259e-18 
  8693.6494   5.34968e-18 
  8694.8525   4.74802e-18 
  8696.0557   5.36931e-18 
  8697.2588   3.88173e-18 
  8698.4609   6.19389e-18 
  8699.6641   5.93021e-18 
  8700.8672   5.45706e-18 
  8702.0703   5.16274e-18 
  8703.2734   6.97574e-18 
  8704.4756   5.85089e-18 
  8705.6787   5.05143e-18 
  8706.8818   6.11861e-18 
   8708.085   5.14911e-18 
  8709.2871   5.70364e-18 
  8710.4902   7.03123e-18 
  8711.6934   6.97593e-18 
  8712.8965   5.01859e-18 
  8714.0986   5.29976e-18 
  8715.3018   5.53447e-18 
  8716.5049   4.23435e-18 
   8717.708   4.65663e-18 
  8718.9102   5.40792e-18 
  8720.1133   5.71437e-18 
  8721.3164   6.60349e-18 
  8722.5195   4.88813e-18 
  8723.7217    3.5931e-18 
  8724.9248   3.10272e-18 
  8726.1279   5.94327e-18 
  8727.3301   5.33313e-18 
  8728.5332   4.81927e-18 
  8729.7363   6.10263e-18 
  8730.9395    3.9663e-18 
  8732.1416   4.87008e-18 
  8733.3447   3.91469e-18 
  8734.5479    5.7944e-18 
    8735.75   5.46252e-18 
  8736.9531   5.54812e-18 
  8738.1562   3.20368e-18 
  8739.3584   5.79497e-18 
  8740.5615   5.35639e-18 
  8741.7646    6.2031e-18 
  8742.9668   4.89199e-18 
  8744.1699   6.07699e-18 
   8745.373   4.76295e-18 
  8746.5752   4.97219e-18 
  8747.7783   5.43693e-18 
  8748.9814   6.79539e-18 
  8750.1836   6.80819e-18 
  8751.3867   5.65129e-18 
  8752.5898   3.98103e-18 
   8753.792   3.56431e-18 
  8754.9951   4.63183e-18 
  8756.1982   3.66347e-18 
  8757.4004   7.90242e-18 
  8758.6035   6.71108e-18 
  8759.8066   5.66753e-18 
  8761.0088   5.79486e-18 
  8762.2119   5.61279e-18 
  8763.4141   4.74667e-18 
  8764.6172   4.48723e-18 
  8765.8203   1.49582e-18 
  8767.0225   5.70116e-18 
  8768.2256   6.68528e-18 
  8769.4277   4.19398e-18 
  8770.6309   3.26266e-18 
   8771.834   6.18888e-18 
  8773.0361   2.80203e-18 
  8774.2393   3.53473e-18 
  8775.4414   5.23168e-18 
  8776.6445   4.95545e-18 
  8777.8477     4.203e-18 
  8779.0498   7.49373e-18 
  8780.2529   5.07294e-18 
  8781.4551   6.05648e-18 
  8782.6582   6.72434e-18 
  8783.8604   3.77106e-18 
  8785.0635   6.51942e-18 
  8786.2656   4.78066e-18 
  8787.4688   4.22131e-18 
  8788.6719    3.8321e-18 
   8789.874   5.15084e-18 
  8791.0771   3.31824e-18 
  8792.2793   3.07689e-18 
  8793.4824   9.04247e-18 
  8794.6846   4.93968e-18 
  8795.8877   5.32765e-18 
  8797.0898   3.26134e-18 
   8798.293   4.90388e-18 
  8799.4951   4.81267e-18 
  8800.6982   3.70653e-18 
  8801.9004   4.36159e-18 
  8803.1035   4.05631e-18 
  8804.3057   5.35999e-18 
  8805.5088   3.27027e-18 
  8806.7109   5.09771e-18 
  8807.9141   4.38093e-18 
  8809.1162   6.31579e-18 
  8810.3184   5.34427e-18 
  8811.5215   5.51822e-18 
  8812.7236   5.01902e-18 
  8813.9268   6.40409e-18 
  8815.1289   5.30974e-18 
   8816.332   4.75263e-18 
  8817.5342   5.33589e-18 
  8818.7363   5.39677e-18 
  8819.9395    3.9932e-18 
  8821.1416   4.33183e-18 
  8822.3447   5.30224e-18 
  8823.5469   3.59577e-18 
    8824.75   9.98388e-18 
  8825.9521   5.26048e-18 
  8827.1543   5.95944e-18 
  8828.3574   9.94111e-18 
  8829.5596   2.69921e-18 
  8830.7617   8.21617e-18 
  8831.9648   3.94515e-18 
   8833.167   5.42465e-18 
  8834.3701   4.20283e-18 
  8835.5723   3.80683e-18 
  8836.7744   3.98948e-18 
  8837.9775   3.56229e-18 
  8839.1797    1.8148e-18 
  8840.3818   6.05133e-18 
   8841.585   2.93934e-18 
  8842.7871   3.28735e-18 
  8843.9893   5.36463e-18 
  8845.1924   3.09257e-18 
  8846.3945   5.10776e-18 
  8847.5967   5.66012e-18 
  8848.7998   5.85288e-18 
   8850.002   6.92365e-18 
  8851.2041   5.37361e-18 
  8852.4072   4.65103e-18 
  8853.6094   6.76324e-18 
  8854.8115   3.37851e-18 
  8856.0137   5.79283e-18 
  8857.2168   6.13066e-18 
  8858.4189   3.38338e-18 
  8859.6211   5.95313e-18 
  8860.8232   5.82453e-18 
  8862.0264   3.54011e-18 
  8863.2285   5.83753e-18 
  8864.4307   4.10207e-18 
  8865.6328   3.44284e-18 
  8866.8359   2.02206e-18 
  8868.0381   5.40245e-18 
  8869.2402  -1.90847e-18 
  8870.4424   2.10334e-18 
  8871.6445   5.09474e-18 
  8872.8477   3.23523e-18 
  8874.0498   5.07904e-18 
   8875.252   4.58333e-18 
  8876.4541   3.54751e-18 
  8877.6562   3.52579e-18 
  8878.8594    5.3507e-18 
  8880.0615   4.82079e-18 
  8881.2637   5.04898e-18 
  8882.4658   3.58093e-18 
   8883.668   8.26445e-18 
  8884.8701   7.49048e-18 
  8886.0723    4.4663e-18 
  8887.2744   5.13993e-18 
  8888.4775   1.57251e-18 
  8889.6797   8.28289e-18 
  8890.8818   2.45185e-18 
   8892.084   3.71153e-18 
  8893.2861   5.12264e-18 
  8894.4883   7.07105e-18 
  8895.6904   3.40554e-18 
  8896.8926   6.11205e-18 
  8898.0947      2.93e-18 
  8899.2969    3.0963e-18 
   8900.499    4.5318e-18 
  8901.7021   2.38049e-18 
  8902.9043   9.86007e-18 
  8904.1064   4.90425e-18 
  8905.3086    5.8789e-18 
  8906.5107   4.54388e-18 
  8907.7129   3.47519e-18 
   8908.915   5.20859e-18 
  8910.1172   6.29896e-18 
  8911.3193    4.8801e-18 
  8912.5215   5.04435e-18 
  8913.7236   3.74685e-18 
  8914.9258   3.53697e-18 
  8916.1279    7.9789e-20 
  8917.3301   2.79648e-18 
  8918.5322   4.37369e-18 
  8919.7344   4.50964e-18 
  8920.9365    5.3562e-19 
  8922.1387    5.2736e-18 
  8923.3398   6.75761e-18 
   8924.542    2.1606e-18 
  8925.7441   4.69286e-18 
  8926.9463   6.99566e-18 
  8928.1484    4.2962e-18 
  8929.3506   4.23806e-18 
  8930.5527   6.45934e-18 
  8931.7549   5.17092e-18 
   8932.957   3.52801e-18 
  8934.1592   4.56129e-18 
  8935.3604   5.18437e-18 
  8936.5625   4.85556e-18 
  8937.7646   2.49224e-18 
  8938.9668   1.82484e-18 
  8940.1689   6.54949e-18 
  8941.3711   2.98151e-18 
  8942.5732   4.80076e-18 
  8943.7744   4.36963e-18 
  8944.9766   4.96521e-18 
  8946.1787   5.04892e-18 
  8947.3809   4.04606e-18 
   8948.583   3.89442e-18 
  8949.7842   3.05654e-18 
  8950.9863   4.62134e-18 
  8952.1885   5.13505e-18 
  8953.3906   6.82408e-18 
  8954.5928   2.79755e-18 
  8955.7939   7.24252e-18 
  8956.9961   4.76056e-18 
  8958.1982   1.46605e-18 
  8959.3994    1.1926e-17 
  8960.6016   1.80979e-18 
  8961.8037   1.66668e-18 
  8963.0059   5.98773e-18 
   8964.207    5.3075e-18 
  8965.4092   4.52965e-18 
  8966.6113   4.84806e-18 
  8967.8125   5.15831e-18 
  8969.0146   4.47997e-18 
  8970.2168   3.11943e-18 
   8971.418   5.78531e-18 
  8972.6201   4.52224e-18 
  8973.8223   5.21358e-18 
  8975.0234   4.90303e-18 
  8976.2256   5.69517e-18 
  8977.4277   3.61622e-18 
  8978.6289   5.23571e-18 
  8979.8311   3.93195e-18 
  8981.0322   4.26145e-18 
  8982.2344   4.58849e-18 
  8983.4355   3.97921e-18 
  8984.6377   4.77523e-18 
  8985.8398   8.23312e-18 
   8987.041   4.99625e-18 
  8988.2432   7.76985e-18 
  8989.4443   6.01041e-18 
  8990.6465   9.56244e-18 
  8991.8477    3.5732e-18 
  8993.0498   2.39463e-18 
   8994.251   5.08649e-18 
  8995.4531   4.15919e-18 
  8996.6543   6.15673e-18 
  8997.8564   4.24971e-18 
  8999.0576   4.94304e-18 
  9000.2598   4.01405e-18 
  9001.4609    4.9682e-18 
  9002.6631   6.85838e-18 
  9003.8643   2.63026e-18 
  9005.0664   6.09106e-18 
  9006.2676   4.34426e-18 
  9007.4688   5.04917e-18 
  9008.6709   4.55504e-18 
  9009.8721   6.16243e-18 
  9011.0742    5.3679e-18 
  9012.2754   4.31672e-18 
  9013.4766    3.6427e-18 
  9014.6787   3.60873e-18 
  9015.8799   4.88056e-18 
   9017.082   5.59767e-18 
  9018.2832   4.31294e-18 
  9019.4844   5.11603e-18 
  9020.6865   4.31429e-18 
  9021.8877     6.345e-18 
  9023.0889   2.73828e-18 
   9024.291   4.67589e-18 
  9025.4922   4.98062e-18 
  9026.6934   6.28003e-18 
  9027.8945   4.26341e-18 
  9029.0967   4.01654e-18 
  9030.2979   4.80683e-18 
   9031.499   3.77012e-18 
  9032.7002   3.74192e-18 
  9033.9023   4.82985e-18 
  9035.1035    2.9942e-18 
  9036.3047   4.10851e-18 
  9037.5059    7.3253e-18 
   9038.708   2.81841e-18 
  9039.9092   3.16027e-18 
  9041.1104   4.60332e-18 
  9042.3115   3.01253e-18 
  9043.5127   4.72525e-18 
  9044.7139   3.31521e-18 
   9045.916   3.23941e-18 
  9047.1172   3.20199e-18 
  9048.3184   6.45808e-18 
  9049.5195   4.49659e-18 
  9050.7207   2.79284e-18 
  9051.9219   4.88149e-18 
   9053.123   2.28323e-18 
  9054.3242   4.58444e-18 
  9055.5264   4.38449e-18 
  9056.7275   4.45116e-18 
  9057.9287   3.88834e-18 
  9059.1299   3.07087e-18 
  9060.3311   3.24129e-18 
  9061.5322   3.10205e-18 
  9062.7334   5.26134e-18 
  9063.9346   3.06871e-18 
  9065.1357    3.5811e-18 
  9066.3369   2.61421e-18 
  9067.5381   3.02268e-18 
  9068.7393   3.83379e-18 
  9069.9404   3.53869e-18 
  9071.1416   6.44175e-18 
  9072.3428   4.48765e-18 
  9073.5439   4.65947e-18 
  9074.7451   4.97684e-18 
  9075.9453   4.42025e-18 
  9077.1465   4.73408e-18 
  9078.3477   4.70871e-18 
  9079.5488   5.21764e-18 
    9080.75   3.23216e-18 
  9081.9512   3.82358e-18 
  9083.1523   2.77369e-18 
  9084.3535   5.03289e-18 
  9085.5547    3.2428e-18 
  9086.7549   4.48004e-18 
  9087.9561   3.31708e-18 
  9089.1572   2.97585e-18 
  9090.3584   4.06535e-18 
  9091.5596   4.65371e-18 
  9092.7598   3.48395e-18 
  9093.9609    5.8672e-18 
  9095.1621   3.97275e-18 
  9096.3633   3.08429e-18 
  9097.5645   5.04065e-18 
  9098.7646   4.46572e-18 
  9099.9658   3.91514e-18 
   9101.167   2.82265e-18 
  9102.3672   4.62521e-18 
  9103.5684   5.75266e-18 
  9104.7695    3.7492e-18 
  9105.9697   4.51547e-18 
  9107.1709   2.52784e-18 
  9108.3721    4.2401e-18 
  9109.5732   3.61398e-18 
  9110.7734    2.9719e-18 
  9111.9746   3.31957e-18 
  9113.1748   4.77368e-18 
   9114.376   3.92703e-18 
  9115.5771   4.62714e-18 
  9116.7773   4.47096e-18 
  9117.9785   2.82701e-18 
  9119.1787   3.16581e-18 
  9120.3799   3.17207e-18 
  9121.5811   3.51472e-18 
  9122.7812   4.31421e-18 
  9123.9824   3.79724e-18 
  9125.1826   3.68675e-18 
  9126.3838   3.95599e-18 
   9127.584   4.04496e-18 
  9128.7852   5.20614e-18 
  9129.9854   4.14569e-18 
  9131.1865   3.70124e-18 
  9132.3867   4.35204e-18 
  9133.5869   4.75408e-18 
  9134.7881   3.96875e-18 
  9135.9883   3.17048e-18 
  9137.1895    4.5769e-18 
  9138.3896    4.0755e-18 
  9139.5908    2.0465e-18 
   9140.791   3.09435e-18 
  9141.9912   3.89084e-18 
  9143.1924   4.10964e-18 
  9144.3926    2.8284e-18 
  9145.5928   2.41106e-18 
  9146.7939   4.23457e-18 
  9147.9941   3.92265e-18 
  9149.1943   4.51215e-18 
  9150.3955   4.58222e-18 
  9151.5957   5.05246e-18 
  9152.7959   5.17597e-18 
  9153.9971   4.45107e-18 
  9155.1973   3.47624e-18 
  9156.3975   4.02928e-18 
  9157.5977   4.16135e-18 
  9158.7988    3.0807e-18 
   9159.999   4.00927e-18 
  9161.1992   2.38097e-18 
  9162.3994   4.40634e-18 
  9163.5996   4.11066e-18 
  9164.8008   4.47459e-18 
   9166.001   4.55393e-18 
  9167.2012   2.59276e-18 
  9168.4014    3.1172e-18 
  9169.6016   3.70063e-18 
  9170.8018   2.78785e-18 
   9172.002   3.95879e-18 
  9173.2021   3.79626e-18 
  9174.4033   5.15888e-18 
  9175.6035   3.85281e-18 
  9176.8037   4.49867e-18 
  9178.0039   3.96846e-18 
  9179.2041   4.39178e-18 
  9180.4043   3.68599e-18 
  9181.6045   2.49669e-18 
  9182.8047   3.58204e-18 
  9184.0049   3.94261e-18 
  9185.2051   2.76889e-18 
  9186.4053   3.09591e-18 
  9187.6055   3.53944e-18 
  9188.8057   4.46526e-18 
  9190.0059   4.07912e-18 
  9191.2061   3.77699e-18 
  9192.4062   3.95426e-18 
  9193.6055   4.22172e-18 
  9194.8057   3.53808e-18 
  9196.0059   3.22107e-18 
  9197.2061   5.52544e-18 
  9198.4062    3.8431e-18 
  9199.6064   3.94637e-18 
  9200.8066   3.96684e-18 
  9202.0059   4.90902e-18 
  9203.2061   4.56149e-18 
  9204.4062   3.41099e-18 
  9205.6064   5.45222e-18 
  9206.8066    4.1576e-18 
  9208.0059   5.04668e-18 
  9209.2061   3.30824e-18 
  9210.4062   4.64533e-18 
  9211.6064   2.83756e-18 
  9212.8057   3.81161e-18 
  9214.0059   2.19138e-18 
  9215.2061   2.40787e-18 
  9216.4053   4.20478e-18 
  9217.6055   2.94928e-18 
  9218.8057   3.37041e-18 
  9220.0049   4.45773e-18 
  9221.2051   2.76524e-18 
  9222.4053   4.52382e-18 
  9223.6045   4.34251e-18 
  9224.8047   3.68132e-18 
  9226.0049   3.09115e-18 
  9227.2041   4.72984e-18 
  9228.4043   4.56673e-18 
  9229.6035   3.30867e-18 
  9230.8037   4.38887e-18 
  9232.0029   3.40724e-18 
  9233.2031   3.23076e-18 
  9234.4023    3.2207e-18 
  9235.6025   3.47643e-18 
  9236.8018   4.72534e-18 
   9238.002   3.40092e-18 
  9239.2012   4.24292e-18 
  9240.4014   2.78146e-18 
  9241.6006   2.50034e-18 
  9242.8008   3.21814e-18 
     9244.0   3.40803e-18 
  9245.1992   2.71435e-18 
  9246.3994   2.66334e-18 
  9247.5986   2.86032e-18 
  9248.7988   4.09461e-18 
   9249.998   4.28353e-18 
  9251.1973   3.15556e-18 
  9252.3975   2.42645e-18 
  9253.5967   4.31425e-18 
  9254.7959    3.9634e-18 
  9255.9951   2.71575e-18 
  9257.1953   2.50624e-18 
  9258.3945   2.84484e-18 
  9259.5938   4.50492e-18 
  9260.7939   3.36979e-18 
  9261.9932   3.57896e-18 
  9263.1924   3.66909e-18 
  9264.3916   4.28081e-18 
  9265.5908   3.27676e-18 
   9266.791   2.58975e-18 
  9267.9902   3.47511e-18 
  9269.1895   3.50195e-18 
  9270.3887   3.25833e-18 
  9271.5879    4.4017e-18 
  9272.7871   4.58414e-18 
  9273.9863   3.50502e-18 
  9275.1855   3.91678e-18 
  9276.3857   3.37212e-18 
   9277.585   2.84788e-18 
  9278.7842   2.86165e-18 
  9279.9834   4.07668e-18 
  9281.1826    3.9743e-18 
  9282.3818   2.92692e-18 
  9283.5811   1.88387e-18 
  9284.7803   4.53291e-18 
  9285.9795   3.36716e-18 
  9287.1787   4.51397e-18 
  9288.3779    4.1212e-18 
  9289.5771   3.36917e-18 
  9290.7754   3.82236e-18 
  9291.9746   1.85905e-18 
  9293.1738   4.98828e-18 
   9294.373   2.44785e-18 
  9295.5723   3.58185e-18 
  9296.7715   3.98895e-18 
  9297.9707   3.44918e-18 
  9299.1699   4.59919e-18 
  9300.3682   4.13538e-18 
  9301.5674   3.85217e-18 
  9302.7666   3.35633e-18 
  9303.9658   5.28739e-18 
   9305.165   2.87607e-18 
  9306.3633   1.30437e-18 
  9307.5625    7.6229e-18 
  9308.7617   1.03093e-18 
    9309.96   6.11849e-18 
  9311.1592  -5.78825e-19 
  9312.3584   6.32143e-18 
  9313.5566   6.19481e-18 
  9314.7559   7.63579e-18 
  9315.9551   6.01845e-18 
  9317.1533  -2.06978e-18 
  9318.3525    3.2207e-18 
  9319.5518   1.46517e-18 
    9320.75    1.5904e-18 
  9321.9492   1.51445e-18 
  9323.1475   9.01066e-18 
  9324.3467  -9.23492e-19 
  9325.5449   3.34828e-19 
  9326.7441   3.81082e-18 
  9327.9434   3.57345e-18 
  9329.1416   3.23017e-18 
  9330.3408   3.86124e-18 
  9331.5391   1.66013e-18 
  9332.7383   4.16908e-18 
  9333.9365   2.51469e-18 
  9335.1348   4.62301e-18 
   9336.334    4.5542e-18 
  9337.5322   4.60662e-18 
  9338.7314   4.30582e-18 
  9339.9297  -9.06135e-19 
  9341.1279    3.8751e-19 
  9342.3271   4.51325e-18 
  9343.5254     2.573e-18 
  9344.7236   3.45971e-18 
  9345.9229   3.24424e-18 
  9347.1211   3.40027e-18 
  9348.3193   1.78206e-18 
  9349.5186   2.67883e-18 
  9350.7168   5.18137e-18 
   9351.915   4.20357e-18 
  9353.1133   3.06181e-18 
  9354.3115   3.36763e-18 
  9355.5107   3.20456e-18 
   9356.709   4.99142e-18 
  9357.9072   4.56229e-18 
  9359.1055    6.3529e-18 
  9360.3037   3.29152e-18 
   9361.502   2.06319e-18 
  9362.7012   7.66579e-19 
  9363.8994   3.59954e-18 
  9365.0977   4.49224e-18 
  9366.2959   1.67609e-18 
  9367.4941   3.13061e-18 
  9368.6924   1.85652e-18 
  9369.8906   1.36616e-18 
  9371.0889   5.30268e-18 
  9372.2871  -4.29633e-18 
  9373.4854   1.35867e-17 
  9374.6836   7.67659e-19 
  9375.8818    1.1479e-19 
  9377.0801  -5.24623e-18 
  9378.2783   7.08837e-20 
  9379.4766  -1.30203e-18 
  9380.6748  -3.37617e-18 
  9381.8721  -2.39357e-20 
  9383.0703   1.47517e-18 
  9384.2686   7.88675e-18 
  9385.4668   6.95398e-18 
   9386.665   4.50365e-19 
  9387.8633   3.97307e-18 
  9389.0605   1.21808e-18 
  9390.2588   4.96239e-18 
   9391.457   3.96824e-18 
  9392.6553    3.1549e-18 
  9393.8535   5.08039e-18 
  9395.0508   2.47808e-18 
   9396.249   2.28406e-18 
  9397.4473   1.18026e-18 
  9398.6445   4.00124e-18 
  9399.8428   3.85012e-18 
   9401.041   8.51191e-18 
  9402.2383   5.15512e-18 
  9403.4365   3.60664e-18 
  9404.6348   5.53018e-18 
   9405.832    1.5144e-18 
  9407.0303   3.22344e-18 
  9408.2275   2.58219e-18 
  9409.4258   1.24055e-18 
   9410.623    2.2574e-18 
  9411.8213   3.83635e-18 
  9413.0195   1.04691e-18 
  9414.2168   2.31003e-18 
   9415.415   2.85137e-18 
  9416.6123   2.58052e-18 
  9417.8096   8.16068e-18 
  9419.0078   2.71415e-18 
  9420.2051  -2.19385e-18 
  9421.4033   1.86398e-18 
  9422.6006   4.47963e-18 
  9423.7979   4.18291e-18 
  9424.9961   2.91978e-18 
  9426.1934   3.48293e-18 
  9427.3906   3.46653e-18 
  9428.5889    4.5848e-18 
  9429.7861   3.65693e-18 
  9430.9834   2.25572e-18 
  9432.1816   4.83854e-18 
  9433.3789   2.80952e-18 
  9434.5762   2.65358e-18 
  9435.7734   1.50081e-18 
  9436.9717   1.41503e-17 
  9438.1689   1.17102e-17 
  9439.3662   6.02815e-18 
  9440.5635  -3.66735e-18 
  9441.7607   1.17245e-17 
   9442.959  -6.56677e-18 
  9444.1562  -7.80088e-18 
  9445.3535   2.44632e-18 
  9446.5508   3.93653e-18 
   9447.748   4.36027e-18 
  9448.9453   1.44339e-18 
  9450.1426   4.29603e-18 
  9451.3398   3.15234e-18 
  9452.5371   2.25593e-19 
  9453.7344   3.99257e-18 
  9454.9316   6.29602e-18 
  9456.1289   5.47862e-18 
  9457.3262   3.11197e-18 
  9458.5234   2.71451e-18 
  9459.7207   1.09315e-17 
   9460.918  -8.07459e-19 
  9462.1152   2.21483e-18 
  9463.3125   2.09214e-18 
  9464.5098    3.5584e-18 
  9465.7061   4.77094e-18 
  9466.9033   2.79555e-18 
  9468.1006   4.48967e-18 
  9469.2979   1.61723e-18 
  9470.4951   3.53065e-18 
  9471.6914   3.51203e-18 
  9472.8887   1.49552e-18 
  9474.0859   9.55301e-18 
  9475.2832   3.12774e-18 
  9476.4795   1.20569e-18 
  9477.6768   1.50428e-18 
   9478.874     3.598e-18 
  9480.0703   1.01475e-17 
  9481.2676  -1.96022e-18 
  9482.4648   1.05424e-18 
  9483.6611   1.09521e-18 
  9484.8584   5.46232e-18 
  9486.0547   1.55151e-18 
   9487.252   2.13703e-18 
  9488.4492   4.11367e-18 
  9489.6455   3.57792e-18 
  9490.8428   2.65752e-18 
  9492.0391   3.35712e-18 
  9493.2363   5.86057e-18 
  9494.4326   6.15701e-18 
  9495.6299   2.76344e-18 
  9496.8262   1.88173e-18 
  9498.0225   2.96654e-18 
  9499.2197   6.45381e-18 
   9500.416   5.53941e-18 
  9501.6133   2.31335e-19 
  9502.8096   8.73174e-18 
  9504.0059  -5.14676e-19 
  9505.2031   4.27413e-18 
  9506.3994   3.72348e-19 
  9507.5957   1.36183e-18 
   9508.793   3.69189e-18 
  9509.9893   2.82528e-18 
  9511.1855   2.35312e-18 
  9512.3818   2.36387e-18 
  9513.5791   4.36385e-18 
  9514.7754    4.1318e-18 
  9515.9717   2.39269e-18 
   9517.168  -6.51102e-19 
  9518.3643   4.08503e-18 
  9519.5615   1.77632e-18 
  9520.7578   3.13156e-18 
  9521.9541   6.95048e-18 
  9523.1504  -2.44649e-18 
  9524.3467   1.41107e-18 
   9525.543   2.47322e-18 
  9526.7393   4.16431e-18 
  9527.9355   3.44737e-18 
  9529.1318    2.0569e-18 
  9530.3281   3.10862e-18 
  9531.5244   4.68614e-18 
  9532.7207   3.14763e-18 
   9533.917   6.33554e-18 
  9535.1133   4.12878e-18 
  9536.3096   3.44383e-18 
  9537.5059    5.2183e-18 
  9538.7021   3.33464e-18 
  9539.8984   4.31513e-18 
  9541.0938     3.382e-18 
    9542.29   4.37091e-18 
  9543.4863     2.774e-18 
  9544.6826   2.62923e-18 
  9545.8789   3.62238e-18 
  9547.0742   3.53404e-18 
  9548.2705   2.33117e-18 
  9549.4668   4.43118e-18 
  9550.6631   3.91839e-18 
  9551.8584   3.15653e-18 
  9553.0547   4.16793e-18 
   9554.251   7.05143e-18 
  9555.4463   9.18388e-19 
  9556.6426   1.11951e-18 
  9557.8389   1.28763e-18 
  9559.0342   3.49661e-18 
  9560.2305   5.56148e-18 
  9561.4268   2.96001e-18 
  9562.6221   2.84704e-18 
  9563.8184     4.756e-18 
  9565.0137   5.44163e-18 
    9566.21   3.93842e-18 
  9567.4053    8.5706e-18 
  9568.6016   1.56961e-18 
  9569.7969   4.51125e-18 
  9570.9932   1.36489e-18 
  9572.1885   2.86628e-18 
  9573.3838   3.86398e-18 
  9574.5801   4.36556e-18 
  9575.7754   2.59818e-18 
  9576.9717   3.32479e-18 
   9578.167   3.98578e-18 
  9579.3623   2.98795e-18 
  9580.5586   3.41373e-18 
  9581.7539   1.28058e-18 
  9582.9492   3.24608e-18 
  9584.1445   3.59563e-18 
  9585.3408   3.51804e-18 
  9586.5361   3.85147e-18 
  9587.7314   2.70233e-18 
  9588.9268   2.23188e-18 
   9590.123   4.52048e-18 
  9591.3184   2.93494e-18 
  9592.5137    3.3838e-18 
   9593.709   3.23893e-18 
  9594.9043   3.14064e-18 
  9596.0996   3.40143e-18 
  9597.2949    3.9254e-18 
  9598.4902   2.94516e-18 
  9599.6855    3.6187e-18 
  9600.8809   3.37972e-18 
  9602.0762   1.93087e-18 
  9603.2715   3.34733e-18 
  9604.4668   2.27137e-18 
  9605.6621   5.59413e-18 
  9606.8574   6.98236e-19 
  9608.0527    1.4727e-18 
   9609.248   3.07866e-18 
  9610.4434   2.23398e-18 
  9611.6387   2.77663e-18 
   9612.834   2.75139e-18 
  9614.0293   3.57699e-18 
  9615.2236   3.09477e-18 
  9616.4189   4.19456e-18 
  9617.6143   3.63159e-18 
  9618.8096    6.4088e-18 
  9620.0049   9.72193e-19 
  9621.1992   3.11884e-18 
  9622.3945   1.75395e-18 
  9623.5898   3.17132e-18 
  9624.7852   1.67653e-18 
  9625.9795   3.47142e-18 
  9627.1748   2.79163e-18 
  9628.3691    4.5374e-18 
  9629.5645   3.45257e-18 
  9630.7598     8.994e-19 
  9631.9541    3.6131e-18 
  9633.1494   3.46859e-18 
  9634.3438   3.06107e-18 
  9635.5391   1.90135e-18 
  9636.7344   1.72336e-18 
  9637.9287   4.45069e-18 
   9639.123   1.65405e-18 
  9640.3184   2.39307e-18 
  9641.5127   2.62958e-18 
   9642.708   3.23037e-18 
  9643.9023   2.68912e-18 
  9645.0977   3.38835e-18 
   9646.292   2.82371e-18 
  9647.4863   3.82098e-18 
  9648.6816   2.55986e-18 
   9649.876   3.95844e-18 
  9651.0703   2.84452e-18 
  9652.2656    3.3089e-18 
    9653.46   4.81609e-18 
  9654.6543   3.82717e-18 
  9655.8496   4.12322e-18 
  9657.0439   3.63169e-18 
  9658.2383   4.78616e-18 
  9659.4326   4.67544e-18 
   9660.627   5.46462e-18 
  9661.8223   1.18127e-18 
  9663.0166   4.23992e-18 
  9664.2109   3.68612e-18 
  9665.4053   3.28535e-18 
  9666.5996   5.96636e-18 
  9667.7939    5.5892e-18 
  9668.9883    2.1475e-18 
  9670.1826   3.09008e-18 
   9671.377   4.02218e-18 
  9672.5713   2.17422e-18 
  9673.7656     3.232e-18 
    9674.96   1.82265e-18 
  9676.1543   5.19545e-18 
  9677.3486   3.81865e-18 
   9678.543   3.87618e-18 
  9679.7373   2.46362e-18 
  9680.9316   5.21786e-18 
   9682.126   2.84613e-18 
  9683.3203     7.733e-19 
  9684.5137   4.11053e-18 
   9685.708   3.18153e-18 
  9686.9023   2.24126e-18 
  9688.0967   3.21086e-18 
   9689.291   6.22124e-18 
  9690.4844   3.68552e-18 
  9691.6787   2.84398e-18 
   9692.873    4.8765e-18 
  9694.0664   3.40069e-18 
  9695.2607   3.14996e-19 
  9696.4551    4.2855e-18 
  9697.6484   6.08148e-18 
  9698.8428   2.72243e-18 
  9700.0371   6.70474e-18 
  9701.2305   5.28958e-18 
  9702.4248   3.52508e-18 
  9703.6182   4.53788e-18 
  9704.8125  -1.03292e-19 
  9706.0059   4.05207e-18 
  9707.2002   2.64169e-18 
  9708.3936   3.93615e-18 
  9709.5879   1.11842e-19 
  9710.7812   9.50099e-19 
  9711.9756   2.60137e-18 
  9713.1689   3.62415e-18 
  9714.3633   5.30984e-18 
  9715.5566  -8.36168e-19 
    9716.75    9.3412e-18 
  9717.9443   7.88542e-18 
  9719.1377   4.56981e-18 
  9720.3311   2.87329e-18 
  9721.5254    3.3167e-18 
  9722.7188   5.17298e-18 
  9723.9121  -3.65134e-19 
  9725.1055   3.99324e-18 
  9726.2998   3.77153e-18 
  9727.4932   6.59333e-18 
  9728.6865    5.3739e-18 
  9729.8799   2.39745e-18 
  9731.0732   3.41705e-18 
  9732.2676   2.58033e-18 
  9733.4609   1.76779e-18 
  9734.6543   3.20551e-18 
  9735.8477   4.98232e-18 
   9737.041   2.71894e-19 
  9738.2344   1.91352e-19 
  9739.4277    2.8418e-18 
  9740.6211   5.37674e-18 
  9741.8145   1.27897e-18 
  9743.0078   2.87451e-18 
  9744.2012   3.83239e-18 
  9745.3945   3.38272e-18 
  9746.5879    8.1582e-18 
  9747.7812   4.60489e-18 
  9748.9736   3.58928e-18 
   9750.167    1.4517e-18 
  9751.3604   2.70719e-18 
  9752.5537   2.18244e-18 
  9753.7471   2.07654e-18 
  9754.9404   2.51366e-18 
  9756.1328   3.32813e-18 
  9757.3262   2.26094e-18 
  9758.5195   2.67972e-18 
  9759.7129   2.36838e-18 
  9760.9053   2.42525e-18 
  9762.0986   3.46383e-18 
   9763.292   5.00465e-18 
  9764.4844   2.06647e-18 
  9765.6777   4.06264e-18 
  9766.8711   3.33788e-18 
  9768.0635   5.64471e-18 
  9769.2568   3.51387e-18 
  9770.4492   3.85676e-18 
  9771.6426   4.59346e-18 
  9772.8359   2.89241e-18 
  9774.0283   1.00877e-18 
  9775.2217   5.02584e-18 
  9776.4141   2.78449e-18 
  9777.6064   2.31244e-18 
  9778.7998   2.90561e-18 
  9779.9922   1.21954e-18 
  9781.1855   4.14193e-18 
  9782.3779   1.88192e-18 
  9783.5703   3.54741e-18 
  9784.7637   2.07583e-18 
  9785.9561   1.60577e-18 
  9787.1494   5.55311e-18 
  9788.3418   7.59152e-18 
  9789.5342   2.29587e-18 
  9790.7266   5.01247e-18 
  9791.9199   2.67815e-18 
  9793.1123   2.82285e-18 
  9794.3047  -3.55737e-20 
  9795.4971  -2.89227e-18 
  9796.6895   4.49918e-18 
  9797.8828  -1.16016e-18 
  9799.0752   2.01212e-18 
  9800.2676     6.848e-18 
    9801.46   4.70615e-18 
  9802.6523   2.58538e-18 
  9803.8447   2.18621e-18 
  9805.0371   5.42614e-18 
  9806.2295   2.21476e-18 
  9807.4219   2.32901e-18 
  9808.6143     2.173e-18 
  9809.8066    2.1564e-18 
   9810.999   4.32783e-18 
  9812.1914   -7.3689e-20 
  9813.3838   2.74889e-18 
  9814.5762   2.31117e-18 
  9815.7686   2.30565e-18 
  9816.9609   9.86898e-21 
  9818.1533   1.94202e-18 
  9819.3447   4.39523e-18 
  9820.5371   1.57165e-18 
  9821.7295   4.44529e-18 
  9822.9219   2.40146e-18 
  9824.1143   4.73208e-18 
  9825.3057   2.01585e-18 
   9826.498   2.39103e-18 
  9827.6904   4.26383e-18 
  9828.8818   3.87408e-18 
  9830.0742   2.76894e-18 
  9831.2666    2.6386e-18 
   9832.459   3.50191e-18 
  9833.6504     3.341e-18 
  9834.8428    2.1239e-18 
  9836.0342   2.96367e-18 
  9837.2266   3.34336e-18 
   9838.418   4.97758e-18 
  9839.6104   1.63312e-18 
  9840.8018    3.0303e-18 
  9841.9941   4.75306e-18 
  9843.1855   3.58776e-18 
  9844.3779   2.53917e-18 
  9845.5693   4.49165e-18 
  9846.7617   5.04632e-18 
  9847.9531    2.7106e-18 
  9849.1455   2.02087e-18 
  9850.3369   5.64227e-19 
  9851.5283   1.56592e-18 
  9852.7207   2.23076e-18 
  9853.9121   2.52158e-18 
  9855.1035   2.61149e-18 
  9856.2959   3.71442e-18 
  9857.4873   3.70507e-18 
  9858.6787   2.44503e-18 
  9859.8701   1.99335e-18 
  9861.0625   2.36817e-18 
  9862.2539   3.27749e-18 
  9863.4453   2.21464e-18 
  9864.6367   4.43694e-18 
  9865.8281   2.06954e-18 
  9867.0195   1.14347e-18 
  9868.2109  -6.50397e-19 
  9869.4033  -1.40877e-18 
  9870.5947   5.32479e-18 
  9871.7861   4.09302e-18 
  9872.9775   3.55145e-19 
  9874.1689   1.78901e-18 
  9875.3604   7.33632e-18 
  9876.5518   2.37694e-19 
  9877.7432   4.70063e-18 
  9878.9346   1.74768e-18 
   9880.126   5.07641e-18 
  9881.3174   2.87774e-18 
  9882.5078   3.70657e-18 
  9883.6992   4.38971e-18 
  9884.8906   1.79731e-18 
   9886.082   4.10399e-18 
  9887.2734   1.12954e-18 
  9888.4648   7.88002e-20 
  9889.6553    4.4956e-18 
  9890.8467   3.62782e-18 
  9892.0381   7.52037e-18 
  9893.2295  -2.29845e-18 
  9894.4199   1.01469e-18 
  9895.6113   1.83035e-18 
  9896.8027   3.47226e-18 
  9897.9932  -9.44233e-19 
  9899.1846   2.65562e-18 
   9900.376   2.14553e-18 
  9901.5664   2.54305e-18 
  9902.7578   1.11884e-19 
  9903.9482   2.77437e-18 
  9905.1396   3.97689e-18 
  9906.3311   1.86279e-18 
  9907.5215   4.91953e-18 
  9908.7129   4.83718e-18 
  9909.9033   2.22354e-19 
  9911.0947   1.48931e-18 
  9912.2852   1.29961e-17 
  9913.4756   7.83152e-18 
   9914.667  -3.08837e-18 
  9915.8574   7.01663e-18 
  9917.0488  -3.33091e-19 
  9918.2393   4.39769e-19 
  9919.4297   3.77886e-19 
  9920.6211   2.19199e-18 
  9921.8115   5.27226e-18 
   9923.002   4.05185e-18 
  9924.1934   1.18422e-18 
  9925.3838   2.48709e-18 
  9926.5742   5.49157e-18 
  9927.7646   3.88337e-18 
  9928.9551   4.42508e-18 
  9930.1465   2.01902e-18 
  9931.3369   2.35418e-18 
  9932.5273   5.32424e-18 
  9933.7178   5.07469e-18 
  9934.9082   1.13282e-18 
  9936.0986   1.27464e-18 
  9937.2891   3.26916e-19 
  9938.4795    5.6738e-18 
  9939.6699   3.51783e-18 
  9940.8613   4.96026e-18 
  9942.0518   1.01444e-18 
  9943.2422    5.5323e-18 
  9944.4316  -2.10894e-18 
  9945.6221   7.41054e-18 
  9946.8125   4.77333e-19 
  9948.0029  -2.58415e-18 
  9949.1934  -8.65742e-19 
  9950.3838   1.70998e-18 
  9951.5742   1.09999e-18 
  9952.7646  -2.38215e-18 
  9953.9551    7.7355e-18 
  9955.1445   2.20219e-18 
   9956.335  -1.11013e-18 
  9957.5254   1.42586e-17 
  9958.7158   4.79885e-19 
  9959.9062    4.4133e-19 
  9961.0957  -5.51423e-18 
  9962.2861   6.41067e-19 
  9963.4766   -3.2862e-18 
   9964.666   5.19909e-18 
  9965.8564  -2.51999e-18 
  9967.0469   1.43157e-18 
  9968.2363   3.93101e-18 
  9969.4268   3.03658e-18 
  9970.6172   3.14806e-18 
  9971.8066   1.39362e-18 
  9972.9971   2.54129e-18 
  9974.1865   6.00894e-18 
   9975.377   3.43405e-18 
  9976.5664   1.92097e-18 
  9977.7568   2.54795e-18 
  9978.9463   3.00025e-18 
  9980.1367   2.77865e-18 
  9981.3262    8.6476e-19 
  9982.5166   6.05007e-18 
  9983.7061   3.39595e-18 
  9984.8955   1.23768e-18 
  9986.0859    5.1762e-18 
  9987.2754   2.62497e-18 
  9988.4648   4.30235e-18 
  9989.6553    1.0185e-18 
  9990.8447   3.40398e-18 
  9992.0342   8.80837e-19 
  9993.2246   3.87236e-18 
  9994.4141   3.57895e-18 
  9995.6035   4.29916e-18 
   9996.793   5.91417e-18 
  9997.9824   1.74331e-18 
  9999.1729   2.15324e-18 
  10000.362   7.79092e-18 
  10001.552   6.80987e-18 
  10002.741   2.10555e-18 
  10003.931   5.38871e-18 
   10005.12   3.90007e-18 
   10006.31   5.11909e-18 
  10007.499   -1.4868e-19 
  10008.689   7.73364e-18 
  10009.878   8.64379e-18 
  10011.068    3.7649e-18 
  10012.257   -8.4803e-18 
  10013.447   3.84306e-18 
  10014.636   5.12618e-18 
  10015.826  -2.79555e-18 
  10017.015   1.10507e-18 
  10018.204  -1.30524e-18 
  10019.394   4.26219e-18 
  10020.583   5.17018e-18 
  10021.772   7.07237e-18 
  10022.962   1.28937e-17 
  10024.151    3.0164e-18 
   10025.34  -2.90062e-18 
  10026.529    1.1627e-18 
  10027.719   4.57739e-18 
  10028.908   -1.6743e-18 
  10030.097   3.76259e-18 
  10031.286   5.05642e-18 
  10032.475   6.41389e-18 
  10033.665   3.46192e-18 
  10034.854   3.63695e-18 
  10036.043   3.57477e-18 
  10037.232   5.98439e-19 
  10038.421   6.47126e-18 
   10039.61    4.7129e-18 
  10040.799   1.62857e-18 
  10041.988   6.98397e-18 
  10043.177   3.11948e-18 
  10044.366   3.77084e-18 
  10045.555   4.08189e-18 
  10046.744    1.5148e-18 
  10047.933   6.63445e-19 
  10049.122  -1.89543e-19 
  10050.311   1.45928e-18 
    10051.5   3.99324e-18 
  10052.689   3.21244e-18 
  10053.878   3.10487e-18 
  10055.067   4.59131e-18 
  10056.255   3.88011e-18 
  10057.444   5.38755e-18 
  10058.633   8.47236e-18 
  10059.822   3.30342e-18 
  10061.011   -9.9907e-19 
  10062.199    4.6197e-18 
  10063.388   4.39284e-18 
  10064.577    2.1737e-19 
  10065.766   5.07624e-18 
  10066.954   8.61668e-20 
  10068.143   4.87974e-18 
  10069.332   5.10558e-18 
   10070.52   2.18075e-18 
  10071.709   8.23233e-18 
  10072.898   3.49722e-18 
  10074.086   5.02005e-18 
  10075.275   3.66611e-18 
  10076.463   4.72905e-19 
  10077.652   5.32787e-18 
   10078.84   -1.3536e-18 
  10080.029   4.36201e-18 
  10081.217   1.34708e-17 
  10082.406  -2.97804e-18 
  10083.594   3.46951e-18 
  10084.783   9.18175e-18 
  10085.971   5.43216e-19 
   10087.16   2.71588e-18 
  10088.348  -1.59674e-18 
  10089.537   4.47828e-18 
  10090.725   4.17837e-18 
  10091.913    4.1214e-18 
  10093.102  -9.35124e-21 
   10094.29   4.22035e-18 
  10095.478    2.6489e-18 
  10096.667   2.67622e-18 
  10097.855   5.41988e-18 
  10099.043   4.65193e-18 
  10100.231   6.92003e-18 
   10101.42   9.90537e-18 
  10102.608   2.87736e-19 
  10103.796   2.35965e-18 
  10104.984   2.49627e-18 
  10106.173   4.68382e-18 
  10107.361   4.03473e-18 
  10108.549   2.59392e-18 
  10109.737   3.49379e-18 
  10110.925    5.7053e-19 
  10112.113   4.24523e-18 
  10113.301   1.39437e-18 
  10114.489   4.37593e-18 
  10115.677    4.0247e-18 
  10116.866   2.70742e-18 
  10118.054    1.5489e-18 
  10119.242   1.64129e-18 
   10120.43   2.05505e-17 
  10121.618  -8.32383e-19 
  10122.806  -1.37322e-18 
  10123.993   1.12823e-17 
  10125.181  -1.41333e-17 
  10126.369   1.76504e-19 
  10127.557   4.69577e-18 
  10128.745  -5.54225e-19 
  10129.933   6.52351e-20 
  10131.121   6.36959e-18 
  10132.309   4.52008e-19 
  10133.497   3.97924e-18 
  10134.684   4.47227e-18 
  10135.872   5.49946e-18 
   10137.06   2.12922e-18 
  10138.248    6.0715e-18 
  10139.436   3.15454e-18 
  10140.623   3.37101e-18 
  10141.811    3.7915e-18 
  10142.999   1.49064e-18 
  10144.186    8.3724e-18 
  10145.374   3.24591e-18 
  10146.562   5.92679e-18 
  10147.749   2.27398e-18 
  10148.937   1.78008e-18 
  10150.125   5.90255e-18 
  10151.312   2.00918e-18 
    10152.5   2.08918e-18 
  10153.688   2.33286e-19 
  10154.875   4.75302e-18 
  10156.063   -1.9884e-18 
   10157.25   -3.6731e-19 
  10158.438   6.52553e-19 
  10159.625   3.50488e-18 
  10160.813  -2.68346e-18 
    10162.0  -9.48987e-19 
  10163.188   6.69834e-18 
  10164.375   7.09887e-18 
  10165.563   7.18546e-19 
   10166.75  -2.64635e-18 
  10167.937    1.1144e-17 
  10169.125  -4.87483e-19 
  10170.312  -1.69454e-18 
    10171.5   1.39008e-18 
  10172.687  -2.88887e-18 
  10173.874  -6.37352e-18 
  10175.062   -3.0396e-18 
  10176.249  -9.68013e-19 
  10177.436   5.85074e-18 
  10178.624   1.37227e-18 
  10179.811   1.13033e-17 
  10180.998   7.95961e-18 
  10182.185   2.55106e-18 
  10183.373   6.38795e-18 
   10184.56   1.75212e-18 
  10185.747   6.00951e-18 
  10186.934   9.69404e-18 
  10188.121   4.44039e-18 
  10189.308  -1.16993e-17 
  10190.496    4.4217e-18 
  10191.683   2.34092e-18 
   10192.87    8.2372e-18 
  10194.057   9.10202e-18 
  10195.244   2.13136e-20 
  10196.431   3.54271e-18 
  10197.618  -1.45841e-18 
  10198.805   7.95768e-18 
  10199.992  -1.67525e-18 
  10201.179   8.02513e-18 
  10202.366    2.2324e-18 
  10203.553   5.45314e-19 
   10204.74   2.58939e-18 
  10205.927   1.08836e-18 
  10207.114   8.97039e-18 
  10208.301   3.73165e-18 
  10209.488   1.88829e-17 
  10210.675   5.39688e-18 
  10211.862   5.33275e-18 
  10213.049   1.42401e-17 
  10214.236   5.36271e-18 
  10215.423  -2.17464e-18 
  10216.609  -4.52653e-18 
  10217.796   4.33074e-18 
  10218.983   4.16395e-18 
   10220.17   3.08433e-18 
  10221.357   4.34665e-18 
  10222.544   4.26308e-18 
   10223.73   6.23903e-18 
  10224.917   -3.3014e-18 
  10226.104   1.35704e-18 
  10227.291   1.85765e-19 
  10228.477   4.89138e-18 
  10229.664   6.91841e-18 
  10230.851   8.66782e-18 
  10232.037   5.36083e-18 
  10233.224   6.84532e-18 
  10234.411   6.72452e-18 
  10235.597   4.67441e-18 
  10236.784   2.20777e-18 
  10237.971   1.47873e-18 
  10239.157   2.06697e-19 
  10240.344   3.29291e-18 
   10241.53   6.71804e-18 
  10242.717   3.55871e-18 
  10243.904   8.34089e-19 
   10245.09    6.0314e-18 
  10246.277     5.897e-18 
  10247.463   2.97776e-18 
   10248.65   6.03279e-18 
  10249.836   5.09422e-18 
  10251.023   3.36952e-18 
  10252.209  -5.88979e-19 
  10253.396   3.87149e-18 
  10254.582   3.68143e-18 
  10255.768   8.12013e-18 
  10256.955   3.39672e-18 
  10258.141   4.76104e-18 
  10259.328   1.16912e-18 
  10260.514   3.21407e-18 
    10261.7   3.25682e-18 
  10262.887  -8.44938e-19 
  10264.073   1.52199e-18 
   10265.26   6.24937e-18 
  10266.446   6.09324e-19 
  10267.632   1.11026e-18 
  10268.818   1.24245e-17 
  10270.005   8.06498e-18 
  10271.191  -4.92995e-18 
  10272.377   4.60684e-18 
  10273.564   7.45141e-18 
   10274.75   5.59705e-18 
  10275.936   8.40703e-18 
  10277.122   8.45739e-18 
  10278.308   4.56195e-18 
  10279.495   6.70023e-18 
  10280.681   6.35347e-19 
  10281.867   2.14996e-19 
  10283.053   1.79887e-17 
  10284.239   1.94344e-17 
  10285.426   2.70504e-17 
  10286.612  -5.20824e-18 
  10287.798   2.55826e-17 
  10288.984  -1.96877e-17 
   10290.17  -2.06316e-17 
  10291.356  -7.79752e-18 
  10292.542  -5.88005e-18 
  10293.728   1.23435e-17 
  10294.914   3.95578e-18 
    10296.1   2.21095e-17 
  10297.286   9.61315e-18 
  10298.472   2.26908e-18 
  10299.658  -8.25285e-19 
  10300.844  -4.93008e-18 
   10302.03  -2.05661e-19 
  10303.216   2.53458e-18 
  10304.402   9.39483e-18 
  10305.588   2.10412e-17 
  10306.774   3.90067e-18 
