# STATUS =
# OBJECT = 2018lfe
# TELESCOPE = Keck1
# INSTRUMENT = LRIS
# DATE-OBS = 2019-03-04 00:00:00.000
# MJD = 58546.0
# EXPTIME =
# AIRMASS =
# SLIT =
# DISPERSER =
# SOURCE = DOI 10.3847/1538-4357/aca161
# FILTER =
# RESOLUTION =
# FLUX_STANDARD =
# EXTINCTION_CORRECTED =
# PHOTOMETRY_CALIBRATED =
# TELLURIC_CORRECTED =
# FLUX_UNITS =
# WAVE_UNITS =
# QUALITY =
# MIN_WAVE = 3063.8152
# MAX_WAVE = 10311.026
# COMMENT =
 Wavelength          Flux 
  3065.7649    1.8268e-17 
  3067.7153  -4.44533e-19 
  3069.6665  -3.62582e-17 
  3071.6179  -4.92761e-17 
  3073.5701  -5.10016e-17 
  3075.5227  -2.98583e-17 
  3077.4761  -6.17261e-17 
  3079.4299   3.86926e-17 
  3081.3843   7.15259e-18 
  3083.3394   2.58695e-17 
  3085.2949  -3.43429e-17 
  3087.2512  -1.02946e-17 
   3089.208   6.84419e-18 
  3091.1653  -2.57686e-17 
   3093.123   4.67631e-17 
  3095.0815   2.23741e-17 
  3097.0405    4.5635e-17 
  3099.0002   -4.3907e-17 
  3100.9604   1.28732e-17 
  3102.9211  -1.35254e-17 
  3104.8826  -6.92601e-19 
  3106.8445  -2.08761e-17 
  3108.8069  -3.18769e-18 
    3110.77   7.23582e-18 
  3112.7336   4.55433e-18 
  3114.6978   1.65597e-17 
  3116.6626  -1.02841e-17 
  3118.6277   6.13469e-18 
  3120.5935   1.18922e-17 
  3122.5601  -1.85149e-17 
  3124.5271  -4.10903e-18 
  3126.4946   6.54108e-18 
  3128.4626    9.4712e-18 
  3130.4314  -3.62089e-18 
  3132.4006    5.4059e-18 
  3134.3706   4.41762e-18 
  3136.3408    1.2272e-17 
  3138.3118   -3.5447e-18 
  3140.2832   6.39145e-18 
  3142.2551   2.77716e-18 
  3144.2278   4.07792e-18 
  3146.2009   2.68218e-18 
  3148.1748   9.54994e-18 
  3150.1489    2.5188e-17 
  3152.1238   1.10417e-17 
  3154.0991   5.69337e-18 
   3156.075  -8.99897e-18 
  3158.0515   7.32729e-18 
  3160.0286   9.49329e-20 
  3162.0061  -9.40179e-18 
  3163.9841  -6.51277e-18 
  3165.9629   1.82575e-17 
  3167.9419   7.59807e-18 
  3169.9219   4.60316e-18 
  3171.9021   1.81277e-17 
  3173.8828   4.31578e-18 
  3175.8643    6.8873e-19 
  3177.8462  -2.07862e-18 
  3179.8286    1.2478e-17 
  3181.8118   8.68356e-18 
  3183.7954  -5.51492e-18 
  3185.7793  -9.01202e-18 
  3187.7642  -3.35816e-18 
  3189.7493   1.07586e-17 
  3191.7351   9.47282e-18 
  3193.7212    2.8207e-18 
   3195.708  -7.56146e-18 
  3197.6953   9.81533e-18 
  3199.6833  -1.77812e-18 
  3201.6716   1.27261e-18 
  3203.6606   4.57333e-18 
  3205.6501   4.66723e-18 
  3207.6401  -9.58361e-19 
  3209.6306   5.21186e-18 
  3211.6216   7.04545e-18 
  3213.6133   1.20174e-17 
  3215.6055    4.4004e-18 
  3217.5981  -1.74055e-18 
  3219.5913  -4.04299e-19 
  3221.5852  -4.60802e-18 
  3223.5793   1.59432e-18 
  3225.5742   5.98482e-18 
  3227.5696   6.62103e-18 
  3229.5652   1.43556e-17 
  3231.5618   1.02926e-17 
  3233.5586    5.6862e-18 
  3235.5559   3.81852e-18 
   3237.554  -2.21583e-18 
  3239.5525  -9.94596e-19 
  3241.5515   2.38222e-18 
  3243.5508   3.60203e-18 
  3245.5508   -2.7363e-18 
  3247.5515   6.60058e-18 
  3249.5525   2.21051e-18 
  3251.5542   2.44325e-19 
  3253.5562   7.12212e-18 
  3255.5588  -3.83368e-18 
   3257.562   7.26927e-18 
  3259.5657   1.03636e-19 
  3261.5696   1.49382e-18 
  3263.5745   6.28601e-18 
  3265.5796   6.89032e-18 
  3267.5852  -4.92115e-18 
  3269.5916  -2.79224e-18 
  3271.5981   1.06286e-17 
  3273.6055    2.7466e-18 
  3275.6133    7.7589e-18 
  3277.6213   4.14659e-19 
  3279.6301   9.98753e-18 
  3281.6394  -3.19898e-18 
  3283.6492   9.47841e-19 
  3285.6594   4.44364e-19 
  3287.6704   8.86268e-18 
  3289.6816  -4.73656e-19 
  3291.6934  -4.98398e-19 
  3293.7058   9.90942e-18 
  3295.7185  -2.98506e-19 
  3297.7317  -8.41395e-19 
  3299.7456   1.26497e-18 
    3301.76   5.11206e-18 
  3303.7747   2.98047e-18 
    3305.79    4.3532e-19 
  3307.8059   1.41274e-17 
   3309.822    9.7756e-20 
  3311.8389  -9.14414e-19 
  3313.8562   6.75339e-18 
   3315.874   6.31815e-18 
  3317.8923  -2.56034e-18 
  3319.9109   6.28486e-18 
  3321.9304  -1.68495e-18 
  3323.9502   3.18843e-18 
  3325.9702   4.13526e-19 
  3327.9912   5.75838e-18 
  3330.0122   5.43684e-18 
  3332.0339   3.31687e-18 
  3334.0564   8.83125e-19 
  3336.0791  -1.13316e-18 
  3338.1021   2.36527e-18 
  3340.1257   3.61219e-18 
  3342.1499   8.85607e-20 
  3344.1746   6.44093e-18 
  3346.1997  -2.88682e-19 
  3348.2253   2.93322e-18 
  3350.2515   2.12628e-18 
  3352.2781   1.33798e-18 
  3354.3052   2.59551e-18 
  3356.3328  -3.85475e-19 
  3358.3606   3.12204e-19 
  3360.3892    5.5375e-18 
  3362.4182    3.5929e-18 
  3364.4478  -3.65971e-19 
  3366.4775    1.3894e-18 
  3368.5081   1.98767e-18 
  3370.5391   2.17145e-18 
  3372.5703    2.2046e-18 
  3374.6023   3.86936e-18 
  3376.6345   7.06515e-18 
  3378.6672  -5.88002e-19 
  3380.7007  -1.47285e-18 
  3382.7344  -7.98843e-19 
  3384.7686   2.96544e-18 
  3386.8032    3.8379e-18 
  3388.8384   8.77164e-19 
   3390.874   5.54502e-18 
  3392.9102   7.05533e-20 
  3394.9465   3.14269e-18 
  3396.9836   3.25572e-20 
   3399.021   1.76767e-18 
  3401.0591   2.04791e-18 
  3403.0974   1.24231e-18 
  3405.1365   3.64524e-18 
  3407.1758  -2.45316e-19 
  3409.2156  -6.47431e-20 
  3411.2559   5.46324e-18 
  3413.2966   8.86761e-18 
  3415.3379  -1.14196e-21 
  3417.3794   3.57694e-18 
  3419.4216    3.3725e-18 
  3421.4641   3.35355e-18 
  3423.5071   6.92359e-19 
  3425.5505   1.64914e-18 
  3427.5945   5.92688e-19 
  3429.6389   2.09976e-18 
  3431.6838   9.21142e-18 
  3433.7292   2.02549e-20 
  3435.7749   5.60609e-18 
   3437.821   6.27442e-18 
  3439.8679   4.66111e-18 
  3441.9148   2.75577e-18 
  3443.9624   3.19781e-18 
  3446.0105  -6.41956e-19 
  3448.0591   2.66087e-18 
  3450.1079   6.75232e-19 
  3452.1572  -1.57793e-18 
   3454.207   1.75906e-19 
  3456.2573   5.16189e-18 
  3458.3081   3.61947e-18 
  3460.3591   3.59181e-18 
  3462.4109   5.45191e-18 
  3464.4629   1.29984e-18 
  3466.5154    1.3636e-18 
  3468.5681   4.79634e-18 
  3470.6216   4.54456e-18 
  3472.6753   3.94861e-18 
  3474.7295   4.01085e-18 
  3476.7842   8.36014e-18 
  3478.8396   2.83503e-18 
   3480.895   -3.4871e-18 
  3482.9509   2.08225e-18 
  3485.0073   3.62072e-18 
  3487.0642   3.36258e-18 
  3489.1216   2.65226e-18 
  3491.1794    4.0336e-18 
  3493.2375   1.83692e-18 
  3495.2961   1.34892e-18 
  3497.3552   4.63468e-19 
  3499.4146   4.75735e-18 
  3501.4746   1.56492e-18 
  3503.5349   1.18037e-18 
  3505.5957   2.56878e-19 
  3507.6567  -1.33829e-18 
  3509.7185   4.24408e-18 
  3511.7805   3.22329e-18 
   3513.843   1.30049e-18 
  3515.9058   3.06367e-18 
  3517.9692    1.5407e-18 
   3520.033   2.57453e-18 
  3522.0972   8.74973e-21 
  3524.1616    3.9986e-18 
  3526.2268   1.74658e-18 
   3528.292   5.43698e-19 
  3530.3579   1.69514e-18 
  3532.4243   2.44903e-18 
   3534.491   2.04373e-18 
  3536.5581    2.9525e-18 
  3538.6255   1.24238e-18 
  3540.6936   1.16268e-18 
   3542.762   5.38726e-18 
  3544.8308   3.76048e-18 
  3546.8999   6.13384e-18 
  3548.9695   2.30559e-18 
  3551.0396   3.22239e-18 
  3553.1099   5.22848e-18 
  3555.1809   5.57959e-18 
   3557.252   5.19967e-19 
  3559.3237  -9.21892e-20 
  3561.3958   2.70405e-18 
  3563.4683   1.54925e-19 
  3565.5413   2.22441e-18 
  3567.6145   2.80907e-18 
  3569.6882   5.54994e-18 
  3571.7622   4.63668e-18 
  3573.8369  -8.23137e-19 
  3575.9119   4.01303e-18 
  3577.9871  -3.58015e-19 
  3580.0627    3.4655e-18 
  3582.1389    8.3849e-19 
  3584.2156   4.57166e-19 
  3586.2925   4.93687e-18 
  3588.3699   1.11758e-18 
  3590.4475   2.56977e-18 
  3592.5256   5.56293e-18 
  3594.6042   2.89541e-18 
  3596.6831   1.48342e-18 
  3598.7625   1.76803e-18 
  3600.8423   3.58006e-19 
  3602.9224   1.50333e-18 
  3605.0029   2.46633e-18 
  3607.0837  -1.00839e-18 
  3609.1653   3.27817e-18 
  3611.2468     2.017e-18 
  3613.3291    2.9819e-18 
  3615.4116   1.95569e-18 
  3617.4944     1.397e-21 
  3619.5776    3.8529e-18 
  3621.6614   8.93445e-19 
  3623.7454   1.56692e-18 
  3625.8298   2.57233e-18 
  3627.9146   3.19059e-18 
  3629.9998   3.54809e-18 
  3632.0854   9.32889e-19 
  3634.1714    2.4027e-18 
  3636.2578   3.07933e-18 
  3638.3445  -1.11974e-19 
  3640.4316  -5.62276e-19 
  3642.5193    6.8103e-19 
  3644.6072   2.43379e-18 
  3646.6953   1.78892e-18 
  3648.7839   2.75316e-18 
   3650.873   3.80474e-18 
  3652.9624   2.57831e-18 
  3655.0522   5.64359e-18 
  3657.1426   2.10711e-18 
  3659.2329   4.39863e-18 
   3661.324   9.45352e-19 
  3663.4153   2.46284e-18 
  3665.5068   6.23674e-18 
  3667.5991   8.23844e-19 
  3669.6914    4.3501e-18 
  3671.7842   1.75771e-18 
  3673.8774   4.67905e-18 
  3675.9709   4.18998e-18 
  3678.0647   3.17085e-18 
  3680.1592   2.04865e-18 
  3682.2539   3.55215e-18 
  3684.3489   3.08726e-18 
  3686.4441   1.79314e-18 
  3688.5398   2.99874e-18 
   3690.636    4.5884e-18 
  3692.7324   4.79183e-18 
  3694.8293   1.38451e-18 
  3696.9265    5.8229e-20 
  3699.0242     2.087e-18 
  3701.1221   1.23231e-18 
  3703.2205    2.8153e-18 
  3705.3191   2.64184e-18 
  3707.4182   1.94774e-18 
  3709.5176   3.81353e-18 
  3711.6172   4.02236e-18 
  3713.7173   1.30243e-18 
  3715.8179   3.55936e-18 
  3717.9187    4.1279e-18 
  3720.0198   4.20762e-18 
  3722.1213   4.51741e-18 
  3724.2231   3.33549e-18 
  3726.3254   3.38077e-18 
   3728.428   3.31165e-18 
   3730.531   3.19937e-18 
  3732.6343   5.79624e-18 
  3734.7378   3.32083e-18 
  3736.8418   2.49054e-18 
  3738.9463   3.63139e-18 
   3741.051   3.16809e-18 
   3743.156   6.03266e-18 
  3745.2615   3.84508e-18 
  3747.3672   1.66156e-18 
  3749.4731   3.36425e-18 
  3751.5796   3.39484e-18 
  3753.6863   5.89858e-18 
  3755.7937   4.43987e-18 
  3757.9009   4.49193e-18 
  3760.0088   1.97188e-18 
  3762.1169    2.5226e-18 
  3764.2256   4.10748e-18 
  3766.3342   3.31794e-18 
  3768.4436   2.85231e-18 
   3770.553   1.85758e-18 
  3772.6628   3.90206e-18 
  3774.7732    3.5982e-18 
  3776.8835   3.68595e-18 
  3778.9944   3.33552e-18 
  3781.1057   6.92832e-18 
  3783.2173    3.7079e-18 
  3785.3291   3.55747e-18 
  3787.4414   5.07881e-18 
  3789.5537    5.8724e-18 
  3791.6667   2.66002e-18 
  3793.7798   4.35703e-18 
  3795.8936   4.23967e-18 
  3798.0073   4.51234e-18 
  3800.1216   2.80173e-18 
  3802.2361   2.44403e-18 
  3804.3508   5.64544e-18 
  3806.4661  -1.56531e-19 
  3808.5815   3.10285e-18 
  3810.6975   5.37038e-18 
  3812.8137   1.41156e-18 
  3814.9302   4.40247e-18 
  3817.0469   2.09864e-18 
  3819.1641   2.83325e-18 
  3821.2815   4.13582e-18 
  3823.3994   3.08904e-18 
  3825.5173   2.63174e-18 
  3827.6357   5.87921e-18 
  3829.7546   3.89475e-18 
  3831.8735   5.62345e-18 
  3833.9929   2.37345e-18 
  3836.1128   4.94136e-18 
  3838.2327   7.82225e-19 
   3840.353   1.23868e-18 
  3842.4736   2.43307e-18 
  3844.5947   3.69111e-18 
  3846.7161   1.95311e-18 
  3848.8376   5.16034e-18 
  3850.9595   1.70884e-18 
  3853.0818   3.59027e-18 
  3855.2041   3.57316e-18 
  3857.3271   1.93271e-18 
  3859.4502    3.1514e-18 
  3861.5737   2.38883e-18 
  3863.6975   3.47946e-18 
  3865.8215   1.45536e-18 
   3867.946   2.99539e-18 
  3870.0708   4.21791e-18 
  3872.1958   3.33448e-18 
   3874.321   4.26853e-18 
  3876.4465    4.8218e-18 
  3878.5725   4.53936e-18 
  3880.6987   4.50947e-18 
  3882.8252   1.77863e-18 
  3884.9521   4.13392e-18 
  3887.0791   4.85853e-18 
  3889.2065   2.60766e-18 
  3891.3345   3.60969e-18 
  3893.4624   4.31244e-18 
  3895.5908   4.17404e-18 
  3897.7195   3.94984e-18 
  3899.8484   3.02172e-18 
  3901.9775   5.30129e-18 
  3904.1069   1.38638e-18 
  3906.2368   1.53767e-18 
  3908.3669   4.23813e-18 
  3910.4973   6.24055e-18 
  3912.6282   2.92643e-18 
   3914.759   4.14136e-18 
  3916.8904   4.22415e-18 
   3919.022   3.23177e-18 
  3921.1538   4.05576e-18 
  3923.2859   3.25089e-18 
  3925.4185   3.54634e-18 
   3927.551    4.0395e-18 
  3929.6841   3.15484e-18 
  3931.8174   4.58366e-18 
  3933.9512   4.09984e-18 
   3936.085   3.49957e-18 
   3938.219   3.32794e-18 
  3940.3535   4.71514e-18 
  3942.4883   2.41192e-18 
  3944.6233   1.80087e-18 
  3946.7585   3.84147e-18 
  3948.8943   3.07997e-18 
    3951.03   4.54257e-18 
  3953.1663   2.15347e-18 
  3955.3027   4.87703e-18 
  3957.4395    5.0068e-18 
  3959.5764   1.85513e-18 
  3961.7136   4.12529e-18 
  3963.8513   2.46412e-18 
   3965.989   4.24852e-18 
  3968.1272   5.00157e-18 
  3970.2654   2.88098e-18 
  3972.4041   6.99268e-18 
   3974.543   2.73424e-18 
  3976.6821   3.69403e-18 
  3978.8218   2.35788e-18 
  3980.9614   2.38064e-18 
  3983.1013   4.94187e-18 
  3985.2417   1.81736e-18 
  3987.3821   3.88381e-18 
  3989.5229   2.47469e-18 
  3991.6641   2.86344e-18 
  3993.8054   1.85186e-18 
   3995.947   2.51557e-18 
  3998.0891   5.33849e-19 
  4000.2312   2.60082e-18 
  4002.3735    4.7813e-18 
  4004.5161   4.04143e-18 
  4006.6592   1.36359e-19 
  4008.8025   3.13208e-18 
  4010.9458   4.44289e-18 
  4013.0896   4.56712e-18 
  4015.2336    3.1981e-18 
  4017.3779    4.7621e-18 
  4019.5225   3.11938e-18 
  4021.6672   2.22683e-18 
  4023.8123   3.30458e-18 
  4025.9575   3.58976e-18 
   4028.103   3.32612e-18 
  4030.2488   3.16816e-18 
   4032.395   3.95794e-18 
  4034.5413   3.32145e-18 
  4036.6877   2.86159e-18 
  4038.8347   2.85719e-18 
  4040.9817   2.83195e-18 
  4043.1292   2.02226e-18 
  4045.2766    2.5835e-18 
  4047.4246   2.87949e-18 
  4049.5725   4.20686e-18 
  4051.7209    2.2235e-18 
  4053.8694   2.28517e-18 
  4056.0183   4.10869e-18 
  4058.1675   3.29152e-18 
  4060.3169   2.60765e-18 
  4062.4663   2.20261e-18 
  4064.6162   2.75036e-18 
  4066.7661   2.74207e-18 
  4068.9165   1.81425e-18 
  4071.0671   4.22263e-18 
   4073.218    3.0608e-18 
  4075.3689   3.27023e-18 
  4077.5203   2.28802e-18 
  4079.6719   3.40952e-18 
  4081.8235    2.4462e-18 
  4083.9756   2.82224e-18 
  4086.1277   3.80258e-18 
  4088.2803    1.8014e-18 
  4090.4331   2.19155e-18 
  4092.5859   2.20821e-18 
  4094.7393   2.12024e-18 
  4096.8926   2.45877e-18 
  4099.0464   3.45133e-18 
  4101.2002   4.55495e-18 
  4103.3545   2.49693e-18 
  4105.5088   2.26002e-18 
  4107.6636   2.69969e-18 
  4109.8184   1.97407e-18 
  4111.9731    3.0791e-18 
  4114.1284   2.15673e-18 
  4116.2842   2.76698e-18 
  4118.4399   2.19193e-18 
  4120.5957   3.04662e-18 
  4122.7524   3.82874e-18 
  4124.9087   5.05342e-18 
  4127.0654   5.37257e-18 
  4129.2222   2.80356e-18 
  4131.3794   3.25392e-18 
  4133.5366   3.33496e-18 
  4135.6943   3.91967e-18 
  4137.8521   1.99068e-18 
  4140.0103   1.79374e-18 
  4142.1685   3.57872e-18 
  4144.3267   4.65254e-18 
  4146.4858   1.86503e-18 
  4148.6445   3.82496e-18 
  4150.8037   4.37867e-18 
  4152.9629   2.36672e-18 
  4155.1226   4.38426e-18 
  4157.2822   2.80216e-18 
  4159.4424   2.11212e-18 
  4161.6025   9.31655e-19 
  4163.7632   2.85682e-18 
  4165.9238   1.97934e-18 
  4168.0845   2.81273e-18 
  4170.2456   3.99394e-18 
  4172.4072   2.83487e-18 
  4174.5684   2.53889e-18 
  4176.7305   4.04334e-18 
  4178.8921   2.66691e-18 
  4181.0542   3.24125e-18 
  4183.2168   2.68811e-18 
  4185.3794   3.33073e-18 
   4187.542   3.82535e-18 
  4189.7051     2.847e-18 
  4191.8682   3.17908e-18 
  4194.0317   2.80172e-18 
  4196.1953   1.57728e-18 
  4198.3594   2.17041e-18 
  4200.5234   1.49715e-18 
  4202.6875   2.07263e-18 
  4204.8521   2.76057e-18 
  4207.0166   4.06827e-18 
  4209.1816    3.3339e-18 
  4211.3467   3.97084e-18 
  4213.5117   2.90751e-18 
  4215.6772   4.64028e-18 
  4217.8428   2.13976e-18 
  4220.0088    1.8992e-18 
  4222.1748   2.66197e-18 
  4224.3413   4.30434e-18 
  4226.5078   2.94804e-18 
  4228.6743   2.51476e-18 
  4230.8413    3.1676e-18 
  4233.0083   1.39709e-18 
  4235.1753   4.45291e-18 
  4237.3428     2.478e-18 
  4239.5107   4.37459e-18 
  4241.6782    2.4956e-18 
  4243.8462   3.87223e-18 
  4246.0146   2.84034e-18 
  4248.1831   4.24022e-18 
  4250.3516   4.14209e-18 
  4252.5205   3.97623e-18 
  4254.6895   4.39485e-18 
  4256.8584   3.42653e-18 
  4259.0278   1.31508e-18 
  4261.1973   2.69652e-18 
  4263.3672   1.78242e-18 
  4265.5371    3.8395e-18 
   4267.707   4.46816e-18 
  4269.8774   3.03895e-18 
  4272.0479   3.86894e-18 
  4274.2188   2.48086e-18 
  4276.3896   1.42794e-18 
  4278.5605   3.68777e-18 
  4280.7319   3.22015e-18 
  4282.9033   3.53204e-18 
  4285.0747   3.32729e-18 
  4287.2466   1.75028e-18 
  4289.4185   3.74965e-18 
  4291.5903   3.97491e-18 
  4293.7627   4.20894e-18 
  4295.9351   3.07658e-18 
  4298.1079   5.24381e-18 
  4300.2808    4.6492e-18 
  4302.4536   4.37356e-18 
   4304.627   1.82281e-18 
  4306.8003   6.69713e-18 
  4308.9741   4.22281e-18 
  4311.1475   3.93193e-18 
  4313.3218    5.5007e-18 
  4315.4956   3.22011e-18 
  4317.6699   1.52997e-18 
  4319.8442   4.54811e-18 
   4322.019   3.01395e-18 
  4324.1934   2.23007e-18 
  4326.3687   3.91634e-18 
  4328.5435   4.77919e-18 
  4330.7188   4.45714e-18 
  4332.8945   5.06265e-18 
  4335.0698   3.34931e-18 
  4337.2456   2.64413e-18 
  4339.4214   3.54862e-18 
  4341.5977   3.14462e-18 
  4343.7739   4.14337e-18 
  4345.9502   2.48532e-18 
   4348.127   4.40926e-18 
  4350.3037   2.22632e-18 
  4352.4805   5.11937e-18 
  4354.6577   3.75336e-18 
   4356.835    4.0768e-18 
  4359.0122   3.35789e-18 
  4361.1899   3.78917e-18 
  4363.3677   2.96268e-18 
  4365.5454   3.23879e-18 
  4367.7236   4.10645e-18 
  4369.9019   3.60197e-18 
  4372.0801   2.18713e-18 
  4374.2588    4.5097e-18 
  4376.4375   2.75869e-18 
  4378.6162   3.54441e-18 
  4380.7954   3.78384e-18 
  4382.9746   4.14856e-18 
  4385.1538   3.47225e-18 
   4387.333   3.34772e-18 
  4389.5127   4.52901e-18 
  4391.6924   3.66455e-18 
  4393.8726   2.57329e-18 
  4396.0527   1.85349e-18 
  4398.2329   3.48307e-18 
  4400.4131     3.556e-18 
  4402.5938   2.59579e-18 
  4404.7744   1.76953e-18 
  4406.9551   4.23112e-18 
  4409.1362    5.2304e-18 
  4411.3174   2.24446e-18 
  4413.4985   4.09612e-18 
  4415.6797   3.56348e-18 
  4417.8613   3.78492e-18 
   4420.043   3.86872e-18 
  4422.2251   3.14629e-18 
  4424.4067   5.19306e-18 
  4426.5889   1.16916e-18 
  4428.7715   3.89578e-18 
  4430.9536   3.01116e-18 
  4433.1362   4.89357e-18 
  4435.3188   2.83074e-18 
   4437.502   3.26942e-18 
  4439.6846   3.58398e-18 
  4441.8677   3.02387e-18 
  4444.0513    3.9037e-18 
  4446.2344   3.95151e-18 
   4448.418   3.66966e-18 
  4450.6016   4.35997e-18 
  4452.7856   4.07932e-18 
  4454.9697   6.22489e-18 
  4457.1533   4.21888e-18 
  4459.3379    1.7697e-18 
   4461.522   6.36113e-18 
  4463.7065    5.2252e-18 
  4465.8911   4.71729e-18 
  4468.0762   5.31422e-18 
  4470.2607   2.93908e-18 
  4472.4458   3.84535e-18 
  4474.6309   4.04747e-18 
  4476.8164   3.92374e-18 
  4479.0015   3.96956e-18 
   4481.187   4.90948e-18 
   4483.373   4.71057e-18 
  4485.5586   4.46452e-18 
  4487.7446   4.74686e-18 
  4489.9307   3.27403e-18 
  4492.1167   2.60204e-18 
  4494.3032   2.80351e-18 
  4496.4893   5.00504e-18 
  4498.6763   3.26127e-18 
  4500.8628   4.97161e-18 
  4503.0498   1.88646e-18 
  4505.2363   2.92757e-18 
  4507.4233   5.93863e-18 
  4509.6108   5.44145e-18 
  4511.7979   5.11947e-18 
  4513.9854   5.62172e-18 
  4516.1729   2.46139e-18 
  4518.3608   3.72501e-18 
  4520.5483   3.71359e-18 
  4522.7363   4.30214e-18 
  4524.9243   3.61909e-18 
  4527.1123    4.4059e-18 
  4529.3008   4.65409e-18 
  4531.4888    6.1045e-18 
  4533.6777   4.16818e-18 
  4535.8662   2.89951e-18 
  4538.0547   6.96952e-18 
  4540.2437   3.03611e-18 
  4542.4326   6.59395e-18 
  4544.6216    3.7127e-18 
   4546.811   4.07524e-18 
     4549.0   4.52141e-18 
  4551.1895    4.1308e-18 
  4553.3789   3.89836e-18 
  4555.5684   4.94754e-18 
  4557.7583   4.40272e-18 
  4559.9482     4.205e-18 
  4562.1382   4.00174e-18 
  4564.3281   5.44918e-18 
  4566.5181   5.98252e-18 
  4568.7085    3.7364e-18 
  4570.8989   4.19091e-18 
  4573.0894   5.53925e-18 
  4575.2798   5.97221e-18 
  4577.4707   4.04445e-18 
  4579.6616   5.76985e-18 
  4581.8525   3.65058e-18 
  4584.0435    5.4785e-18 
  4586.2344   2.15891e-18 
  4588.4258   3.21452e-18 
  4590.6172     6.286e-18 
  4592.8086   3.80001e-18 
     4595.0   3.97025e-18 
  4597.1919     4.792e-18 
  4599.3833   4.65166e-18 
  4601.5752   4.51905e-18 
  4603.7671    1.6376e-18 
   4605.959   3.83397e-18 
  4608.1514   4.85515e-18 
  4610.3433   2.49749e-18 
  4612.5361   5.18755e-18 
  4614.7285   4.26076e-18 
  4616.9209   3.82133e-18 
  4619.1133   6.00269e-18 
  4621.3062    5.5035e-18 
   4623.499   2.79606e-18 
  4625.6919   5.15281e-18 
  4627.8848    2.3682e-18 
  4630.0781    4.2725e-18 
   4632.271   3.02492e-18 
  4634.4644   4.25325e-18 
  4636.6577   4.57518e-18 
  4638.8511   4.50444e-18 
  4641.0449   5.25485e-18 
  4643.2383    5.0694e-18 
  4645.4321   3.94823e-18 
   4647.626   3.62076e-18 
  4649.8198   3.59685e-18 
  4652.0137   1.79344e-18 
   4654.208   5.56005e-18 
  4656.4019   3.61898e-18 
  4658.5962   6.43414e-18 
  4660.7905   4.15073e-18 
  4662.9849   5.10029e-18 
  4665.1797   4.05865e-18 
   4667.374   4.69205e-18 
  4669.5688   4.43341e-18 
  4671.7637   4.61021e-18 
  4673.9585    5.5746e-18 
  4676.1533   5.39286e-18 
  4678.3486   3.03055e-18 
  4680.5435   5.18998e-18 
  4682.7388   3.94957e-18 
  4684.9341   1.90299e-18 
  4687.1294   5.97959e-18 
  4689.3247   4.45669e-18 
    4691.52   3.75054e-18 
  4693.7158   3.12321e-18 
  4695.9116   4.55786e-18 
  4698.1074   4.83094e-18 
  4700.3032   4.84281e-18 
   4702.499    6.7983e-18 
  4704.6948   3.78287e-18 
  4706.8911   4.76373e-18 
  4709.0869   2.59018e-18 
  4711.2832   3.98652e-18 
  4713.4795   4.61384e-18 
  4715.6758   3.58846e-18 
  4717.8721   4.57722e-18 
  4720.0688   4.72446e-18 
  4722.2656   3.86077e-18 
  4724.4619   5.52258e-18 
  4726.6587    6.4385e-18 
  4728.8555   4.15782e-18 
  4731.0522   5.19389e-18 
  4733.2495   4.77998e-18 
  4735.4463   3.63709e-18 
  4737.6436   3.51142e-18 
  4739.8403    3.8051e-18 
  4742.0376   2.36132e-18 
  4744.2349    5.9491e-18 
  4746.4321   4.72726e-18 
  4748.6299   3.41843e-18 
  4750.8271   4.44904e-18 
  4753.0249   4.57427e-18 
  4755.2222   4.79234e-18 
  4757.4199   5.01804e-18 
  4759.6177    5.0498e-18 
  4761.8154   4.06657e-18 
  4764.0132   3.19637e-18 
  4766.2114   4.88777e-18 
  4768.4092   5.75365e-18 
  4770.6074   5.13054e-18 
  4772.8057   2.79665e-18 
  4775.0039   4.14967e-18 
  4777.2017    4.3071e-18 
  4779.4004   6.27971e-18 
  4781.5986   4.45794e-18 
  4783.7969   3.89758e-18 
  4785.9956   3.94683e-18 
  4788.1938   5.37735e-18 
  4790.3926   2.11238e-18 
  4792.5913   3.77615e-18 
    4794.79    6.3174e-18 
  4796.9888   5.42596e-18 
  4799.1875   3.66192e-18 
  4801.3867   2.75619e-18 
  4803.5854    4.7214e-18 
  4805.7847   5.47045e-18 
  4807.9834    4.6818e-18 
  4810.1826   6.23687e-18 
  4812.3818    3.9888e-18 
  4814.5811   3.83503e-18 
  4816.7803   4.94516e-18 
  4818.9795   4.63831e-18 
  4821.1792   3.75818e-18 
  4823.3784     5.118e-18 
  4825.5781   5.04745e-18 
  4827.7773   3.83474e-18 
  4829.9771   3.28244e-18 
  4832.1768   6.60282e-18 
  4834.3765   4.41671e-18 
  4836.5762   3.31354e-18 
  4838.7759   5.04716e-18 
  4840.9756   4.16562e-18 
  4843.1753   4.44392e-18 
  4845.3755   3.44142e-18 
  4847.5757   3.99533e-18 
  4849.7754   5.23561e-18 
  4851.9756   3.98234e-18 
  4854.1758   2.70766e-18 
   4856.376   3.18639e-18 
  4858.5762     4.107e-18 
  4860.7764   2.24113e-18 
  4862.9766   4.02756e-18 
  4865.1768   3.18794e-18 
  4867.3774   4.25349e-18 
  4869.5776   2.84849e-18 
  4871.7783   4.72991e-18 
  4873.9785   3.26964e-18 
  4876.1792   3.18429e-18 
  4878.3799    3.4861e-18 
  4880.5806   4.29401e-18 
  4882.7812    2.7787e-18 
  4884.9819   5.53436e-18 
  4887.1826   2.91041e-18 
  4889.3833   3.07085e-18 
   4891.584    3.6025e-18 
  4893.7852   3.09168e-18 
  4895.9858   4.99565e-18 
   4898.187   3.69069e-18 
  4900.3882   3.28228e-18 
  4902.5889   3.19245e-18 
    4904.79   3.46082e-18 
  4906.9912   4.04356e-18 
  4909.1924   3.91475e-18 
  4911.3936   3.10298e-18 
  4913.5947   4.14736e-18 
  4915.7959   2.94638e-18 
  4917.9971   2.66039e-18 
  4920.1982   2.83553e-18 
  4922.3999    5.8918e-18 
  4924.6011   3.39348e-18 
  4926.8027   3.48062e-18 
  4929.0039    4.9962e-18 
  4931.2056   4.31796e-18 
  4933.4072   3.84834e-18 
  4935.6084   4.84656e-18 
  4937.8101    4.4845e-18 
  4940.0117   3.00915e-18 
  4942.2134   3.00875e-18 
   4944.415   3.25477e-18 
  4946.6167    3.4174e-18 
  4948.8184   4.89768e-18 
    4951.02   2.84825e-18 
  4953.2217   3.80392e-18 
  4955.4238   3.59644e-18 
  4957.6255   2.50742e-18 
  4959.8271   4.18085e-18 
  4962.0293   3.04974e-18 
   4964.231   4.34732e-18 
  4966.4331   3.12968e-18 
  4968.6348   3.66179e-18 
  4970.8369   4.09973e-18 
  4973.0391   2.11552e-18 
  4975.2407   4.12849e-18 
  4977.4429   4.44395e-18 
   4979.645   3.92518e-18 
  4981.8472   1.90435e-18 
  4984.0493   3.87185e-18 
  4986.2515   5.14398e-18 
  4988.4536   4.05205e-18 
  4990.6558   4.35107e-18 
  4992.8579   3.51048e-18 
  4995.0601    2.1215e-18 
  4997.2622   5.21498e-18 
  4999.4648   3.41097e-18 
   5001.667   4.30601e-18 
  5003.8691    2.5406e-18 
  5006.0718   1.93373e-18 
  5008.2739    2.7237e-18 
  5010.4761   4.75918e-18 
  5012.6787     2.796e-18 
  5014.8809   3.25577e-18 
  5017.0835   4.88727e-18 
  5019.2861   4.07446e-18 
  5021.4883   2.91165e-18 
  5023.6909   3.05983e-18 
  5025.8936   5.85536e-18 
  5028.0957   8.00566e-18 
  5030.2983    1.0208e-17 
   5032.501   1.44846e-17 
  5034.7036   1.46921e-17 
  5036.9058   1.05861e-17 
  5039.1084   5.89576e-18 
   5041.311   5.80682e-18 
  5043.5137   3.60533e-18 
  5045.7163   4.87213e-18 
  5047.9189   2.63262e-18 
  5050.1216   4.75619e-18 
  5052.3242   4.97921e-18 
  5054.5269   4.81932e-18 
  5056.7295   2.65816e-18 
  5058.9321   3.51529e-18 
  5061.1348   3.51351e-18 
  5063.3379   4.40588e-18 
  5065.5405   3.72567e-18 
  5067.7432    4.5833e-18 
  5069.9458   3.58888e-18 
  5072.1484   3.69216e-18 
  5074.3511   3.65413e-18 
  5076.5542   3.85579e-18 
  5078.7568   4.58823e-18 
  5080.9595   5.56789e-18 
  5083.1626   3.52225e-18 
  5085.3652   3.46807e-18 
  5087.5679   4.27419e-18 
   5089.771   4.93013e-18 
  5091.9736   3.73731e-18 
  5094.1763   3.68172e-18 
  5096.3794    3.3981e-18 
   5098.582    2.0464e-18 
  5100.7847   2.53945e-18 
  5102.9878   4.00262e-18 
  5105.1904   4.69581e-18 
  5107.3931   3.46871e-18 
  5109.5962   4.73657e-18 
  5111.7988    4.3978e-18 
   5114.002     4.124e-18 
  5116.2046   4.92017e-18 
  5118.4077   3.66026e-18 
  5120.6104   3.97968e-18 
  5122.8135   3.37339e-18 
  5125.0161   4.15089e-18 
  5127.2192   4.29489e-18 
  5129.4219   4.94275e-18 
  5131.6245   4.33798e-18 
  5133.8276   2.62837e-18 
  5136.0303    3.7059e-18 
  5138.2334    4.6627e-18 
   5140.436    3.5982e-18 
  5142.6392   4.19615e-18 
  5144.8418   3.78001e-18 
  5147.0449   3.56757e-18 
  5149.2476   5.66557e-18 
  5151.4502   4.97854e-18 
  5153.6533   4.43845e-18 
   5155.856   3.06278e-18 
  5158.0591    4.1096e-18 
  5160.2617   3.11479e-18 
  5162.4644   2.34184e-18 
  5164.6675   2.49308e-18 
  5166.8701   4.93258e-18 
  5169.0732   4.02202e-18 
  5171.2759   4.04018e-18 
  5173.4785   4.10035e-18 
  5175.6816   4.76115e-18 
  5177.8843   4.55216e-18 
  5180.0869   6.60542e-18 
    5182.29   4.41092e-18 
  5184.4927   6.34927e-18 
  5186.6953   3.44789e-18 
  5188.8979   5.87582e-18 
  5191.1006   5.35968e-18 
  5193.3037   5.69248e-18 
  5195.5063   6.89552e-18 
   5197.709   5.50674e-18 
  5199.9116    3.9419e-18 
  5202.1143   4.70674e-18 
  5204.3174   4.61844e-18 
    5206.52   5.25168e-18 
  5208.7227   4.78709e-18 
  5210.9253   6.59646e-18 
  5213.1279    4.9369e-18 
  5215.3306   5.51395e-18 
  5217.5332   4.67564e-18 
  5219.7358   6.61855e-18 
  5221.9385   1.55103e-17 
  5224.1411   1.69832e-17 
  5226.3438    1.2943e-17 
  5228.5464   6.57992e-18 
   5230.749   6.41014e-18 
  5232.9512   5.38544e-18 
  5235.1538   6.99552e-18 
  5237.3564   6.53031e-18 
  5239.5591    6.5232e-18 
  5241.7617    5.4664e-18 
  5243.9639   9.51618e-18 
  5246.1665   6.35249e-18 
  5248.3691   9.69915e-18 
  5250.5713   1.06401e-17 
  5252.7739   9.81523e-18 
  5254.9761   8.62544e-18 
  5257.1787   5.70402e-18 
  5259.3809   5.45939e-18 
  5261.5835   5.61253e-18 
  5263.7856   7.64751e-18 
  5265.9883   8.91917e-18 
  5268.1904   5.20802e-18 
  5270.3926   6.17659e-18 
  5272.5952   6.54046e-18 
  5274.7974   7.31189e-18 
  5276.9995   6.50653e-18 
  5279.2017   9.20621e-18 
  5281.4043   6.87972e-18 
  5283.6064   5.76905e-18 
  5285.8086   6.68683e-18 
  5288.0107   6.67608e-18 
  5290.2129    6.1968e-18 
   5292.415   6.01275e-18 
  5294.6172   5.56625e-18 
  5296.8193   7.32996e-18 
  5299.0215   7.00233e-18 
  5301.2236   6.41879e-18 
  5303.4253   7.19719e-18 
  5305.6274   6.80252e-18 
  5307.8296   7.43128e-18 
  5310.0312   4.06573e-18 
  5312.2334   8.33261e-18 
  5314.4351   5.24617e-18 
  5316.6372   6.02403e-18 
  5318.8389   5.64273e-18 
   5321.041    5.3044e-18 
  5323.2427    6.4336e-18 
  5325.4448    9.5061e-18 
  5327.6465   5.60668e-18 
  5329.8481   6.52251e-18 
  5332.0498   7.68276e-18 
   5334.252   5.17572e-18 
  5336.4536   5.32514e-18 
  5338.6553   6.62575e-18 
  5340.8569    7.5753e-18 
  5343.0586   6.72223e-18 
  5345.2603   5.11784e-18 
  5347.4619    7.4549e-18 
  5349.6631    5.9342e-18 
  5351.8647   9.31146e-18 
  5354.0664   7.18217e-18 
  5356.2681   1.06466e-17 
  5358.4692   1.07738e-17 
  5360.6709   1.13699e-17 
  5362.8721    8.3993e-18 
  5365.0737   7.53457e-18 
  5367.2749   6.45683e-18 
  5369.4761   6.75575e-18 
  5371.6777   5.51877e-18 
  5373.8789    6.3795e-18 
  5376.0801   7.04341e-18 
  5378.2817   6.31762e-18 
  5380.4829   6.34005e-18 
  5382.6841   5.51631e-18 
  5384.8848   5.61592e-18 
  5387.0864   4.82343e-18 
  5389.2871   4.13834e-18 
  5391.4883    6.9903e-18 
  5393.6895   5.42427e-18 
  5395.8906   5.53093e-18 
  5398.0913   5.40144e-18 
  5400.2925   5.36695e-18 
  5402.4932   7.08354e-18 
  5404.6943   8.59896e-18 
   5406.895   4.83169e-18 
  5409.0962   3.34175e-18 
  5411.2969   6.34172e-18 
  5413.4976   6.27812e-18 
  5415.6982   5.35148e-18 
  5417.8989   4.81056e-18 
  5420.0996   5.48345e-18 
  5422.3003   6.46132e-18 
   5424.501   4.20002e-18 
  5426.7017   3.84365e-18 
  5428.9023   6.80326e-18 
   5431.103   4.05801e-18 
  5433.3037   5.83773e-18 
  5435.5039   6.95748e-18 
  5437.7046   6.37433e-18 
  5439.9048    3.5908e-18 
  5442.1055   4.30905e-18 
  5444.3057   6.60442e-18 
  5446.5059   4.95387e-18 
  5448.7065   4.83237e-18 
  5450.9067   4.83636e-18 
  5453.1069   6.20974e-18 
  5455.3071   5.00201e-18 
  5457.5073   4.81113e-18 
  5459.7075   4.35373e-18 
  5461.9077    4.1794e-18 
  5464.1074   4.66293e-18 
  5466.3076   8.46299e-18 
  5468.5078   6.09701e-18 
  5470.7075   5.47933e-18 
  5472.9077   4.28733e-18 
  5475.1074   4.55648e-18 
  5477.3076   5.93447e-18 
  5479.5073   3.68567e-18 
   5481.707   5.73848e-18 
  5483.9067   5.37761e-18 
  5486.1064   4.14079e-18 
  5488.3062   3.47374e-18 
  5490.5059   3.21249e-18 
  5492.7056   6.32056e-18 
  5494.9053   4.79573e-18 
   5497.105   5.75107e-18 
  5499.3042   3.81614e-18 
  5501.5039   5.04475e-18 
  5503.7036   5.95815e-18 
  5505.9028   5.08089e-18 
  5508.1025    4.0752e-18 
  5510.3018   4.46317e-18 
   5512.501   7.00889e-18 
  5514.7002   4.31708e-18 
  5516.8994   4.26029e-18 
  5519.0986   5.30121e-18 
  5521.2979   4.73897e-18 
  5523.4971   5.71447e-18 
  5525.6963   4.80516e-18 
  5527.8955   5.39495e-18 
  5530.0947   4.01808e-18 
  5532.2935   3.75756e-18 
  5534.4927   7.27074e-18 
  5536.6914   7.92387e-18 
  5538.8901   6.38883e-18 
  5541.0894   1.13933e-17 
  5543.2881   5.60214e-18 
  5545.4868   3.67559e-18 
  5547.6855   5.51923e-18 
  5549.8843   5.33608e-18 
   5552.083   4.40686e-18 
  5554.2817   5.14601e-18 
  5556.4805   3.11574e-18 
  5558.6792   3.45254e-18 
  5560.8774   4.51439e-18 
  5563.0762   5.80414e-18 
  5565.2744   4.97591e-18 
  5567.4727   4.76649e-18 
  5569.6714   2.74258e-18 
  5571.8696   4.93154e-18 
  5574.0679   6.69668e-18 
  5576.2661   1.08769e-17 
  5578.4648   4.63017e-18 
  5580.6626   7.88601e-18 
  5582.8608   5.57837e-18 
  5585.0591   4.54045e-18 
  5587.2573   7.60592e-18 
  5589.4551   1.27761e-18 
  5591.6533   5.62973e-18 
  5593.8511   5.39083e-18 
  5596.0493   5.01305e-18 
  5598.2471    4.0126e-18 
  5600.4453   4.72906e-18 
  5602.6431   4.82077e-18 
  5604.8408   4.03812e-18 
  5607.0386   4.05079e-18 
  5609.2363   3.31601e-18 
  5611.4341   8.27866e-18 
  5613.6313    5.3205e-18 
  5615.8291   6.31923e-18 
  5618.0269   2.66971e-18 
  5620.2241   2.75477e-18 
  5622.4219   3.25765e-18 
  5624.6191   3.71426e-18 
  5626.8164   3.12933e-18 
  5629.0142   1.79392e-18 
  5631.2114   5.10459e-18 
  5633.4087    2.4701e-18 
   5635.606   7.10727e-18 
  5637.8032   4.64493e-18 
  5640.0005   2.39868e-18 
  5642.1973    3.1013e-18 
  5644.3945   3.42799e-18 
  5646.5918   3.23066e-18 
  5648.7886   3.24701e-18 
  5650.9858   5.97572e-18 
  5653.1826   3.06596e-18 
   5653.564   3.65251e-18 
  5654.7129   5.56073e-18 
  5655.8618   6.73825e-19 
  5657.0103   4.82714e-18 
  5658.1592   7.95465e-18 
  5659.3076   6.04508e-19 
  5660.4565   4.96302e-18 
  5661.6055   8.56991e-18 
  5662.7544   1.45708e-18 
  5663.9033   2.29905e-18 
  5665.0518   3.10158e-18 
  5666.2007   1.39804e-18 
  5667.3496   4.89932e-18 
  5668.4985   4.00268e-18 
  5674.2432   6.87915e-18 
  5675.3926   6.08741e-18 
  5676.5415   4.24633e-19 
  5677.6904    7.1445e-18 
  5678.8394   7.02341e-18 
  5679.9888   3.09423e-18 
  5681.1377   6.85364e-18 
  5682.2866   5.51305e-18 
   5683.436    3.9118e-18 
   5684.585   6.99917e-18 
  5685.7344   5.92472e-18 
  5686.8833   7.29143e-18 
  5688.0327   8.00501e-18 
  5689.1821   8.72273e-18 
  5690.3311   3.84525e-18 
  5691.4805   4.71994e-18 
  5692.6299   2.88428e-18 
  5693.7788   2.41429e-18 
  5694.9282   3.48588e-18 
  5696.0776   4.62437e-18 
  5697.2271   4.54716e-18 
  5698.3765   4.16346e-18 
  5699.5259   7.41133e-18 
  5700.6753   9.34769e-18 
  5701.8247   2.69228e-18 
  5702.9741   5.92042e-18 
  5704.1235   2.33479e-18 
  5705.2729   3.96721e-18 
  5706.4224   8.25873e-18 
  5707.5723   4.33207e-18 
  5708.7217   5.99363e-18 
  5709.8711   2.09897e-18 
   5711.021   3.81426e-18 
  5712.1704   4.89743e-18 
  5713.3198   3.20818e-18 
  5714.4697    8.3253e-18 
  5715.6191   4.94737e-18 
   5716.769   7.18921e-18 
  5717.9185   6.76768e-18 
  5719.0684   5.78256e-18 
  5720.2183   6.41353e-18 
  5721.3682   3.22257e-18 
  5722.5176   9.71439e-19 
  5723.6675   2.77588e-18 
  5724.8174   6.76626e-18 
  5725.9673   1.00274e-17 
  5727.1172   2.30628e-18 
  5728.2671    5.6131e-18 
   5729.417    7.0806e-18 
  5730.5669   6.37884e-18 
  5731.7168   6.21035e-18 
  5732.8672   6.01191e-18 
  5734.0171   4.77498e-18 
   5735.167   5.28846e-18 
  5736.3169   4.29395e-18 
  5737.4673   2.04812e-18 
  5738.6172   5.03367e-18 
  5739.7671    5.1881e-18 
  5740.9175   5.29832e-18 
  5742.0679   7.14458e-18 
  5743.2178   4.88726e-18 
  5744.3682   6.49454e-18 
  5745.5181   6.60685e-19 
  5746.6685    2.9967e-18 
  5747.8188   4.32826e-18 
  5748.9692   4.23069e-18 
  5750.1196   2.52246e-18 
    5751.27   3.13019e-18 
  5752.4204   6.72516e-18 
  5753.5708    4.7494e-18 
  5754.7212    5.8952e-18 
  5755.8716   4.73584e-18 
   5757.022   6.68072e-19 
  5758.1724    3.1743e-18 
  5759.3228   3.09991e-18 
  5760.4736   3.49101e-18 
   5761.624   5.23588e-18 
  5762.7744  -1.15587e-19 
  5763.9253   9.12712e-19 
  5765.0757   3.25269e-18 
  5766.2266   3.56504e-18 
   5767.377   1.05225e-17 
  5768.5278   8.84158e-18 
  5769.6787   4.82338e-18 
  5770.8291   3.97983e-18 
    5771.98   3.98416e-18 
  5773.1309   8.96806e-18 
  5774.2817   5.36081e-18 
  5775.4326   9.24193e-18 
  5776.5835   4.13661e-18 
  5777.7344   5.48615e-18 
  5778.8853   4.01783e-18 
  5780.0361   7.01522e-18 
   5781.187   3.95459e-18 
  5782.3379   4.98332e-18 
  5783.4893   8.52289e-18 
  5784.6401   4.33883e-18 
   5785.791   6.49622e-18 
  5786.9424   5.85022e-18 
  5788.0933   4.46695e-18 
  5789.2446   4.75782e-18 
  5790.3955   5.14561e-18 
  5791.5469   2.12762e-18 
  5792.6982   8.78396e-18 
  5793.8491   4.74442e-18 
  5795.0005  -1.52438e-19 
  5796.1519   2.51519e-18 
  5797.3032   8.97302e-18 
  5798.4546   6.58706e-18 
   5799.606   7.56774e-18 
  5800.7573   5.80053e-18 
  5801.9087   7.15011e-18 
  5803.0601   6.03533e-18 
  5804.2119   7.22226e-18 
  5805.3633   3.90654e-18 
  5806.5146   7.62396e-19 
  5807.6665   1.20935e-18 
  5808.8179   4.41758e-18 
  5809.9692   8.56236e-18 
  5811.1211   6.78455e-18 
  5812.2725   5.14829e-18 
  5813.4243    3.8416e-18 
  5814.5762   1.64826e-18 
   5815.728   7.02531e-18 
  5816.8794   2.09631e-18 
  5818.0312   5.92882e-18 
  5819.1831   3.63392e-18 
   5820.335   3.65839e-18 
  5821.4868   3.53898e-18 
  5822.6387   3.70214e-18 
   5823.791   2.38706e-18 
  5824.9429   3.48131e-18 
  5826.0947   3.06673e-18 
  5827.2466   5.16963e-18 
  5828.3989   2.30464e-18 
  5829.5508   5.16832e-18 
  5830.7031   3.91885e-18 
   5831.855   4.48942e-18 
  5833.0073   5.40948e-18 
  5834.1592   5.87789e-18 
  5835.3115   8.17532e-18 
  5836.4639   3.49053e-18 
  5837.6162   4.12675e-18 
  5838.7681   4.49953e-18 
  5839.9204   2.25627e-18 
  5841.0728   8.00492e-18 
  5842.2251   6.00264e-18 
  5843.3779   2.97543e-18 
  5844.5303   4.02023e-18 
  5845.6826   4.08759e-18 
   5846.835    4.9853e-18 
  5847.9873   7.13241e-18 
  5849.1401   7.64301e-18 
  5850.2925   3.42113e-18 
  5851.4453   6.95277e-18 
  5852.5977   7.62778e-18 
  5853.7505   4.38974e-18 
  5854.9033   5.23198e-18 
  5856.0557   1.09796e-17 
  5857.2085   7.03195e-18 
  5858.3613   1.09906e-17 
  5859.5142   1.34066e-17 
   5860.667   9.72696e-18 
  5861.8198   1.25368e-17 
  5862.9727   1.28187e-17 
  5864.1255   9.15857e-18 
  5865.2783   8.67767e-18 
  5866.4316   4.42107e-18 
  5867.5845   2.75245e-18 
  5868.7373    3.8034e-18 
  5869.8906   3.22037e-18 
  5871.0435   5.49979e-18 
  5872.1968   3.39043e-18 
  5873.3496   4.33886e-18 
  5874.5029   4.92845e-18 
  5875.6562   7.51837e-18 
  5876.8096    6.7454e-18 
  5877.9629   5.96928e-18 
  5879.1162   4.84739e-18 
  5880.2695    3.9933e-18 
  5881.4224     3.978e-18 
  5882.5762   3.07807e-18 
  5883.7295   4.81315e-18 
  5884.8828    8.2127e-18 
  5886.0361    4.8958e-18 
  5887.1899   3.10904e-18 
  5888.3433   3.74631e-18 
  5889.4971   3.65835e-18 
  5890.6504   4.80201e-18 
  5891.8042   1.02808e-17 
  5892.9575   1.07686e-17 
  5894.1113   7.53162e-18 
  5895.2651   5.99016e-18 
  5896.4189   4.34123e-18 
  5897.5728   5.30894e-18 
  5898.7266   7.13016e-18 
  5899.8804   3.13463e-18 
  5901.0342   4.05349e-18 
   5902.188   6.92952e-18 
  5903.3418   6.10041e-18 
  5904.4956   5.29272e-18 
  5905.6499   4.69094e-18 
  5906.8037   4.79882e-18 
   5907.958   6.31566e-18 
  5909.1118   6.47403e-18 
  5910.2661   4.79069e-18 
  5911.4199   6.88203e-18 
  5912.5742   3.39761e-18 
  5913.7285   7.12177e-18 
  5914.8828   3.86687e-18 
  5916.0371   8.49637e-18 
  5917.1914   6.77682e-18 
  5918.3457   7.95245e-18 
     5919.5   5.47692e-18 
  5920.6543   3.83102e-18 
  5921.8086   6.48299e-18 
  5922.9629    3.1138e-18 
  5924.1177   7.24827e-18 
   5925.272   4.00637e-18 
  5926.4268   7.20051e-18 
  5927.5811   5.83212e-18 
  5928.7358   8.41487e-18 
  5929.8906   6.67923e-18 
  5931.0449   1.01708e-17 
  5932.1997   1.04465e-17 
  5933.3545   5.41817e-18 
  5934.5093     7.618e-18 
  5935.6641   4.89846e-18 
  5936.8188   4.90559e-18 
  5937.9736   7.36213e-18 
  5939.1284   2.90548e-18 
  5940.2837   5.62615e-18 
  5941.4385   8.04612e-18 
  5942.5933   4.00864e-18 
  5943.7485   7.73644e-18 
  5944.9033   6.71648e-18 
  5946.0586   5.95905e-18 
  5947.2134   6.27578e-18 
  5948.3687   9.29419e-18 
  5949.5239    7.3451e-18 
  5950.6792   5.00455e-18 
  5951.8345   8.64553e-18 
  5952.9897   4.73512e-18 
   5954.145   5.71194e-18 
  5955.3003   5.13153e-18 
  5956.4556   7.16709e-18 
  5957.6108   3.51561e-18 
  5958.7666   6.76489e-18 
  5959.9219   6.61546e-18 
  5961.0776   6.62825e-18 
  5962.2329   6.98161e-18 
  5963.3882   3.48787e-18 
  5964.5439   6.33178e-18 
  5965.6997   9.59031e-18 
  5966.8555   1.77654e-18 
  5968.0112   5.15381e-18 
  5969.1665   9.29759e-18 
  5970.3223   4.46047e-18 
  5971.4785   5.40714e-18 
  5972.6343   7.03242e-18 
    5973.79   5.55568e-18 
  5974.9458   5.18221e-18 
  5976.1016   4.94833e-18 
  5977.2578   5.26112e-18 
  5978.4136   3.88564e-18 
  5979.5698   5.83366e-18 
  5980.7256   8.66944e-18 
  5981.8818   5.62063e-18 
  5983.0381   4.05935e-18 
  5984.1938   5.85128e-18 
  5985.3501   6.73256e-18 
  5986.5063   8.12318e-18 
  5987.6626   5.59627e-18 
  5988.8188   5.31939e-18 
  5989.9751   8.89552e-18 
  5991.1318   7.38019e-18 
  5992.2881   4.90025e-18 
  5993.4443    6.7065e-18 
  5994.6011   8.51308e-18 
  5995.7573   7.69584e-18 
  5996.9136   7.02538e-18 
  5998.0703   6.86421e-18 
  5999.2271   6.46694e-18 
  6000.3838    5.8254e-18 
    6001.54   6.07295e-18 
  6002.6968   1.12865e-17 
  6003.8535   7.20497e-18 
  6005.0103    5.9318e-18 
   6006.167   5.70525e-18 
  6007.3242    5.1856e-18 
   6008.481   5.59716e-18 
  6009.6377   6.89843e-18 
  6010.7944   7.01042e-18 
  6011.9517   5.68769e-18 
  6013.1084   6.13302e-18 
  6014.2656   3.09721e-18 
  6015.4224    9.6895e-18 
  6016.5796   9.96325e-18 
  6017.7368   7.35646e-18 
   6018.894   7.00929e-18 
  6020.0513   7.27523e-18 
  6021.2085   7.62998e-18 
  6022.3657   5.86731e-18 
  6023.5229    7.8778e-18 
  6024.6802   5.53076e-18 
  6025.8374   1.06375e-17 
  6026.9951   9.65977e-18 
  6028.1523   7.58532e-18 
  6029.3101    7.9464e-18 
  6030.4673   5.15471e-18 
   6031.625    6.0504e-18 
  6032.7822   5.35463e-18 
  6033.9399   1.12505e-17 
  6035.0977   4.02652e-18 
  6036.2554   8.42805e-18 
  6037.4131   9.02674e-18 
  6038.5708   7.42919e-18 
  6039.7285   7.37262e-18 
  6040.8862   4.74221e-18 
  6042.0444   9.32841e-18 
  6043.2021   7.70392e-18 
  6044.3599   6.12836e-18 
  6045.5181   7.17465e-18 
  6046.6758   6.67577e-18 
   6047.834   6.92934e-18 
  6048.9917   8.97652e-18 
  6050.1499   8.30867e-18 
  6051.3081   6.24827e-18 
  6052.4663   6.57378e-18 
  6053.6245   1.05212e-17 
  6054.7827    7.3007e-18 
  6055.9409   5.85856e-18 
  6057.0991   7.92986e-18 
  6058.2573   6.06835e-18 
   6059.416   9.66083e-18 
  6060.5742   7.89701e-18 
  6061.7324   6.95441e-18 
  6062.8911    6.7365e-18 
  6064.0498   5.79965e-18 
   6065.208   1.08437e-17 
  6066.3667   8.96187e-18 
  6067.5254   9.20993e-18 
  6068.6841   8.29493e-18 
  6069.8428   9.49823e-18 
  6071.0015   9.12912e-18 
  6072.1602      1.08e-17 
  6073.3188   6.96958e-18 
  6074.4775   5.03818e-18 
  6075.6367   1.23656e-17 
  6076.7954    8.8868e-18 
  6077.9541   6.70331e-18 
  6079.1133   5.35694e-18 
   6080.272   7.20861e-18 
  6081.4312   5.82234e-18 
  6082.5903   5.13197e-18 
  6083.7495   7.22417e-18 
  6084.9087   9.00423e-18 
  6086.0674   1.01237e-17 
  6087.2266   1.11524e-17 
  6088.3862   7.86901e-18 
  6089.5454   6.06808e-18 
  6090.7046   7.89048e-18 
  6091.8638   6.49023e-18 
  6093.0234   6.22194e-18 
  6094.1826    7.8232e-18 
  6095.3423   6.50955e-18 
  6096.5015   6.96416e-18 
  6097.6611   1.08488e-17 
  6098.8208    7.6586e-18 
  6099.9805   1.09355e-17 
  6101.1401   9.58791e-18 
  6102.2993   8.88664e-18 
   6103.459   1.00758e-17 
  6104.6191   9.94088e-18 
  6105.7788   1.18483e-17 
  6106.9385   8.42366e-18 
  6108.0981   9.03056e-18 
  6109.2583   5.88699e-18 
   6110.418    6.7719e-18 
  6111.5781   1.00671e-17 
  6112.7378   9.38568e-18 
  6113.8979   9.80558e-18 
  6115.0581   9.15287e-18 
  6116.2183   8.64093e-18 
  6117.3784   8.28698e-18 
  6118.5386   8.34237e-18 
  6119.6987   8.35149e-18 
  6120.8589   4.28431e-18 
   6122.019    1.0311e-17 
  6123.1792   8.19939e-18 
  6124.3398   7.29497e-18 
     6125.5   6.48138e-18 
  6126.6602   9.00317e-18 
  6127.8208   8.46244e-18 
  6128.9814   6.08386e-18 
  6130.1416   8.84296e-18 
  6131.3022    6.6987e-18 
  6132.4629   6.77168e-18 
  6133.6235   1.07851e-17 
  6134.7842    7.6179e-18 
  6135.9448   8.77283e-18 
  6137.1055   6.21667e-18 
  6138.2666   7.39038e-18 
  6139.4272    9.5293e-18 
  6140.5879   7.88109e-18 
   6141.749   6.47513e-18 
  6142.9097   1.04232e-17 
  6144.0708    1.0407e-17 
  6145.2314   9.33953e-18 
  6146.3926   9.43376e-18 
  6147.5537   8.66132e-18 
  6148.7148   8.09386e-18 
   6149.876   8.23228e-18 
  6151.0371   7.67849e-18 
  6152.1982   9.17743e-18 
  6153.3594   1.07756e-17 
  6154.5205   6.08223e-18 
  6155.6821   8.56664e-18 
  6156.8433   9.19304e-18 
  6158.0049   7.54813e-18 
   6159.166   7.63784e-18 
  6160.3276   8.76936e-18 
  6161.4888   7.59871e-18 
  6162.6504   6.15374e-18 
   6163.812   6.86238e-18 
  6164.9736   8.88529e-18 
  6166.1353    6.1701e-18 
  6167.2969   6.30077e-18 
  6168.4585    8.4879e-18 
  6169.6201   1.26348e-17 
  6170.7822   6.77708e-18 
  6171.9438   9.42461e-18 
  6173.1055   6.27405e-18 
  6174.2676   5.40036e-18 
  6175.4297   9.49739e-18 
  6176.5913   9.21589e-18 
  6177.7534   7.55284e-18 
  6178.9155    9.1113e-18 
  6180.0776   6.84279e-18 
  6181.2397   5.63449e-18 
  6182.4019   6.55673e-18 
   6183.564   5.02495e-18 
  6184.7261   1.06227e-17 
  6185.8882   7.29595e-18 
  6187.0503    9.0908e-18 
  6188.2129   5.27893e-18 
   6189.375   5.44332e-18 
  6190.5376   9.37806e-18 
  6191.7002   5.74063e-18 
  6192.8623   8.30282e-18 
  6194.0249   1.01844e-17 
  6195.1875   7.79612e-18 
  6196.3501   7.60916e-18 
  6197.5127   5.91941e-18 
  6198.6753   1.00811e-17 
  6199.8379   7.96103e-18 
  6201.0005    9.0347e-18 
  6202.1631   8.96105e-18 
  6203.3262   1.06634e-17 
  6204.4888   7.61337e-18 
  6205.6519   7.10411e-18 
  6206.8145   8.89744e-18 
  6207.9775   9.40234e-18 
  6209.1406   6.55725e-18 
  6210.3037    5.7729e-18 
  6211.4663   1.12325e-17 
  6212.6294    9.9949e-18 
  6213.7925   5.42695e-18 
  6214.9556   6.11269e-18 
  6216.1191   1.00848e-17 
  6217.2822   9.00883e-18 
  6218.4453   7.21677e-18 
  6219.6089   4.34211e-18 
   6220.772    5.8488e-18 
  6221.9355   8.79557e-18 
  6223.0986   9.38642e-18 
  6224.2622   7.89186e-18 
  6225.4258   9.16193e-18 
  6226.5894   1.09046e-17 
  6227.7529   1.05873e-17 
  6228.9165   8.39626e-18 
  6230.0801   7.59366e-18 
  6231.2437   6.17162e-18 
  6232.4072   7.09482e-18 
  6233.5708    9.2699e-18 
  6234.7349   8.88597e-18 
  6235.8984   6.19208e-18 
  6237.0625   9.22097e-18 
  6238.2261   6.53559e-18 
  6239.3901   5.35648e-18 
  6240.5542   7.28789e-18 
  6241.7178   5.19787e-18 
  6242.8818    7.3706e-18 
  6244.0459   6.39672e-18 
    6245.21   6.42803e-18 
   6246.374   6.79861e-18 
  6247.5386   6.66594e-18 
  6248.7026   5.58943e-18 
  6249.8667   6.36461e-18 
  6251.0312   6.95729e-18 
  6252.1953   7.63766e-18 
  6253.3599   5.51435e-18 
  6254.5239   6.82413e-18 
  6255.6885   1.03255e-17 
   6256.853   9.31775e-18 
  6258.0176   6.73814e-18 
  6259.1821   6.04629e-18 
  6260.3467   9.11329e-18 
  6261.5112   7.11121e-18 
  6262.6758   6.13213e-18 
  6263.8403   5.50768e-18 
  6265.0049   9.58595e-18 
  6266.1699   6.13554e-18 
  6267.3345   7.79785e-18 
  6268.4995   9.77956e-18 
  6269.6641   6.09642e-18 
  6270.8291   6.95902e-18 
  6271.9941   9.95965e-18 
  6273.1592   5.48805e-18 
  6274.3242   5.06863e-18 
  6275.4888    4.3978e-18 
  6276.6538   7.05593e-18 
  6277.8193   7.04989e-18 
  6278.9844   6.04063e-18 
  6280.1494    5.4965e-18 
  6281.3149   5.51554e-18 
    6282.48   5.38057e-18 
   6283.645   4.53557e-18 
  6284.8105   8.93558e-18 
  6285.9761   5.91983e-18 
  6287.1411   8.34538e-18 
  6288.3066   8.11579e-18 
  6289.4722    8.6131e-18 
  6290.6377   6.38356e-18 
  6291.8032   7.36713e-18 
  6292.9688   3.23706e-18 
  6294.1343   6.56553e-18 
  6295.2998   3.26209e-18 
  6296.4658   5.26431e-18 
  6297.6313   1.36901e-17 
  6298.7969   6.82617e-18 
  6299.9629   7.13288e-18 
  6301.1289   1.16604e-18 
  6302.2944   4.02833e-18 
  6303.4604   4.52528e-18 
  6304.6265   5.58093e-18 
  6305.7925   8.65186e-18 
  6306.9585   6.31122e-18 
  6308.1245   8.58938e-18 
  6309.2905    8.1281e-18 
  6310.4565   7.85095e-18 
  6311.6226   5.51163e-18 
  6312.7891   6.41054e-18 
  6313.9551   3.86813e-18 
  6315.1216   5.98285e-18 
  6316.2876   6.27055e-18 
  6317.4541   3.59893e-18 
  6318.6206   5.89102e-18 
  6319.7871   8.35863e-18 
  6320.9531    6.4894e-18 
  6322.1196   8.03275e-18 
  6323.2861    7.4478e-18 
  6324.4531   4.32305e-18 
  6325.6196   7.94191e-18 
  6326.7861   6.83575e-18 
  6327.9526   6.44974e-18 
  6329.1196   7.14904e-18 
  6330.2861   5.49235e-18 
  6331.4531   8.62939e-18 
  6332.6196   6.15814e-18 
  6333.7866   3.71107e-18 
  6334.9536   4.79633e-18 
  6336.1206   4.33176e-18 
  6337.2871   6.04746e-18 
  6338.4541   5.22405e-18 
  6339.6211    5.6397e-18 
  6340.7886    6.3447e-18 
  6341.9556   5.48883e-18 
  6343.1226   6.37396e-18 
    6344.29   6.00274e-18 
   6345.457   4.12392e-18 
   6346.624   6.15278e-18 
  6347.7915   3.97239e-18 
   6348.959   7.24365e-18 
   6350.126   8.44951e-18 
  6351.2935   5.22127e-18 
  6352.4609   5.18368e-18 
  6353.6284   5.51225e-18 
  6354.7959   8.69893e-18 
  6355.9634   7.46368e-18 
  6357.1309   4.60382e-18 
  6358.2988   4.63239e-18 
  6359.4663    8.6103e-18 
  6360.6338   2.76698e-18 
  6361.8018   5.47683e-18 
  6362.9692    8.9131e-18 
  6364.1372   6.56112e-18 
  6365.3047   6.60837e-18 
  6366.4727   5.33794e-18 
  6367.6406   5.55298e-18 
  6368.8086   5.55622e-18 
  6369.9766    5.6703e-18 
  6371.1445   6.33745e-18 
  6372.3125   5.21113e-18 
  6373.4805   6.06769e-18 
  6374.6489    6.4735e-18 
  6375.8169   8.24196e-18 
  6376.9849   7.03114e-18 
  6378.1533   5.63495e-18 
  6379.3213   5.24122e-18 
  6380.4897   6.96441e-18 
  6381.6582   5.52578e-18 
  6382.8267   4.33773e-18 
  6383.9951   6.43004e-18 
  6385.1631     4.543e-18 
   6386.332   4.86941e-18 
  6387.5005   5.64115e-18 
  6388.6689   4.50015e-18 
  6389.8374   5.81747e-18 
  6391.0059   5.73341e-18 
  6392.1748   4.69987e-18 
  6393.3433   4.83092e-18 
  6394.5122   5.63709e-18 
  6395.6807    4.2738e-18 
  6396.8496   7.08106e-18 
  6398.0181   6.42646e-18 
   6399.187   4.80898e-18 
   6400.356   7.87328e-18 
  6401.5249   6.09092e-18 
  6402.6938   4.89476e-18 
  6403.8628   4.27835e-18 
  6405.0322   4.24672e-18 
  6406.2012   7.57704e-18 
  6407.3701   6.86936e-18 
  6408.5391   3.88839e-18 
  6409.7085   6.30717e-18 
  6410.8779   5.59724e-18 
  6412.0469   7.31941e-18 
  6413.2163   7.08324e-18 
  6414.3857   7.18927e-18 
  6415.5547   6.03796e-18 
  6416.7241   6.63444e-18 
   6417.894   6.31187e-18 
   6419.063   5.58091e-18 
  6420.2329   5.16373e-18 
  6421.4023   5.33633e-18 
  6422.5718   2.56766e-18 
  6423.7412   4.72021e-18 
  6424.9111   6.79167e-18 
  6426.0806   6.48529e-18 
  6427.2505   4.85103e-18 
  6428.4204   6.34827e-18 
  6429.5898   4.61916e-18 
  6430.7598   4.30661e-18 
  6431.9297   5.53548e-18 
  6433.0996    8.5443e-18 
  6434.2695   4.28694e-18 
  6435.4395   3.24153e-18 
  6436.6094   6.52986e-18 
  6437.7793   6.80379e-18 
  6438.9497   6.60286e-18 
  6440.1196   5.80147e-18 
    6441.29   6.32404e-18 
    6442.46   1.00023e-17 
  6443.6299    7.8053e-18 
  6444.8003   8.10631e-18 
  6445.9707   7.35859e-18 
  6447.1411   6.44502e-18 
  6448.3115   2.81484e-18 
  6449.4819   4.26432e-18 
  6450.6523   6.76591e-18 
  6451.8228   6.38268e-18 
  6452.9932   6.73322e-18 
  6454.1636   5.92277e-18 
   6455.334   5.26724e-18 
  6456.5049   6.30456e-18 
  6457.6753   9.56222e-18 
  6458.8462    4.8692e-18 
  6460.0166   3.57834e-18 
  6461.1875   2.79974e-18 
  6462.3584    8.1213e-18 
  6463.5293   5.48744e-18 
  6464.6997   5.83737e-18 
  6465.8706   7.55196e-18 
  6467.0415    7.0471e-18 
  6468.2129   3.99199e-18 
  6469.3838   7.77439e-18 
  6470.5547   9.07631e-18 
  6471.7256   4.42997e-18 
   6472.897   7.60415e-18 
  6474.0679   5.47005e-18 
  6475.2393   6.86645e-18 
  6476.4102   7.15652e-18 
  6477.5815   6.49678e-18 
  6478.7529   6.93284e-18 
  6479.9243   6.14773e-18 
  6481.0952   4.74727e-18 
  6482.2666   3.62178e-18 
   6483.438   6.16917e-18 
  6484.6094    5.2946e-18 
  6485.7812   6.70141e-18 
  6486.9526   3.85508e-18 
   6488.124   8.39765e-18 
  6489.2959   4.90825e-18 
  6490.4673   5.72372e-18 
  6491.6392   5.63162e-18 
  6492.8105   6.37263e-18 
  6493.9824   7.69574e-18 
  6495.1543   6.72129e-18 
  6496.3257     4.518e-18 
  6497.4976   5.60863e-18 
  6498.6694   1.18705e-18 
  6499.8413   5.32909e-18 
  6501.0132   6.71462e-18 
  6502.1855   3.85321e-18 
  6503.3574   6.50962e-18 
  6504.5293   8.36204e-18 
  6505.7017   6.09643e-18 
  6506.8735   6.23527e-18 
  6508.0459   4.92166e-18 
  6509.2178   6.02729e-18 
  6510.3901   7.10319e-18 
  6511.5625   8.27861e-18 
  6512.7344   4.71724e-18 
  6513.9067   6.04324e-18 
  6515.0791   5.45689e-18 
  6516.2515   7.36873e-18 
  6517.4238   7.93563e-18 
  6518.5967   3.82515e-18 
   6519.769   6.66404e-18 
  6520.9414   6.05685e-18 
  6522.1138   6.26567e-18 
  6523.2866   7.84553e-18 
   6524.459   3.76245e-18 
  6525.6318   6.88577e-18 
  6526.8047   8.28036e-18 
  6527.9775   6.48327e-18 
  6529.1499   5.78284e-18 
  6530.3228   2.06759e-18 
  6531.4956   8.73492e-18 
  6532.6685   9.68321e-18 
  6533.8413   3.41841e-18 
  6535.0142    7.5293e-18 
  6536.1875   3.51712e-18 
  6537.3604   8.35957e-18 
  6538.5332   3.39218e-18 
  6539.7065   8.27195e-18 
  6540.8794   6.31463e-18 
  6542.0527   6.88886e-18 
  6543.2256   7.31302e-18 
  6544.3989   4.70316e-18 
  6545.5723   4.91577e-18 
  6546.7456   7.45492e-18 
  6547.9189   7.98095e-18 
  6549.0923   5.25456e-18 
  6550.2656   6.79136e-18 
   6551.439   5.47435e-18 
  6552.6123   5.19928e-18 
  6553.7856   8.61434e-18 
  6554.9595   6.61791e-18 
  6556.1328   7.45512e-18 
  6557.3066    5.9491e-18 
    6558.48   7.95589e-18 
  6559.6538   1.31722e-17 
  6560.8276   1.61036e-17 
   6562.001   2.35426e-17 
  6563.1748    2.5504e-17 
  6564.3486   2.47295e-17 
  6565.5225   1.86949e-17 
  6566.6963   1.45304e-17 
  6567.8701   1.18014e-17 
  6569.0439   5.27465e-18 
  6570.2183   7.38593e-18 
  6571.3921   6.03658e-18 
  6572.5659   6.01237e-18 
  6573.7402   6.46276e-18 
  6574.9141   2.94455e-18 
  6576.0884   6.24754e-18 
  6577.2627   9.32594e-18 
  6578.4365   2.48306e-18 
  6579.6108   6.83562e-18 
  6580.7852   5.42526e-18 
  6581.9595   3.76359e-18 
  6583.1338   7.38665e-18 
  6584.3081   6.15587e-18 
  6585.4824   6.01763e-18 
  6586.6567   5.32796e-18 
  6587.8315   4.81172e-18 
  6589.0059   6.75591e-18 
  6590.1802   3.09226e-18 
   6591.355   5.59568e-18 
  6592.5293   7.18044e-18 
  6593.7041   1.06758e-17 
  6594.8789   4.40088e-18 
  6596.0537   5.97954e-18 
   6597.228   5.82356e-18 
  6598.4028   3.52832e-18 
  6599.5776   5.35353e-18 
  6600.7524   3.86751e-18 
  6601.9277    5.5185e-18 
  6603.1025   4.14874e-18 
  6604.2773   4.58812e-18 
  6605.4521   7.41802e-18 
  6606.6274    7.3357e-18 
  6607.8022   7.22608e-18 
  6608.9775   6.30773e-18 
  6610.1523   7.78783e-18 
  6611.3276   4.51683e-18 
  6612.5029   6.02747e-18 
  6613.6777   4.63123e-18 
   6614.853   5.99844e-18 
  6616.0283   5.44608e-18 
  6617.2036    6.1615e-18 
  6618.3789   5.75683e-18 
  6619.5542   4.39865e-18 
    6620.73   5.68962e-18 
  6621.9053   4.64481e-18 
  6623.0806   7.16237e-18 
  6624.2559   6.49906e-18 
  6625.4316   6.03977e-18 
  6626.6074   6.97085e-18 
  6627.7827   5.44747e-18 
  6628.9585   6.89181e-18 
  6630.1343   4.45723e-18 
  6631.3096   6.11441e-18 
  6632.4854   5.89717e-18 
  6633.6611   7.09356e-18 
  6634.8369    7.5903e-18 
  6636.0127   6.36722e-18 
  6637.1885   4.28927e-18 
  6638.3647   5.06698e-18 
  6639.5405   6.54483e-18 
  6640.7163   5.67583e-18 
  6641.8926   6.11085e-18 
  6643.0684   4.90284e-18 
  6644.2446   7.72199e-18 
  6645.4204   4.98322e-18 
  6646.5967   6.64372e-18 
  6647.7729   6.29844e-18 
  6648.9492   6.17995e-18 
   6650.125   5.83755e-18 
  6651.3013   3.42818e-18 
   6652.478   7.31623e-18 
  6653.6543     7.472e-18 
  6654.8306   5.39471e-18 
  6656.0068   6.70941e-18 
  6657.1831   6.85717e-18 
  6658.3594   5.43028e-18 
  6659.5361   4.76041e-18 
  6660.7124   3.21332e-18 
  6661.8892   4.57346e-18 
  6663.0659   6.30684e-18 
  6664.2422   4.00828e-18 
  6665.4189   6.60984e-18 
  6666.5957   4.78948e-18 
  6667.7725   6.55964e-18 
  6668.9492   6.26947e-18 
   6670.126   5.34314e-18 
  6671.3027     3.501e-18 
  6672.4795   3.42502e-18 
  6673.6562   4.93374e-18 
   6674.833    5.0297e-18 
  6676.0103   7.60194e-18 
   6677.187   5.51342e-18 
  6678.3643   5.39485e-18 
   6679.541   5.38289e-18 
  6680.7183   6.88687e-18 
  6681.8955   5.77455e-18 
  6683.0723   5.80675e-18 
  6684.2495    4.7502e-18 
  6685.4268   6.82144e-18 
   6686.604   4.60872e-18 
  6687.7812   6.66018e-18 
  6688.9585   5.90977e-18 
  6690.1357   9.55323e-18 
   6691.313   1.81796e-17 
  6692.4907   3.07336e-17 
   6693.668   4.12262e-17 
  6694.8452   5.15816e-17 
  6696.0229   5.09085e-17 
  6697.2002   4.70573e-17 
  6698.3779   2.67476e-17 
  6699.5557   1.68036e-17 
  6700.7329   1.15182e-17 
  6701.9106   8.27469e-18 
  6703.0884   5.09111e-18 
  6704.2661   4.20379e-18 
  6705.4438    6.0593e-18 
  6706.6216   3.14438e-18 
  6707.7993   2.23797e-18 
  6708.9771   6.26598e-18 
  6710.1548   3.99404e-18 
   6711.333   4.18776e-18 
  6712.5107   6.91134e-18 
   6713.689   4.77433e-18 
  6714.8667   4.97874e-18 
  6716.0449   4.68241e-18 
  6717.2227   6.27561e-18 
  6718.4009   5.97868e-18 
  6719.5791   7.78588e-18 
  6720.7573   5.45682e-18 
  6721.9351   4.60546e-18 
  6723.1133   4.30673e-18 
  6724.2915   4.14154e-18 
  6725.4702   5.86586e-18 
  6726.6484   6.87064e-18 
  6727.8267   6.35646e-18 
  6729.0049   4.95704e-18 
  6730.1836   4.75963e-18 
  6731.3618   6.43346e-18 
    6732.54   6.25386e-18 
  6733.7188   3.90334e-18 
   6734.897   6.02895e-18 
  6736.0757   6.85141e-18 
  6737.2544   4.99964e-18 
  6738.4331   6.82878e-18 
  6739.6118   6.83649e-18 
  6740.7905   7.00121e-18 
  6741.9692    6.4462e-18 
  6743.1475   5.86766e-18 
  6744.3267   4.46488e-18 
  6745.5054   2.02019e-18 
  6746.6841   5.04617e-18 
  6747.8628   5.20057e-18 
   6749.042   7.06761e-18 
  6750.2207   4.97311e-18 
  6751.3999   8.51788e-18 
  6752.5786   6.11396e-18 
  6753.7578   7.13872e-18 
   6754.937   2.09177e-17 
  6756.1157   4.52717e-17 
  6757.2949   8.40223e-17 
  6758.4741   1.21904e-16 
  6759.6533   1.46475e-16 
  6760.8325   1.46173e-16 
  6762.0117   1.08309e-16 
  6763.1909   7.02827e-17 
  6764.3701   3.72614e-17 
  6765.5498   2.05224e-17 
   6766.729   1.13524e-17 
  6767.9082   9.70234e-18 
  6769.0879   6.58974e-18 
  6770.2671   8.49346e-18 
  6771.4468   4.14983e-18 
   6772.626   7.13754e-18 
  6773.8057   5.88484e-18 
  6774.9854   4.05418e-18 
   6776.165   4.48521e-18 
  6777.3447   5.57175e-18 
  6778.5239   5.86181e-18 
  6779.7036   5.95346e-18 
  6780.8838   5.35728e-18 
  6782.0635   6.53866e-18 
  6783.2432   3.76409e-18 
  6784.4229   5.78567e-18 
  6785.6025   6.86334e-18 
  6786.7827   5.50946e-18 
  6787.9624   6.93478e-18 
  6789.1426   5.08503e-18 
  6790.3223   4.92776e-18 
  6791.5024   5.13316e-18 
  6792.6826   4.18712e-18 
  6793.8623   2.96737e-18 
  6795.0425   5.16765e-18 
  6796.2227   4.94835e-18 
  6797.4028   5.95475e-18 
   6798.583   7.66235e-18 
  6799.7632   5.40266e-18 
  6800.9434   6.91093e-18 
  6802.1235   4.78594e-18 
  6803.3042   3.99595e-18 
  6804.4844   6.80036e-18 
  6805.6646    7.1423e-18 
  6806.8452   2.16867e-18 
  6808.0254    5.9124e-18 
  6809.2061   3.36908e-18 
  6810.3862   7.38083e-18 
  6811.5669    7.7281e-18 
  6812.7476   5.04919e-18 
  6813.9282   5.68776e-18 
  6815.1084   4.91598e-18 
  6816.2891   5.16461e-18 
  6817.4697   6.02347e-18 
  6818.6504    4.2811e-18 
  6819.8315   5.34404e-18 
  6821.0122    4.6862e-18 
  6822.1929   6.53524e-18 
  6823.3735   6.50304e-18 
  6824.5547   3.94106e-18 
  6825.7354   9.65373e-18 
   6826.916    7.2336e-18 
  6828.0972   6.14722e-18 
  6829.2783   5.93225e-18 
   6830.459   5.58236e-18 
  6831.6401   4.09324e-18 
  6832.8213   3.86806e-18 
  6834.0024   7.07612e-18 
  6835.1831   8.14483e-18 
  6836.3643   8.18129e-18 
  6837.5454   5.75781e-18 
  6838.7266   6.07894e-18 
  6839.9082   5.19647e-18 
  6841.0894   7.06037e-18 
  6842.2705   4.17433e-18 
  6843.4517   4.58442e-18 
  6844.6333   6.02953e-18 
  6845.8145    6.6279e-18 
  6846.9961   6.10935e-18 
  6848.1772   7.45902e-18 
  6849.3589   5.40085e-18 
  6850.5405   6.23687e-18 
  6851.7217   5.49585e-18 
  6852.9033   7.40838e-18 
   6854.085   6.17196e-18 
  6855.2666    5.6443e-18 
  6856.4482   5.71983e-18 
  6857.6299   3.75576e-18 
  6858.8115   4.62744e-18 
  6859.9932   7.69266e-18 
  6861.1748   2.58761e-18 
  6862.3569   9.15503e-18 
  6863.5386   5.86916e-18 
  6864.7202    9.8373e-18 
  6865.9023   6.24649e-18 
   6867.084   4.98629e-18 
  6868.2661   5.25756e-18 
  6869.4482   7.33435e-18 
  6870.6299   4.25764e-18 
   6871.812    8.6449e-18 
  6872.9941   6.65178e-18 
  6874.1763    7.6906e-18 
  6875.3584   6.00392e-18 
  6876.5405   5.93548e-18 
  6877.7227   6.32227e-18 
  6878.9048   5.14682e-18 
  6880.0869   9.51454e-18 
   6881.269   7.69544e-18 
  6882.4512    6.4881e-18 
  6883.6338   1.01912e-17 
  6884.8159   6.91869e-18 
  6885.9985   5.06532e-18 
  6887.1807   5.96445e-18 
  6888.3633   6.74267e-18 
  6889.5454   6.79709e-18 
   6890.728   7.18711e-18 
  6891.9106   5.25826e-18 
  6893.0928   7.69602e-18 
  6894.2754   4.49983e-18 
   6895.458   6.16113e-18 
  6896.6406   9.35981e-18 
  6897.8232    3.6177e-18 
  6899.0059   9.50303e-18 
   6900.189   6.88558e-18 
  6901.3716   8.67397e-18 
  6902.5542   6.59957e-18 
  6903.7368   6.08615e-18 
  6904.9199   8.11696e-18 
  6906.1025   5.95378e-18 
  6907.2856   6.84375e-18 
  6908.4683   5.55989e-18 
  6909.6514   6.08949e-18 
  6910.8345   7.20103e-18 
  6912.0171   7.62051e-18 
  6913.2002   7.91615e-18 
  6914.3833   5.19249e-18 
  6915.5664   5.07957e-18 
  6916.7495   8.19946e-18 
  6917.9326   7.59564e-18 
  6919.1157   5.39726e-18 
  6920.2988   5.01073e-18 
  6921.4819   8.49802e-18 
  6922.6655   4.92604e-18 
  6923.8486   7.90971e-18 
  6925.0317   6.97751e-18 
  6926.2153   6.88658e-18 
  6927.3984    8.3602e-18 
   6928.582    8.4611e-18 
  6929.7651   7.70875e-18 
  6930.9487   6.81807e-18 
  6932.1323   8.37601e-18 
  6933.3154   5.08036e-18 
   6934.499     5.603e-18 
  6935.6826   6.78954e-18 
  6936.8662   6.00268e-18 
  6938.0498   7.15351e-18 
  6939.2334   6.15688e-18 
   6940.417   7.08378e-18 
  6941.6006   6.69236e-18 
  6942.7847    6.5746e-18 
  6943.9683   5.56794e-18 
  6945.1519   6.35718e-18 
  6946.3359    5.2604e-18 
  6947.5195   6.70247e-18 
  6948.7036   9.79441e-18 
  6949.8872   9.09813e-18 
  6951.0713   8.15515e-18 
  6952.2549   7.65187e-18 
   6953.439   7.39033e-18 
   6954.623   7.80668e-18 
  6955.8071    8.3949e-18 
  6956.9912   6.63077e-18 
  6958.1753   6.48791e-18 
  6959.3594   7.45031e-18 
  6960.5435   6.03156e-18 
  6961.7275   7.94549e-18 
  6962.9116   6.60478e-18 
  6964.0957   6.18238e-18 
  6965.2798   7.11574e-18 
  6966.4644   9.29241e-18 
  6967.6484   7.39006e-18 
   6968.833   6.19311e-18 
  6970.0171   5.98364e-18 
  6971.2017   8.31112e-18 
  6972.3857   6.05016e-18 
  6973.5703    8.3161e-18 
  6974.7549   8.15577e-18 
   6975.939   1.00834e-17 
  6977.1235   9.28024e-18 
  6978.3081   6.31756e-18 
  6979.4927   6.10467e-18 
  6980.6772   6.76629e-18 
  6981.8618   6.93177e-18 
  6983.0464    5.3419e-18 
   6984.231   6.50032e-18 
   6985.416   6.91832e-18 
  6986.6006    7.4382e-18 
  6987.7852   8.46509e-18 
  6988.9702   7.15558e-18 
  6990.1548   7.86227e-18 
  6991.3398   6.33295e-18 
  6992.5244    6.8805e-18 
  6993.7095   7.45015e-18 
  6994.8945   9.66759e-18 
  6996.0791    7.2929e-18 
  6997.2642   7.17899e-18 
  6998.4492   8.29165e-18 
  6999.6343   8.83354e-18 
  7000.8193   9.02106e-18 
  7002.0044   8.59878e-18 
  7003.1895   5.62317e-18 
  7004.3745   6.99899e-18 
  7005.5596   6.74281e-18 
  7006.7446   7.08595e-18 
  7007.9297   8.48568e-18 
  7009.1152   8.94881e-18 
  7010.3003   7.69198e-18 
  7011.4858   1.06203e-17 
  7012.6709   8.30854e-18 
   7013.856    7.5133e-18 
  7015.0415   8.93899e-18 
  7016.2271   5.09562e-18 
  7017.4126   1.18082e-17 
  7018.5977   7.88926e-18 
  7019.7832   6.03422e-18 
  7020.9688    6.0708e-18 
  7022.1543   8.30012e-18 
  7023.3398   9.44374e-18 
  7024.5254   7.35438e-18 
  7025.7109   9.18297e-18 
  7026.8965   7.70327e-18 
   7028.082   6.51043e-18 
  7029.2676   1.00695e-17 
  7030.4536   6.29936e-18 
  7031.6392   7.23266e-18 
  7032.8247   7.25655e-18 
  7034.0107   7.73119e-18 
  7035.1963   8.10951e-18 
  7036.3823   1.04148e-17 
  7037.5679   9.31742e-18 
  7038.7539   5.47331e-18 
  7039.9399   7.36036e-18 
   7041.126   7.22863e-18 
  7042.3115   7.00581e-18 
  7043.4976   1.08725e-17 
  7044.6836     8.658e-18 
  7045.8696   1.02677e-17 
  7047.0557   7.48586e-18 
  7048.2417   7.32858e-18 
  7049.4277   7.16998e-18 
  7050.6143   8.08171e-18 
  7051.8003    7.4288e-18 
  7052.9863   8.09912e-18 
  7054.1724    6.5074e-18 
  7055.3589   9.40745e-18 
  7056.5449   7.74443e-18 
  7057.7314   8.73265e-18 
  7058.9175   6.40669e-18 
   7060.104   7.87846e-18 
  7061.2905   6.37375e-18 
  7062.4766    8.1739e-18 
  7063.6631   8.11057e-18 
  7064.8496   4.98103e-18 
  7066.0361   7.28512e-18 
  7067.2227   9.50589e-18 
  7068.4092   8.66174e-18 
  7069.5957   7.87717e-18 
  7070.7822   8.01319e-18 
  7071.9688   8.47272e-18 
  7073.1553   6.46012e-18 
  7074.3418   8.80352e-18 
  7075.5288   8.73894e-18 
  7076.7153   8.22999e-18 
  7077.9019   1.03558e-17 
  7079.0889   6.71007e-18 
  7080.2754   5.65366e-18 
  7081.4624   7.49402e-18 
  7082.6489   8.25727e-18 
  7083.8359   7.37333e-18 
  7085.0225   8.46027e-18 
  7086.2095   7.90557e-18 
  7087.3965   9.18894e-18 
  7088.5835   9.03213e-18 
  7089.7705   8.61127e-18 
  7090.9575   7.04642e-18 
  7092.1445   8.32072e-18 
  7093.3315   8.17156e-18 
  7094.5186   7.64806e-18 
  7095.7056   7.98538e-18 
  7096.8926   8.72562e-18 
  7098.0796   7.38743e-18 
  7099.2671   1.02668e-17 
  7100.4541   8.89635e-18 
  7101.6416    7.0228e-18 
  7102.8286   8.96754e-18 
  7104.0161   8.70032e-18 
  7105.2031   7.33781e-18 
  7106.3906   7.56507e-18 
  7107.5776   8.58313e-18 
  7108.7651   8.55839e-18 
  7109.9526   8.57247e-18 
  7111.1401    9.0178e-18 
  7112.3276   7.88851e-18 
  7113.5146   8.96541e-18 
  7114.7021   7.33101e-18 
  7115.8896   9.49809e-18 
  7117.0771   7.58484e-18 
  7118.2651   9.21855e-18 
  7119.4526   7.20234e-18 
  7120.6401   6.39469e-18 
  7121.8276   8.61791e-18 
  7123.0156   9.65699e-18 
  7124.2031   1.06069e-17 
  7125.3906   9.20386e-18 
  7126.5786   9.85913e-18 
  7127.7661   7.88852e-18 
  7128.9541   8.47862e-18 
  7130.1416   7.00809e-18 
  7131.3296   1.00701e-17 
  7132.5176   9.85714e-18 
  7133.7051    9.3867e-18 
  7134.8931   1.07563e-17 
  7136.0811   8.14563e-18 
   7137.269   9.78974e-18 
   7138.457   8.85541e-18 
   7139.645   6.65759e-18 
   7140.833   8.36286e-18 
   7142.021   9.08099e-18 
   7143.209   1.04183e-17 
   7144.397   5.70035e-18 
  7145.5854    7.9778e-18 
  7146.7734   7.27555e-18 
  7147.9614   1.00635e-17 
  7149.1499   8.06914e-18 
  7150.3379   8.68862e-18 
  7151.5264   9.82173e-18 
  7152.7144   8.19412e-18 
  7153.9028   9.38123e-18 
  7155.0908   1.01421e-17 
  7156.2793   1.03328e-17 
  7157.4678   9.63018e-18 
  7158.6562   9.81872e-18 
  7159.8447   9.62942e-18 
  7161.0327   1.05019e-17 
  7162.2212   7.60866e-18 
  7163.4097   9.59681e-18 
  7164.5981   8.19616e-18 
  7165.7866   8.88764e-18 
  7166.9756   1.19574e-17 
  7168.1641   8.85164e-18 
  7169.3525   1.11899e-17 
   7170.541   7.92927e-18 
  7171.7295   1.00545e-17 
  7172.9185   1.13703e-17 
  7174.1069   7.91439e-18 
  7175.2959   9.95361e-18 
  7176.4844   6.98509e-18 
  7177.6733   8.75129e-18 
  7178.8618   9.70888e-18 
  7180.0508   1.00142e-17 
  7181.2397     8.576e-18 
  7182.4287     9.172e-18 
  7183.6172   8.63455e-18 
  7184.8062   8.69272e-18 
  7185.9951   7.80262e-18 
  7187.1841   8.34368e-18 
   7188.373   9.14274e-18 
   7189.562   9.19553e-18 
   7190.751   9.08538e-18 
  7191.9399   1.09102e-17 
  7193.1289   7.54571e-18 
  7194.3184   8.43363e-18 
  7195.5073   7.75784e-18 
  7196.6963   1.03036e-17 
  7197.8857   9.21345e-18 
  7199.0747    1.0875e-17 
  7200.2637   9.08624e-18 
  7201.4531   8.36116e-18 
  7202.6426   8.20383e-18 
  7203.8315   9.38607e-18 
   7205.021   9.91919e-18 
    7206.21    1.0208e-17 
  7207.3994   8.11033e-18 
  7208.5889   6.98257e-18 
  7209.7783   9.38418e-18 
  7210.9678   8.82047e-18 
  7212.1572   7.60765e-18 
  7213.3467   8.13209e-18 
  7214.5361   9.41192e-18 
  7215.7256   6.45087e-18 
   7216.915   1.18838e-17 
  7218.1045   9.21604e-18 
  7219.2939   1.05143e-17 
  7220.4839   7.27842e-18 
  7221.6733   7.56958e-18 
  7222.8628   7.92386e-18 
  7224.0527   9.52131e-18 
  7225.2422   9.63797e-18 
  7226.4321   6.13437e-18 
  7227.6216   9.30393e-18 
  7228.8115   6.34877e-18 
   7230.001   1.01594e-17 
  7231.1909   8.94616e-18 
  7232.3809    9.5768e-18 
  7233.5703   7.54762e-18 
  7234.7603   1.04383e-17 
  7235.9502   8.02822e-18 
  7237.1401   4.27499e-18 
  7238.3301   1.17611e-17 
    7239.52    9.7428e-18 
    7240.71   9.14799e-18 
  7241.8999   8.63769e-18 
  7243.0898   7.47339e-18 
  7244.2798    6.9927e-18 
  7245.4702   8.97683e-18 
  7246.6602   1.02017e-17 
  7247.8501   9.55065e-18 
  7249.0405   8.79772e-18 
  7250.2305   9.04596e-18 
  7251.4204   1.07736e-17 
  7252.6108   1.12989e-17 
  7253.8008   6.68733e-18 
  7254.9912   6.67226e-18 
  7256.1816   7.99755e-18 
  7257.3716   7.90007e-18 
   7258.562   7.74136e-18 
  7259.7524   8.08105e-18 
  7260.9429   9.14614e-18 
  7262.1333   8.15096e-18 
  7263.3232   9.58301e-18 
  7264.5137   9.26344e-18 
  7265.7041   8.49836e-18 
  7266.8945    9.7111e-18 
   7268.085   9.41035e-18 
  7269.2759    8.3736e-18 
  7270.4663   9.02084e-18 
  7271.6567   1.00641e-17 
  7272.8472   7.05212e-18 
  7274.0381   8.44887e-18 
  7275.2285   5.31025e-18 
  7276.4189   8.87334e-18 
  7277.6099   1.02223e-17 
  7278.8003   1.03748e-17 
  7279.9912   1.00585e-17 
  7281.1816   5.41461e-18 
  7282.3726   8.42706e-18 
  7283.5635   7.19277e-18 
  7284.7539    1.1718e-17 
  7285.9448   9.78146e-18 
  7287.1357   9.67624e-18 
  7288.3267   1.17111e-17 
  7289.5176   9.50626e-18 
  7290.7085   8.49048e-18 
  7291.8994   1.21294e-17 
  7293.0903   9.72937e-18 
  7294.2808    9.9473e-18 
  7295.4722   9.56401e-18 
  7296.6631   8.03826e-18 
   7297.854   8.67337e-18 
  7299.0449   9.17123e-18 
  7300.2363   8.18982e-18 
  7301.4272   9.50091e-18 
  7302.6182   5.94326e-18 
  7303.8096    6.6919e-18 
  7305.0005   9.11592e-18 
  7306.1919   1.13536e-17 
  7307.3828   1.02856e-17 
  7308.5742   7.56587e-18 
  7309.7651   9.61186e-18 
  7310.9565   1.31882e-17 
  7312.1479   8.47422e-18 
  7313.3389   6.97151e-18 
  7314.5303   1.17657e-17 
  7315.7217   9.69295e-18 
  7316.9131   1.15702e-17 
  7318.1045     7.052e-18 
  7319.2959   7.06325e-18 
  7320.4873   8.37668e-18 
  7321.6787   9.09883e-18 
  7322.8701   8.67306e-18 
  7324.0615   9.29797e-18 
  7325.2529   8.90547e-18 
  7326.4448   9.74605e-18 
  7327.6362    7.4255e-18 
  7328.8276   1.08523e-17 
  7330.0195   9.00734e-18 
  7331.2109   7.49233e-18 
  7332.4023   8.66673e-18 
  7333.5942   7.75691e-18 
  7334.7856   1.06636e-17 
  7335.9775   8.97401e-18 
  7337.1694   5.57489e-18 
  7338.3608   9.56675e-18 
  7339.5527   1.03083e-17 
  7340.7446   6.77025e-18 
   7341.936   9.76795e-18 
  7343.1279   1.14161e-17 
  7344.3198   9.40575e-18 
  7345.5117   9.15487e-18 
  7346.7036   9.54913e-18 
  7347.8955   8.45307e-18 
  7349.0874   1.01191e-17 
  7350.2793   1.09706e-17 
  7351.4712   8.83444e-18 
  7352.6631   8.73387e-18 
   7353.855   9.70314e-18 
  7355.0474   9.90518e-18 
  7356.2393   8.84874e-18 
  7357.4312   9.46819e-18 
  7358.6235   7.43492e-18 
  7359.8154   5.90694e-18 
  7361.0078   8.53569e-18 
  7362.1997   7.15045e-18 
  7363.3921   9.37838e-18 
   7364.584   9.22208e-18 
  7365.7764   9.29691e-18 
  7366.9683   1.24459e-17 
  7368.1606   1.12064e-17 
   7369.353   1.24737e-17 
  7370.5454    1.0003e-17 
  7371.7378   1.23869e-17 
  7372.9297   7.23094e-18 
  7374.1221   9.46053e-18 
  7375.3145   8.65613e-18 
  7376.5068   1.09101e-17 
  7377.6992   8.58099e-18 
  7378.8916    8.3962e-18 
   7380.084   8.95108e-18 
  7381.2769    1.0931e-17 
  7382.4692   9.78552e-18 
  7383.6616   9.08248e-18 
   7384.854   9.44096e-18 
  7386.0469    9.9492e-18 
  7387.2393   8.91877e-18 
  7388.4316    9.2855e-18 
  7389.6245   7.62151e-18 
  7390.8169   7.54348e-18 
  7392.0098   7.62226e-18 
  7393.2021   9.15712e-18 
   7394.395   1.03626e-17 
  7395.5879   9.75348e-18 
  7396.7803   9.20156e-18 
  7397.9731   9.27639e-18 
   7399.166   1.16393e-17 
  7400.3589   8.78052e-18 
  7401.5513   8.22183e-18 
  7402.7441   9.67479e-18 
   7403.937   8.37054e-18 
  7405.1299   9.92247e-18 
  7406.3228   9.54794e-18 
  7407.5156   7.64497e-18 
  7408.7085   9.86154e-18 
  7409.9014   8.28185e-18 
  7411.0947   8.16759e-18 
  7412.2876   1.24502e-17 
  7413.4805   1.01349e-17 
  7414.6733   9.39065e-18 
  7415.8667   9.13562e-18 
  7417.0596   8.55708e-18 
  7418.2529   8.01612e-18 
  7419.4458   9.22573e-18 
  7420.6387    1.0165e-17 
   7421.832   8.32036e-18 
  7423.0254   7.19139e-18 
  7424.2183   9.31372e-18 
  7425.4116   1.10178e-17 
  7426.6045   1.16196e-17 
  7427.7979   1.02289e-17 
  7428.9912   1.09243e-17 
  7430.1846   7.42685e-18 
  7431.3779   9.55114e-18 
  7432.5708   9.32575e-18 
  7433.7642   7.98672e-18 
  7434.9575   9.24654e-18 
  7436.1509     9.771e-18 
  7437.3442   5.33574e-18 
  7438.5376   8.10613e-18 
   7439.731   8.93541e-18 
  7440.9248   9.52016e-18 
  7442.1182   1.00789e-17 
  7443.3115   9.43278e-18 
  7444.5049   9.17952e-18 
  7445.6987   8.53277e-18 
  7446.8921   6.99933e-18 
  7448.0859   8.18341e-18 
  7449.2793   8.78906e-18 
  7450.4727   9.66068e-18 
  7451.6665   1.16288e-17 
  7452.8599   1.14105e-17 
  7454.0537   8.72433e-18 
  7455.2471   7.17292e-18 
  7456.4409   7.80572e-18 
  7457.6348   9.62701e-18 
  7458.8286   9.29949e-18 
   7460.022   8.18243e-18 
  7461.2158   9.86398e-18 
  7462.4097    7.9146e-18 
  7463.6035   7.49788e-18 
  7464.7974   8.52758e-18 
  7465.9912   9.50971e-18 
  7467.1851   8.52748e-18 
  7468.3789   8.71326e-18 
  7469.5728   7.81987e-18 
  7470.7666   9.25605e-18 
  7471.9604   8.38689e-18 
  7473.1543   8.67217e-18 
  7474.3486   8.56586e-18 
  7475.5425   1.08841e-17 
  7476.7363   8.31439e-18 
  7477.9307   7.36924e-18 
  7479.1245   6.91909e-18 
  7480.3184   9.67097e-18 
  7481.5127    9.9101e-18 
  7482.7065    1.0492e-17 
  7483.9009   8.55573e-18 
  7485.0947   1.17261e-17 
  7486.2891   9.47377e-18 
  7487.4834   1.03192e-17 
  7488.6772   1.00259e-17 
  7489.8716   7.02569e-18 
  7491.0659   1.03644e-17 
  7492.2603   7.74515e-18 
  7493.4541   7.68009e-18 
  7494.6484    9.7074e-18 
  7495.8428   9.22069e-18 
  7497.0371   7.31908e-18 
  7498.2314   7.53397e-18 
  7499.4258   9.63753e-18 
  7500.6201   1.01915e-17 
  7501.8145   8.68428e-18 
  7503.0088   1.01049e-17 
  7504.2036   8.98444e-18 
  7505.3979   5.83821e-18 
  7506.5923   7.66724e-18 
  7507.7866   9.57951e-18 
  7508.9814   8.29422e-18 
  7510.1758   8.63103e-18 
  7511.3701   9.10269e-18 
  7512.5649   8.25714e-18 
  7513.7593   6.86139e-18 
  7514.9541   8.50786e-18 
  7516.1484   9.41763e-18 
  7517.3433   8.10671e-18 
  7518.5376   8.10317e-18 
  7519.7324   8.25201e-18 
  7520.9272   5.77131e-18 
  7522.1216    9.5948e-18 
  7523.3164   1.06159e-17 
  7524.5112   1.04999e-17 
  7525.7061   9.23288e-18 
  7526.9009   5.96303e-18 
  7528.0957   1.01856e-17 
  7529.2905     8.213e-18 
  7530.4849   8.56478e-18 
  7531.6802    7.0062e-18 
   7532.875    8.9674e-18 
  7534.0698   6.77607e-18 
  7535.2646   9.55353e-18 
  7536.4595   7.60114e-18 
  7537.6543   9.79575e-18 
  7538.8491   8.46007e-18 
  7540.0444   7.63857e-18 
  7541.2393   6.95398e-18 
  7542.4341   7.18864e-18 
  7543.6294    7.9753e-18 
  7544.8242   9.00696e-18 
  7546.0195   7.60905e-18 
  7547.2144   8.92149e-18 
  7548.4092   8.50055e-18 
  7549.6045   8.14351e-18 
  7550.7998   7.51818e-18 
  7551.9946   6.23948e-18 
  7553.1899   8.62245e-18 
  7554.3848   8.49549e-18 
  7555.5801   1.04466e-17 
  7556.7754   8.08558e-18 
  7557.9707   8.26986e-18 
   7559.166   7.78216e-18 
  7560.3613   7.41421e-18 
  7561.5562   8.34048e-18 
  7562.7515   8.30804e-18 
  7563.9468   8.07635e-18 
  7565.1421   7.56521e-18 
  7566.3374   8.67431e-18 
  7567.5327   7.25168e-18 
  7568.7285   8.98998e-18 
  7569.9238    6.3969e-18 
  7571.1191   8.14174e-18 
  7572.3145   9.71259e-18 
  7573.5098   6.38839e-18 
  7574.7051    1.0295e-17 
  7575.9009   6.56687e-18 
  7577.0962   7.51682e-18 
   7578.292   9.24423e-18 
  7579.4873   8.31429e-18 
  7580.6831   7.48727e-18 
  7581.8784   9.06781e-18 
  7583.0742   6.26844e-18 
  7584.2695   7.53036e-18 
  7585.4653    9.2463e-18 
  7586.6606   7.62363e-18 
  7587.8564   6.20982e-18 
  7589.0522   7.82947e-18 
  7590.2476   9.10597e-18 
  7591.4434    9.6385e-18 
  7592.6392   7.98265e-18 
   7593.835   9.78296e-18 
  7595.0308   9.67407e-18 
  7596.2261   6.46101e-18 
  7597.4219   5.69168e-18 
  7598.6177   1.04291e-17 
  7599.8135   5.17986e-18 
  7601.0093    4.8911e-18 
  7602.2051   6.28729e-18 
  7603.4014   1.07491e-17 
  7604.5972   1.11373e-17 
   7605.793   8.70712e-18 
  7606.9888   1.89113e-18 
  7608.1846   9.29012e-18 
  7609.3809    1.1302e-17 
  7610.5767   7.99008e-18 
  7611.7725   8.98653e-18 
  7612.9688    8.5069e-18 
  7614.1646   5.17861e-18 
  7615.3608   1.02398e-17 
  7616.5566   8.01251e-18 
  7617.7529   8.98995e-18 
  7618.9487   6.96872e-18 
   7620.145     8.818e-18 
  7621.3408   9.44877e-18 
  7622.5371   4.60111e-18 
  7623.7334   7.76861e-18 
  7624.9292   6.18869e-18 
  7626.1255   7.14643e-18 
  7627.3218   9.46723e-18 
  7628.5181   3.23334e-18 
  7629.7139   5.04812e-18 
  7630.9102    4.3855e-18 
  7632.1064   9.30439e-18 
  7633.3027   1.10516e-17 
   7634.499   8.61676e-18 
  7635.6953   7.55307e-18 
  7636.8916   9.43063e-18 
  7638.0879   8.09339e-18 
  7639.2842   1.00138e-17 
  7640.4805   8.99235e-18 
  7641.6772   8.86867e-18 
  7642.8735   8.72557e-18 
  7644.0698   8.76923e-18 
  7645.2661    6.4869e-18 
  7646.4629   8.90799e-18 
  7647.6592   7.38425e-18 
  7648.8555   6.42208e-18 
  7650.0522    7.7248e-18 
  7651.2485   9.06534e-18 
  7652.4453   5.55847e-18 
  7653.6416   9.51799e-18 
  7654.8384   6.53983e-18 
  7656.0347    8.1113e-18 
  7657.2314   9.46164e-18 
  7658.4282   5.97168e-18 
  7659.6245   7.60701e-18 
  7660.8213   5.01735e-18 
  7662.0176   8.36908e-18 
  7663.2144   8.45547e-18 
  7664.4111   7.78781e-18 
  7665.6079   8.06721e-18 
  7666.8047   8.93736e-18 
  7668.0015   7.36064e-18 
  7669.1982   8.24879e-18 
   7670.395   7.41662e-18 
  7671.5913   7.61695e-18 
  7672.7881   8.17548e-18 
  7673.9849   6.91537e-18 
  7675.1821   7.17223e-18 
  7676.3789   8.53031e-18 
  7677.5757   6.53292e-18 
  7678.7725   6.79588e-18 
  7679.9692   7.69881e-18 
   7681.166   1.06903e-17 
  7682.3633   1.04772e-17 
  7683.5601   7.20089e-18 
  7684.7568   9.21257e-18 
  7685.9541   5.22309e-18 
  7687.1509   7.63398e-18 
  7688.3477    7.3041e-18 
  7689.5449   7.48922e-18 
  7690.7417   7.84514e-18 
   7691.939   8.38436e-18 
  7693.1357   7.29839e-18 
   7694.333   8.97879e-18 
  7695.5303   5.12603e-18 
  7696.7271    9.6617e-18 
  7697.9243   7.62022e-18 
  7699.1216     8.731e-18 
  7700.3184   7.00391e-18 
  7701.5156   7.67926e-18 
  7702.7129   5.16821e-18 
  7703.9102   6.91949e-18 
  7705.1074   7.37741e-18 
  7706.3042   8.00487e-18 
  7707.5015   8.06136e-18 
  7708.6987   7.39548e-18 
   7709.896   6.96512e-18 
  7711.0933   9.82122e-18 
  7712.2905   6.02788e-18 
  7713.4878   9.18056e-18 
  7714.6851   4.89445e-18 
  7715.8828    8.4136e-18 
  7717.0801   1.02485e-17 
  7718.2773   5.39668e-18 
  7719.4746   1.12713e-17 
  7720.6719   8.57139e-18 
  7721.8696   6.19745e-18 
  7723.0669   8.40815e-18 
  7724.2642   7.07035e-18 
  7725.4619   5.95277e-18 
  7726.6592   6.77806e-18 
  7727.8569   5.71083e-18 
  7729.0542   7.77152e-18 
  7730.2515   6.72774e-18 
  7731.4492   7.97355e-18 
  7732.6465   6.36215e-18 
  7733.8442   5.89177e-18 
   7735.042   5.65492e-18 
  7736.2393   7.97192e-18 
   7737.437   8.35443e-18 
  7738.6348   4.52228e-18 
   7739.832   7.54961e-18 
  7741.0298   6.14636e-18 
  7742.2275   5.89375e-18 
  7743.4253   7.64919e-18 
  7744.6226   6.50787e-18 
  7745.8203   4.44429e-18 
  7747.0181   1.03044e-17 
  7748.2158   5.23415e-18 
  7749.4136   7.18753e-18 
  7750.6113   8.52231e-18 
  7751.8091   8.41793e-18 
  7753.0068   7.86569e-18 
  7754.2046   5.57633e-18 
  7755.4028   8.28983e-18 
  7756.6006   6.22255e-18 
  7757.7983   6.21879e-18 
  7758.9961    5.8316e-18 
  7760.1938    7.2683e-18 
  7761.3916   5.92698e-18 
  7762.5898   6.49802e-18 
  7763.7876   6.20808e-18 
  7764.9858   7.89192e-18 
  7766.1836   7.25867e-18 
  7767.3813    8.8301e-18 
  7768.5796   4.11802e-18 
  7769.7773   6.96514e-18 
  7770.9756   8.42905e-18 
  7772.1733   8.52404e-18 
  7773.3716   7.78353e-18 
  7774.5693   7.87996e-18 
  7775.7676   4.85091e-18 
  7776.9653   7.84604e-18 
  7778.1636   5.95307e-18 
  7779.3618   5.26065e-18 
  7780.5596   3.58876e-18 
  7781.7578   7.72256e-18 
  7782.9561   7.37094e-18 
  7784.1543   4.87062e-18 
  7785.3525    6.3258e-18 
  7786.5503   4.93591e-18 
  7787.7485   6.98496e-18 
  7788.9468   7.83181e-18 
   7790.145   5.08631e-18 
  7791.3433   9.55634e-18 
  7792.5415    6.6627e-18 
  7793.7397    3.9869e-18 
   7794.938   9.01348e-18 
  7796.1362   6.05868e-18 
  7797.3345   5.88501e-18 
  7798.5332   5.53508e-18 
  7799.7314   4.10092e-18 
  7800.9297   7.06833e-18 
  7802.1279   7.34962e-18 
  7803.3262   7.42798e-18 
  7804.5249   5.23222e-18 
  7805.7231   8.76948e-18 
  7806.9214   5.24462e-18 
  7808.1201   4.89436e-18 
  7809.3184   5.99601e-18 
  7810.5166   6.09578e-18 
  7811.7153    7.2803e-18 
  7812.9136   7.22179e-18 
  7814.1123   7.18904e-18 
   7815.311   5.78159e-18 
  7816.5093   6.89243e-18 
   7817.708   3.04729e-18 
  7818.9062   4.87452e-18 
   7820.105   7.73131e-18 
  7821.3032   9.03828e-18 
   7822.502   9.66804e-18 
  7823.7007   7.23068e-18 
  7824.8994   5.46384e-18 
  7826.0977    5.9511e-18 
  7827.2964   5.46494e-18 
  7828.4951   6.96387e-18 
  7829.6938   6.91632e-18 
  7830.8926   6.62078e-18 
  7832.0913    6.9481e-18 
    7833.29   7.20113e-18 
  7834.4883    4.9083e-18 
  7835.6875   5.01331e-18 
  7836.8862   5.25982e-18 
  7838.0845   7.50567e-18 
  7839.2837   1.02279e-17 
  7840.4824   9.52687e-18 
  7841.6812   2.39634e-18 
  7842.8799   5.85682e-18 
  7844.0786   8.13956e-18 
  7845.2773   6.52036e-18 
  7846.4761   5.54227e-18 
  7847.6753   6.41286e-18 
   7848.874   7.52743e-18 
  7850.0728    6.6927e-18 
   7851.272   3.46196e-18 
  7852.4707   3.77059e-18 
  7853.6699   7.29307e-18 
  7854.8687   3.57644e-18 
  7856.0674    3.9232e-18 
  7857.2666   3.52026e-18 
  7858.4653   5.73237e-18 
  7859.6646   5.42246e-18 
  7860.8633   7.12192e-18 
  7862.0625   9.82176e-18 
  7863.2617   2.44723e-18 
  7864.4604   1.01283e-17 
  7865.6597   4.69224e-18 
  7866.8584   9.84298e-18 
  7868.0576   5.86475e-18 
  7869.2568   6.75966e-18 
  7870.4556    1.0018e-17 
  7871.6548   4.74212e-18 
   7872.854   4.95455e-18 
  7874.0532   6.26268e-18 
  7875.2524   8.66671e-18 
  7876.4517   3.95584e-18 
  7877.6509   6.97515e-18 
  7878.8496   5.89867e-18 
  7880.0488   5.27136e-18 
   7881.248   8.00725e-18 
  7882.4473   9.03779e-18 
  7883.6465   6.97786e-18 
  7884.8457   7.05077e-18 
  7886.0454   7.87049e-18 
  7887.2446   7.76973e-18 
  7888.4438   8.74257e-18 
  7889.6431   3.17169e-18 
  7890.8423   7.36058e-18 
  7892.0415    7.6686e-18 
  7893.2412   4.81062e-18 
  7894.4404   8.26162e-18 
  7895.6396   4.54332e-18 
  7896.8389   5.64197e-18 
  7898.0386    6.2392e-18 
  7899.2378    5.3788e-18 
   7900.437   7.92391e-18 
  7901.6367   4.96517e-18 
  7902.8359   5.83534e-18 
  7904.0356   6.77899e-18 
  7905.2349   5.29564e-18 
  7906.4346   5.97105e-18 
  7907.6338   4.54442e-18 
  7908.8335   7.53428e-18 
  7910.0327   8.93816e-18 
  7911.2324   8.01589e-18 
  7912.4321   -8.4317e-19 
  7913.6313   5.78076e-18 
  7914.8311   3.94702e-18 
  7916.0308   4.63103e-18 
    7917.23   7.87577e-18 
  7918.4297   5.35602e-18 
  7919.6294   4.15306e-18 
  7920.8291   3.93108e-18 
  7922.0283   5.91283e-18 
   7923.228   7.89969e-18 
  7924.4277   4.33835e-18 
  7925.6274    5.4014e-18 
  7926.8271   5.23588e-18 
  7928.0269   4.62594e-18 
  7929.2266   4.91101e-18 
  7930.4263   8.38817e-18 
   7931.626   7.73169e-18 
  7932.8257   1.15627e-17 
  7934.0254   7.66573e-18 
  7935.2251   6.12519e-18 
  7936.4248   6.13986e-18 
  7937.6245   4.52134e-18 
  7938.8242   6.39504e-18 
  7940.0244   5.28156e-18 
  7941.2241   7.89141e-18 
  7942.4238   8.51828e-18 
  7943.6235   6.56852e-18 
  7944.8237   8.66748e-18 
  7946.0234   5.48785e-18 
  7947.2231   5.29996e-18 
  7948.4233   3.25207e-18 
   7949.623   8.51367e-18 
  7950.8228    5.6826e-18 
  7952.0229   6.94216e-18 
  7953.2227   5.94367e-18 
  7954.4224   5.91991e-18 
  7955.6226   6.35379e-18 
  7956.8223   5.04031e-18 
  7958.0225    5.7746e-18 
  7959.2227   8.48661e-18 
  7960.4224   6.30365e-18 
  7961.6226   3.80772e-18 
  7962.8223   7.51644e-18 
  7964.0225     4.928e-18 
  7965.2227   7.56688e-18 
  7966.4224   6.65223e-18 
  7967.6226   3.36777e-19 
  7968.8228   5.08739e-18 
  7970.0225   5.84753e-18 
  7971.2227   6.76077e-18 
  7972.4229   6.92763e-18 
   7973.623   3.86416e-18 
  7974.8232    6.5424e-18 
  7976.0234   6.38475e-18 
  7977.2236   7.36539e-18 
  7978.4238   3.18712e-18 
  7979.6235   6.94762e-18 
  7980.8237   6.00916e-18 
  7982.0239   3.37907e-18 
  7983.2241    6.4455e-18 
  7984.4243   6.58286e-18 
  7985.6245   6.26064e-18 
  7986.8247   5.45171e-18 
  7988.0254   5.99629e-18 
  7989.2256   4.18897e-18 
  7990.4258   7.44063e-18 
   7991.626   8.94817e-18 
  7992.8262   5.48821e-18 
  7994.0264   4.70142e-18 
  7995.2266   1.68136e-18 
  7996.4272   5.32529e-18 
  7997.6274   7.52054e-18 
  7998.8276   3.81525e-18 
  8000.0283   7.25891e-18 
  8001.2285   4.90813e-18 
  8002.4287    6.6262e-18 
  8003.6294    5.5748e-18 
  8004.8296   5.55716e-18 
  8006.0298   4.93633e-18 
  8007.2305   6.82401e-18 
  8008.4307   5.53686e-18 
  8009.6313   4.39293e-18 
  8010.8315   6.62238e-18 
  8012.0322   7.62379e-18 
  8013.2324   1.01492e-17 
  8014.4331   8.40503e-18 
  8015.6338   6.36996e-18 
   8016.834   8.75675e-18 
  8018.0347   5.18045e-18 
  8019.2349   6.87826e-18 
  8020.4355   7.85351e-18 
  8021.6362   6.03263e-18 
  8022.8369   5.80273e-18 
  8024.0371   6.11497e-18 
  8025.2378   5.46134e-18 
  8026.4385   1.06292e-17 
  8027.6392    9.6087e-18 
  8028.8398   4.46925e-18 
    8030.04   4.57292e-18 
  8031.2407   6.39622e-18 
  8032.4414   6.12617e-18 
  8033.6421   5.61336e-18 
  8034.8428    7.5866e-18 
  8036.0435   6.65327e-18 
  8037.2441   7.89974e-18 
  8038.4448   4.65586e-18 
  8039.6455   5.51815e-18 
  8040.8462   6.64049e-18 
  8042.0469   5.50858e-18 
  8043.2476   6.99706e-18 
  8044.4482   4.68277e-18 
  8045.6489   5.00953e-18 
  8046.8496   6.36289e-18 
  8048.0503    6.1978e-18 
   8049.251    6.3951e-18 
  8050.4521   3.00728e-18 
  8051.6528   6.03241e-18 
  8052.8535    6.6181e-18 
  8054.0542   6.76234e-18 
  8055.2554   6.85108e-18 
  8056.4561   7.38099e-18 
  8057.6567   7.02442e-18 
  8058.8579   6.60077e-18 
  8060.0586   6.83829e-18 
  8061.2593   6.01233e-18 
  8062.4604    7.5732e-18 
  8063.6611   5.40647e-18 
  8064.8623   3.19632e-18 
   8066.063   5.81432e-18 
  8067.2637   4.37258e-18 
  8068.4648   5.81574e-18 
  8069.6655   5.11466e-18 
  8070.8667   6.05376e-18 
  8072.0674    6.7938e-18 
  8073.2686   4.64893e-18 
  8074.4697   6.62426e-18 
  8075.6704   7.60533e-18 
  8076.8716    7.0128e-18 
  8078.0723   4.40753e-18 
  8079.2734   5.04335e-18 
  8080.4746   5.35072e-18 
  8081.6753   5.86265e-18 
  8082.8765   7.44944e-18 
  8084.0776   7.44405e-18 
  8085.2788   4.59433e-18 
  8086.4795   7.18973e-18 
  8087.6807   7.85522e-18 
  8088.8818   5.65253e-18 
   8090.083   4.42159e-18 
  8091.2842   5.83809e-18 
  8092.4854   4.54805e-18 
  8093.6865   6.49806e-18 
  8094.8872   5.90424e-18 
  8096.0884   5.02885e-18 
  8097.2896   4.69049e-18 
  8098.4907   7.70203e-18 
  8099.6919    7.3433e-18 
  8100.8931   8.11742e-18 
  8102.0942   6.68979e-18 
  8103.2954   4.06319e-18 
  8104.4966   7.23436e-18 
  8105.6982   7.29709e-18 
  8106.8994   6.32609e-18 
  8108.1006   7.66182e-18 
  8109.3018   5.33787e-18 
  8110.5029     6.224e-18 
  8111.7041   6.76609e-18 
  8112.9053   4.91608e-18 
  8114.1069   7.40164e-18 
  8115.3081   6.66261e-18 
  8116.5093   5.52255e-18 
  8117.7104   6.17554e-18 
  8118.9116   5.32602e-18 
  8120.1133   7.02528e-18 
  8121.3145    6.3038e-18 
  8122.5156   4.78504e-18 
  8123.7173   6.45859e-18 
  8124.9185   5.90465e-18 
  8126.1196   6.60182e-18 
  8127.3213   5.36043e-18 
  8128.5225   4.84518e-18 
  8129.7241   7.62913e-18 
  8130.9253   6.07853e-18 
  8132.1265   6.89923e-18 
  8133.3281   5.11236e-18 
  8134.5298   6.33994e-18 
   8135.731   6.85475e-18 
  8136.9326   5.81217e-18 
  8138.1338   7.67139e-18 
  8139.3354   7.26032e-18 
  8140.5366   7.17748e-18 
  8141.7383   5.59577e-18 
  8142.9399   5.99251e-18 
  8144.1411   6.73474e-18 
  8145.3428   5.90599e-18 
  8146.5444   7.34225e-18 
  8147.7456   4.98044e-18 
  8148.9473   6.99648e-18 
  8150.1489   5.58025e-18 
  8151.3501   3.97307e-18 
  8152.5518   4.46746e-18 
  8153.7534   5.90209e-18 
  8154.9551    6.9742e-18 
  8156.1567    6.2346e-18 
  8157.3579   6.61863e-18 
  8158.5596   5.59208e-18 
  8159.7612   5.78946e-18 
  8160.9629   5.46794e-18 
  8162.1646   6.61559e-18 
  8163.3662   6.21403e-18 
  8164.5679   6.21713e-18 
  8165.7695   5.35128e-18 
  8166.9712   5.95509e-18 
  8168.1724   7.33999e-18 
  8169.3745   6.85957e-18 
  8170.5757    5.2929e-18 
  8171.7778   7.09925e-18 
  8172.9795   5.28108e-18 
  8174.1812   5.19281e-18 
  8175.3828   5.76678e-18 
  8176.5845   6.57301e-18 
  8177.7861    8.6267e-18 
  8178.9878   7.06601e-18 
  8180.1895   6.05123e-18 
  8181.3911   7.44785e-18 
  8182.5928   5.36859e-18 
  8183.7949   7.78939e-18 
  8184.9966   6.46333e-18 
  8186.1982   7.19572e-18 
  8187.3999   5.23693e-18 
  8188.6016   6.82087e-18 
  8189.8037   5.44848e-18 
  8191.0054    6.0216e-18 
   8192.207   6.78289e-18 
  8193.4092   8.56175e-18 
  8194.6104   4.59508e-18 
  8195.8125   6.18408e-18 
  8197.0146    6.6417e-18 
  8198.2158   6.57309e-18 
   8199.418   6.03828e-18 
  8200.6201   7.19816e-18 
  8201.8223   7.35713e-18 
  8203.0234   4.00389e-18 
  8204.2256   5.31307e-18 
  8205.4277    6.2523e-18 
  8206.6299    5.0916e-18 
  8207.8311   5.97305e-18 
  8209.0332   5.25444e-18 
  8210.2354   4.51376e-18 
  8211.4365   5.59342e-18 
  8212.6387    7.1489e-18 
  8213.8408   7.09311e-18 
   8215.043    5.4879e-18 
  8216.2451   6.45864e-18 
  8217.4463   7.41368e-18 
  8218.6484   5.59329e-18 
  8219.8506   5.78382e-18 
  8221.0527   6.91445e-18 
  8222.2549   6.47192e-18 
   8223.457   5.56728e-18 
  8224.6582    5.8615e-18 
  8225.8604   7.32299e-18 
  8227.0625   6.15043e-18 
  8228.2646   6.38614e-18 
  8229.4668   6.37702e-18 
  8230.6689   5.98428e-18 
  8231.8711   6.10571e-18 
  8233.0732   5.80098e-18 
  8234.2744   7.95563e-18 
  8235.4766   4.94135e-18 
  8236.6787   6.59389e-18 
  8237.8809   6.05605e-18 
   8239.083   5.34133e-18 
  8240.2852   6.46333e-18 
  8241.4873   7.11942e-18 
  8242.6895   6.74814e-18 
  8243.8916   6.83991e-18 
  8245.0938   8.20806e-18 
  8246.2959   7.17085e-18 
   8247.498   5.66745e-18 
  8248.7002   7.56679e-18 
  8249.9023   6.32661e-18 
  8251.1045   7.02905e-18 
  8252.3066   7.10446e-18 
  8253.5088   7.73689e-18 
  8254.7109   5.71773e-18 
  8255.9131   6.16478e-18 
  8257.1152   6.77556e-18 
  8258.3174   6.89188e-18 
  8259.5195   5.31303e-18 
  8260.7217   5.78143e-18 
  8261.9238   7.48595e-18 
   8263.126   7.34232e-18 
  8264.3281   5.85993e-18 
  8265.5303   4.92908e-18 
  8266.7324   6.10551e-18 
  8267.9355   8.21221e-18 
  8269.1377   5.10181e-18 
  8270.3398   7.23425e-18 
   8271.542   6.88727e-18 
  8272.7441   5.99166e-18 
  8273.9463   5.82926e-18 
  8275.1484   5.62159e-18 
  8276.3506   4.84308e-18 
  8277.5527   8.19202e-18 
  8278.7559   6.19976e-18 
   8279.958   1.93575e-18 
  8281.1602   6.13602e-18 
  8282.3623   5.77883e-18 
  8283.5645   7.97569e-18 
  8284.7676   5.04456e-18 
  8285.9697   1.46228e-18 
  8287.1719   7.54019e-18 
   8288.374   7.49188e-18 
  8289.5762   8.66826e-18 
  8290.7783   4.98408e-18 
  8291.9814   6.05955e-18 
  8293.1836   5.91907e-18 
  8294.3857   4.66833e-18 
  8295.5879   4.93483e-18 
   8296.791   5.88276e-18 
  8297.9932   1.59746e-18 
  8299.1953   6.82123e-18 
  8300.3975   4.65551e-18 
  8301.6006   7.72507e-18 
  8302.8027   7.66359e-18 
  8304.0049   3.80389e-18 
   8305.207   5.64941e-18 
  8306.4102   5.76996e-18 
  8307.6123   7.73097e-18 
  8308.8145   9.35473e-18 
  8310.0176   5.80192e-18 
  8311.2197   7.79272e-18 
  8312.4219   8.28478e-18 
   8313.625   4.51519e-18 
  8314.8271   7.14869e-18 
  8316.0293   6.17787e-18 
  8317.2324   4.48235e-18 
  8318.4346    6.4454e-18 
  8319.6367   4.77667e-18 
  8320.8398   5.36186e-18 
   8322.042   6.81352e-18 
  8323.2441   4.04457e-18 
  8324.4473   7.19949e-18 
  8325.6494   6.21942e-18 
  8326.8525    6.2789e-18 
  8328.0547    5.7631e-18 
  8329.2568   5.27598e-18 
    8330.46   5.98215e-18 
  8331.6621   5.75097e-18 
  8332.8643    6.5632e-18 
  8334.0674   5.21573e-18 
  8335.2695   5.12898e-18 
  8336.4727   7.27052e-18 
  8337.6748    6.2775e-18 
  8338.8779   7.16338e-18 
  8340.0801   4.36184e-18 
  8341.2822   1.82972e-18 
  8342.4854   4.18062e-18 
  8343.6875   1.19689e-17 
  8344.8906   9.90972e-18 
  8346.0928   2.52878e-18 
  8347.2959   9.56367e-18 
   8348.498  -1.27749e-18 
  8349.7012   4.89269e-18 
  8350.9033   4.67898e-18 
  8352.1064   6.61408e-18 
  8353.3086   6.85641e-18 
  8354.5117   4.84432e-18 
  8355.7139   6.94692e-18 
   8356.917   5.20962e-18 
  8358.1191   3.61735e-18 
  8359.3223   7.01868e-18 
  8360.5244    7.4544e-18 
  8361.7275   6.55499e-18 
  8362.9297   3.94977e-18 
  8364.1328   7.87771e-18 
   8365.335    6.7434e-18 
  8366.5381   5.61193e-18 
  8367.7412   5.57582e-18 
  8368.9434    3.6878e-18 
  8370.1465   4.93937e-18 
  8371.3486   6.13695e-18 
  8372.5518   5.38334e-18 
  8373.7539   7.84621e-18 
   8374.957   5.72455e-18 
  8376.1602   6.00697e-18 
  8377.3623   7.85199e-18 
  8378.5654   8.52337e-18 
  8379.7676   2.51295e-18 
  8380.9707   5.49824e-18 
  8382.1738   9.46427e-18 
   8383.376   5.98766e-18 
  8384.5791   6.21716e-18 
  8385.7812   6.28613e-18 
  8386.9844   5.45493e-18 
  8388.1875    4.8067e-18 
  8389.3896   7.43984e-18 
  8390.5928   4.74268e-18 
  8391.7959   5.72854e-18 
   8392.998   6.12141e-18 
  8394.2012   3.78442e-18 
  8395.4033   4.42221e-18 
  8396.6064   5.36704e-18 
  8397.8096   4.95654e-18 
  8399.0117   1.07468e-17 
  8400.2148   8.25658e-18 
   8401.418   6.34369e-18 
  8402.6201  -5.91659e-19 
  8403.8232   4.67375e-18 
  8405.0264   5.14257e-18 
  8406.2295   6.41266e-18 
  8407.4316   4.65594e-18 
  8408.6348   5.96181e-18 
  8409.8379   5.21974e-18 
    8411.04   6.79009e-18 
  8412.2432   6.07776e-18 
  8413.4463     5.921e-18 
  8414.6484   2.66965e-18 
  8415.8516   5.54225e-18 
  8417.0547   5.58453e-18 
  8418.2578   5.71377e-18 
    8419.46   5.41813e-18 
  8420.6631   4.51281e-18 
  8421.8662    4.5641e-18 
  8423.0693   6.40176e-18 
  8424.2715   5.87481e-18 
  8425.4746   6.26228e-18 
  8426.6777   6.13176e-18 
  8427.8809   4.38984e-18 
   8429.083   6.00931e-18 
  8430.2861    7.4184e-18 
  8431.4893   1.40586e-17 
  8432.6924   2.64373e-18 
  8433.8945   3.03429e-18 
  8435.0977   3.85739e-18 
  8436.3008   6.53567e-18 
  8437.5039   4.94752e-18 
   8438.707   5.88995e-18 
  8439.9092   6.95079e-18 
  8441.1123   4.34709e-18 
  8442.3154   6.17533e-18 
  8443.5186   5.27567e-18 
  8444.7217   6.75212e-18 
  8445.9238    5.4672e-18 
   8447.127   2.76951e-18 
  8448.3301   3.92713e-18 
  8449.5332   7.18256e-18 
  8450.7363    6.0898e-18 
  8451.9385   3.02833e-18 
  8453.1416   6.92635e-18 
  8454.3447   1.01889e-17 
  8455.5479   5.01356e-18 
   8456.751   6.50725e-18 
  8457.9541   4.09648e-18 
  8459.1562    5.2138e-18 
  8460.3594   5.77948e-18 
  8461.5625   5.98946e-18 
  8462.7656   3.24002e-18 
  8463.9688   7.08099e-18 
  8465.1719   7.29289e-18 
   8466.375   9.13451e-18 
  8467.5771   1.07769e-17 
  8468.7803    5.6894e-18 
  8469.9834   5.49422e-18 
  8471.1865   6.35604e-18 
  8472.3896    6.2326e-18 
  8473.5928   5.85203e-18 
  8474.7959   7.23503e-18 
   8475.999   4.70279e-18 
  8477.2012   4.23765e-18 
  8478.4043   5.89213e-18 
  8479.6074   5.04009e-18 
  8480.8105   5.80935e-18 
  8482.0137   4.42402e-18 
  8483.2168   7.28429e-18 
  8484.4199   6.82286e-18 
   8485.623   5.31535e-18 
  8486.8262    6.5005e-18 
  8488.0283   6.40686e-18 
  8489.2314   5.07638e-18 
  8490.4346   7.25494e-18 
  8491.6377   3.63898e-18 
  8492.8408   4.99884e-18 
  8494.0439   8.70966e-18 
  8495.2471   3.86972e-18 
  8496.4502   7.48121e-18 
  8497.6533   8.55133e-18 
  8498.8564   7.50732e-18 
  8500.0596   6.01064e-18 
  8501.2627    5.5396e-18 
  8502.4648   1.08208e-17 
   8503.668    7.0223e-18 
  8504.8711   4.61416e-18 
  8506.0742   4.48481e-18 
  8507.2773   8.36858e-18 
  8508.4805   7.18632e-18 
  8509.6836    5.9044e-18 
  8510.8867   8.67389e-18 
  8512.0898   4.58514e-18 
   8513.293    6.6083e-18 
  8514.4961   5.98558e-18 
  8515.6992   6.85656e-18 
  8516.9023   6.15234e-18 
  8518.1055   5.68215e-18 
  8519.3086   8.48334e-18 
  8520.5117   6.23544e-18 
  8521.7148   8.21913e-18 
   8522.918   6.64231e-18 
  8524.1211   7.01746e-18 
  8525.3242   7.16071e-18 
  8526.5273   7.57444e-18 
  8527.7305   7.27996e-18 
  8528.9326   7.17614e-18 
  8530.1357    6.8418e-18 
  8531.3389    5.5223e-18 
   8532.542   4.26691e-18 
  8533.7451   4.98221e-18 
  8534.9482   7.84855e-18 
  8536.1514   9.73209e-18 
  8537.3545   4.85168e-18 
  8538.5576   7.36341e-18 
  8539.7607   7.53683e-18 
  8540.9639   5.89202e-18 
   8542.167   5.16584e-18 
  8543.3701   5.66552e-18 
  8544.5732   5.94674e-18 
  8545.7764   6.83586e-18 
  8546.9795   5.91869e-18 
  8548.1826   6.89212e-18 
  8549.3857   8.03352e-18 
  8550.5889   8.08142e-18 
   8551.792   9.32853e-18 
  8552.9951    7.9711e-18 
  8554.1982   7.42806e-18 
  8555.4014   8.66736e-18 
  8556.6045    7.3227e-18 
  8557.8076   6.50241e-18 
  8559.0107   6.69203e-18 
  8560.2139   6.99656e-18 
   8561.417   6.01455e-18 
  8562.6201   7.73341e-18 
  8563.8232   6.29721e-18 
  8565.0264   6.87504e-18 
  8566.2295   7.36606e-18 
  8567.4326   7.44629e-18 
  8568.6357   6.48535e-18 
  8569.8389   7.49992e-18 
   8571.042   6.25753e-18 
  8572.2451   8.07242e-18 
  8573.4482   6.84007e-18 
  8574.6514   6.95644e-18 
  8575.8545   5.94972e-18 
  8577.0576   6.97806e-18 
  8578.2607   5.65716e-18 
  8579.4639   6.88643e-18 
   8580.667    5.8335e-18 
  8581.8701   7.84456e-18 
  8583.0732    7.9894e-18 
  8584.2764   8.06408e-18 
  8585.4795   7.07891e-18 
  8586.6826   7.11034e-18 
  8587.8857   8.15224e-18 
  8589.0889   5.75862e-18 
   8590.292   5.63186e-18 
  8591.4951   7.50719e-18 
  8592.6982   6.91443e-18 
  8593.9023   5.69148e-18 
  8595.1055   6.54936e-18 
  8596.3086   7.93929e-18 
  8597.5117   9.81125e-18 
  8598.7148   7.82462e-18 
   8599.918   6.89974e-18 
  8601.1211   7.25427e-18 
  8602.3242    6.6797e-18 
  8603.5273   6.64312e-18 
  8604.7305   7.43175e-18 
  8605.9336   7.31225e-18 
  8607.1367   6.15781e-18 
  8608.3398   7.40766e-18 
   8609.543   6.40464e-18 
  8610.7461   5.95314e-18 
  8611.9492   8.67634e-18 
  8613.1523   6.62043e-18 
  8614.3555   6.81539e-18 
  8615.5586   6.45249e-18 
  8616.7617    6.3788e-18 
  8617.9648   6.17425e-18 
   8619.168    7.3756e-18 
  8620.3711   6.03248e-18 
  8621.5742   7.97346e-18 
  8622.7773   6.83809e-18 
  8623.9805   4.45346e-18 
  8625.1836   7.08015e-18 
  8626.3867   7.87167e-18 
  8627.5898   5.84868e-18 
   8628.793   8.21508e-18 
  8629.9961    5.6149e-18 
  8631.1992   6.21437e-18 
  8632.4023   3.50421e-18 
  8633.6055   5.51326e-18 
  8634.8086   6.18158e-18 
  8636.0117   9.29821e-18 
  8637.2148   7.53518e-18 
   8638.418   5.32684e-18 
  8639.6211   6.64692e-18 
  8640.8242   5.75558e-18 
  8642.0273   7.32172e-18 
  8643.2305   8.44682e-18 
  8644.4336   5.92295e-18 
  8645.6367   7.69532e-18 
  8646.8398   1.02538e-17 
   8648.043   7.95185e-18 
  8649.2461   7.64288e-18 
  8650.4492   8.27672e-18 
  8651.6523   6.04411e-18 
  8652.8555   5.61582e-18 
  8654.0586   7.59549e-18 
  8655.2617   7.70677e-18 
  8656.4648   7.25321e-18 
   8657.668    6.9284e-18 
  8658.8711   8.49501e-18 
  8660.0742   7.87109e-18 
  8661.2773   7.30905e-18 
  8662.4805   5.50816e-18 
  8663.6836   1.01994e-17 
  8664.8867    6.1404e-18 
  8666.0898    5.2851e-18 
   8667.293   8.65776e-18 
  8668.4961    7.8675e-18 
  8669.6992    8.3088e-18 
  8670.9023   8.06561e-18 
  8672.1055   9.64966e-18 
  8673.3086   5.04353e-18 
  8674.5117   6.70254e-18 
  8675.7148    5.8667e-18 
   8676.918   5.61651e-18 
  8678.1211   8.24898e-18 
  8679.3242   7.96646e-18 
  8680.5273   8.36705e-18 
  8681.7305   6.93166e-18 
  8682.9336   7.38368e-18 
  8684.1367   6.42547e-18 
  8685.3398   8.92482e-18 
   8686.543   7.99729e-18 
  8687.7461   7.51456e-18 
  8688.9492   7.88307e-18 
  8690.1523   7.52279e-18 
  8691.3555   9.09601e-18 
  8692.5576   1.17313e-17 
  8693.7607    6.5014e-18 
  8694.9639   7.08853e-18 
   8696.167   8.16615e-18 
  8697.3701   8.28697e-18 
  8698.5732   8.15795e-18 
  8699.7764   8.80414e-18 
  8700.9795   7.43338e-18 
  8702.1826   8.18136e-18 
  8703.3857   7.91859e-18 
  8704.5889   8.47612e-18 
   8705.792   6.95979e-18 
  8706.9951   7.83656e-18 
  8708.1982   6.55893e-18 
  8709.4014   5.98611e-18 
  8710.6045   7.51567e-18 
  8711.8066   6.81239e-18 
  8713.0098   8.40753e-18 
  8714.2129   6.70167e-18 
   8715.416   8.93024e-18 
  8716.6191   7.59982e-18 
  8717.8223   8.15297e-18 
  8719.0254   7.68663e-18 
  8720.2285   9.82522e-18 
  8721.4316   6.42958e-18 
  8722.6348   8.00087e-18 
  8723.8379   8.90928e-18 
    8725.04   7.71833e-18 
  8726.2432   8.07535e-18 
  8727.4463   7.25659e-18 
  8728.6494   8.52133e-18 
  8729.8525   7.56097e-18 
  8731.0557   7.02776e-18 
  8732.2588    9.5347e-18 
  8733.4619    6.9965e-18 
   8734.665   7.68402e-18 
  8735.8672    7.3491e-18 
  8737.0703   8.13292e-18 
  8738.2734    8.3861e-18 
  8739.4766   9.32474e-18 
  8740.6797   8.33525e-18 
  8741.8828   8.17313e-18 
  8743.0859   8.05928e-18 
  8744.2881   6.66656e-18 
  8745.4912   7.21505e-18 
  8746.6943   7.82857e-18 
  8747.8975   7.91637e-18 
  8749.1006   9.69881e-18 
  8750.3037   6.97561e-18 
  8751.5059   9.20447e-18 
   8752.709   7.39737e-18 
  8753.9121    5.3177e-18 
  8755.1152   8.51558e-18 
  8756.3184   6.35418e-18 
  8757.5215   5.41803e-18 
  8758.7236   5.39166e-18 
  8759.9268   3.40155e-18 
  8761.1299   1.13275e-17 
   8762.333   7.37979e-18 
  8763.5361   8.34414e-18 
  8764.7383   9.31615e-18 
  8765.9414   8.93212e-18 
  8767.1445   5.70881e-18 
  8768.3477   1.11454e-17 
  8769.5508   8.14324e-18 
  8770.7529   5.75667e-18 
  8771.9561   3.38709e-18 
  8773.1592   6.20012e-18 
  8774.3623   8.18411e-18 
  8775.5645   6.15129e-18 
  8776.7676   5.75016e-18 
  8777.9707   8.26771e-18 
  8779.1738   1.83747e-18 
   8780.376   7.84449e-18 
  8781.5791   2.78089e-18 
  8782.7822   5.69233e-18 
  8783.9854   5.54182e-18 
  8785.1875    8.7546e-18 
  8786.3906   7.08973e-18 
  8787.5938   4.72833e-18 
  8788.7969   6.25464e-18 
   8789.999   1.07191e-17 
  8791.2021   3.76077e-18 
  8792.4053   8.63943e-18 
  8793.6074   7.85728e-18 
  8794.8105   9.58642e-18 
  8796.0137   7.64112e-18 
  8797.2158   6.65208e-18 
  8798.4189   7.91471e-18 
  8799.6221   6.53855e-18 
  8800.8252   6.38493e-18 
  8802.0273   7.28148e-18 
  8803.2305   6.38959e-18 
  8804.4336     8.277e-18 
  8805.6357   7.45643e-18 
  8806.8389   7.37357e-18 
   8808.042   5.99357e-18 
  8809.2441   8.30504e-18 
  8810.4473   7.46189e-18 
  8811.6494   7.25759e-18 
  8812.8525   7.60182e-18 
  8814.0557   5.60627e-18 
  8815.2578   7.11231e-18 
  8816.4609   7.09138e-18 
  8817.6641   8.34544e-18 
  8818.8662   8.58205e-18 
  8820.0693   7.21817e-18 
  8821.2725   7.40862e-18 
  8822.4746   1.25865e-17 
  8823.6777   5.69897e-18 
  8824.8799   1.22454e-17 
   8826.083   1.47111e-17 
  8827.2861   7.67495e-19 
  8828.4883   1.06959e-17 
  8829.6914   8.84714e-18 
  8830.8936   4.46659e-18 
  8832.0967   6.14885e-18 
  8833.2988   1.15523e-17 
   8834.502   5.99244e-18 
  8835.7051   9.48139e-18 
  8836.9072   8.81383e-18 
  8838.1104   7.88833e-18 
  8839.3125   7.51262e-18 
  8840.5156   7.45484e-18 
  8841.7178   6.11489e-18 
  8842.9209   7.95908e-18 
   8844.123   7.24196e-18 
  8845.3262   5.43185e-18 
  8846.5283   9.31539e-18 
  8847.7314   6.48647e-18 
  8848.9336   4.57845e-18 
  8850.1367   8.98917e-18 
  8851.3389   9.72736e-18 
   8852.542   1.00754e-17 
  8853.7441   7.05057e-18 
  8854.9473   9.96945e-18 
  8856.1494   9.11036e-18 
  8857.3525   1.62971e-17 
  8858.5547   3.10577e-17 
  8859.7568   5.45261e-17 
    8860.96    6.8194e-17 
  8862.1621    7.1468e-17 
  8863.3652   6.64193e-17 
  8864.5674    4.0804e-17 
  8865.7705    2.2551e-17 
  8866.9727   1.57606e-17 
  8868.1748   1.11871e-17 
  8869.3779   8.78751e-18 
  8870.5801   5.20126e-18 
  8871.7832   1.96744e-18 
  8872.9854   6.15231e-18 
  8874.1875   6.93665e-18 
  8875.3906   8.11073e-18 
  8876.5928   6.18596e-18 
  8877.7949   7.96221e-18 
   8878.998   6.11952e-18 
  8880.2002   6.85771e-18 
  8881.4023   3.86982e-18 
  8882.6055   8.80077e-18 
  8883.8076   1.04036e-17 
  8885.0098   1.55721e-17 
  8886.2129   9.19422e-18 
   8887.415   9.10267e-18 
  8888.6172   9.59501e-19 
  8889.8203  -1.96908e-18 
  8891.0225   2.36319e-18 
  8892.2246    5.5941e-18 
  8893.4277   8.24672e-18 
  8894.6299   7.86346e-18 
   8895.832   6.44902e-18 
  8897.0342   7.82027e-18 
  8898.2373   4.79866e-18 
  8899.4395   1.02738e-17 
  8900.6416   9.64656e-18 
  8901.8438   7.28917e-18 
  8903.0469   6.86643e-18 
   8904.249   8.22795e-18 
  8905.4512   8.54778e-18 
  8906.6533   6.55538e-18 
  8907.8555   5.59229e-18 
  8909.0586   7.31115e-18 
  8910.2607    8.7486e-18 
  8911.4629   5.27253e-18 
   8912.665   6.06348e-18 
  8913.8672   5.17048e-18 
  8915.0703   5.04525e-18 
  8916.2725    2.3138e-18 
  8917.4746   1.15085e-17 
  8918.6768   1.32232e-17 
  8919.8789   4.35984e-18 
  8921.0811   3.04236e-18 
  8922.2832   5.30633e-18 
  8923.4863   6.93777e-19 
  8924.6885   5.58758e-18 
  8925.8906   3.88571e-18 
  8927.0928   9.22156e-18 
  8928.2949   7.23334e-18 
  8929.4971   5.39941e-18 
  8930.6992    6.2669e-18 
  8931.9014   6.15634e-18 
  8933.1035   5.75068e-18 
  8934.3057   5.93372e-18 
  8935.5078   7.67767e-18 
    8936.71   7.36164e-18 
  8937.9121   8.87298e-18 
  8939.1143   6.79515e-18 
  8940.3174   3.46406e-18 
  8941.5186   9.48083e-18 
  8942.7217   7.09531e-18 
  8943.9229   8.77756e-18 
   8945.126   1.07274e-17 
  8946.3271   6.26555e-18 
  8947.5293   4.04154e-18 
  8948.7314   5.61111e-18 
  8949.9336   5.53644e-18 
  8951.1357   7.29838e-18 
  8952.3379   6.47842e-18 
    8953.54   5.78416e-18 
  8954.7422   4.90954e-18 
  8955.9443    8.7367e-18 
  8957.1465   6.66214e-18 
  8958.3486   8.11471e-18 
  8959.5508   8.41252e-18 
  8960.7529   4.21399e-18 
  8961.9551   4.88618e-19 
  8963.1562   4.78578e-18 
  8964.3584   7.83004e-18 
  8965.5605   5.50873e-18 
  8966.7627   6.48611e-18 
  8967.9648    8.6904e-18 
   8969.167   6.05044e-18 
  8970.3691     7.321e-18 
  8971.5703   6.28004e-18 
  8972.7725   6.00946e-18 
  8973.9746   7.18163e-18 
  8975.1768   5.25823e-18 
  8976.3789   6.51608e-18 
  8977.5801   6.04803e-18 
  8978.7822   7.26903e-18 
  8979.9844   6.69779e-18 
  8981.1865   5.85593e-18 
  8982.3877   4.97219e-18 
  8983.5898   6.05523e-18 
   8984.792   3.12851e-18 
  8985.9941    7.7896e-18 
  8987.1953    9.1104e-18 
  8988.3975   7.67062e-18 
  8989.5996   5.97121e-18 
  8990.8008   8.30651e-18 
  8992.0029   7.63017e-18 
  8993.2051   5.39373e-18 
  8994.4062   7.17156e-18 
  8995.6084   5.09249e-18 
  8996.8105   6.81624e-18 
  8998.0117   5.71359e-18 
  8999.2139   1.13287e-17 
   9000.416   4.81325e-18 
  9001.6172   9.20427e-18 
  9002.8193    9.5349e-18 
  9004.0215   7.91389e-18 
  9005.2227   1.66854e-18 
  9006.4248   3.48054e-18 
   9007.626   4.95647e-18 
  9008.8281   4.51641e-18 
  9010.0293   6.26648e-18 
  9011.2314   5.19532e-18 
  9012.4326   5.14227e-18 
  9013.6348   4.63821e-18 
  9014.8359   4.96827e-18 
  9016.0381   8.19147e-18 
  9017.2402   6.71004e-18 
  9018.4414   5.07589e-18 
  9019.6436   7.43489e-18 
  9020.8447   6.61322e-18 
  9022.0459   7.62341e-18 
   9023.248    7.1257e-18 
  9024.4492   6.85768e-18 
  9025.6514   6.11321e-18 
  9026.8525     6.518e-18 
  9028.0547   8.34546e-18 
  9029.2559   4.30306e-18 
   9030.457   6.71345e-18 
  9031.6592   6.19022e-18 
  9032.8604   6.59492e-18 
  9034.0625   5.26169e-18 
  9035.2637   6.59666e-18 
  9036.4648   1.06451e-17 
   9037.667   7.96381e-18 
  9038.8682   7.11615e-18 
  9040.0693   5.38482e-18 
  9041.2715   6.90033e-18 
  9042.4727   6.04003e-18 
  9043.6738    4.1067e-18 
   9044.876   5.74768e-18 
  9046.0771   7.46916e-18 
  9047.2783   7.31201e-18 
  9048.4795   2.66076e-18 
  9049.6816   8.51791e-18 
  9050.8828   6.55994e-18 
   9052.084   6.30404e-18 
  9053.2852   4.17636e-18 
  9054.4873    5.4631e-18 
  9055.6885   6.24384e-18 
  9056.8896   6.26465e-18 
  9058.0908   7.24003e-18 
   9059.292   5.69957e-18 
  9060.4932   8.20206e-18 
  9061.6953   6.70537e-18 
  9062.8965   5.26379e-18 
  9064.0977   5.59421e-18 
  9065.2988   6.91128e-18 
     9066.5   7.95222e-18 
  9067.7012   5.93791e-18 
  9068.9023   7.67897e-18 
  9070.1035   8.95878e-18 
  9071.3057   5.30849e-18 
  9072.5068   6.66768e-18 
   9073.708   5.76762e-18 
  9074.9092   6.36759e-18 
  9076.1104   6.65168e-18 
  9077.3115   6.54854e-18 
  9078.5127    6.4576e-18 
  9079.7139   6.32081e-18 
   9080.915   6.88705e-18 
  9082.1162   5.26651e-18 
  9083.3174   5.93147e-18 
  9084.5186    6.2774e-18 
  9085.7197   5.85376e-18 
  9086.9199   7.04483e-18 
  9088.1211   7.28619e-18 
  9089.3223   8.25612e-18 
  9090.5234   9.82668e-18 
  9091.7246   7.75264e-18 
  9092.9258   3.71783e-18 
   9094.127   5.03308e-18 
  9095.3281    3.6768e-18 
  9096.5293   4.84035e-18 
  9097.7305   5.58911e-18 
  9098.9307   5.64943e-18 
  9100.1318   6.08889e-18 
   9101.333   7.00365e-18 
  9102.5342    5.2509e-18 
  9103.7354   6.30469e-18 
  9104.9355   6.40455e-18 
  9106.1367   4.61099e-18 
  9107.3379    4.5455e-18 
  9108.5391   5.20955e-18 
  9109.7393   5.02433e-18 
  9110.9404   5.49877e-18 
  9112.1416   6.71268e-18 
  9113.3428   4.95564e-18 
   9114.543   7.26129e-18 
  9115.7441   4.44446e-18 
  9116.9453    5.0704e-18 
  9118.1455   5.11152e-18 
  9119.3467   5.81973e-18 
  9120.5479   7.05832e-18 
   9121.748    5.9752e-18 
  9122.9492   5.71285e-18 
  9124.1494   5.45228e-18 
  9125.3506   7.23795e-18 
  9126.5518   6.59524e-18 
   9127.752      4.17e-18 
  9128.9531   5.73304e-18 
  9130.1533    5.1478e-18 
  9131.3545   7.43553e-18 
  9132.5547    7.8488e-18 
  9133.7559   6.06979e-18 
  9134.9561   4.14471e-18 
  9136.1572    5.3132e-18 
  9137.3574    4.9702e-18 
  9138.5586   5.74688e-18 
  9139.7588   6.23045e-18 
    9140.96   6.51555e-18 
  9142.1602   4.88362e-18 
  9143.3613   6.64582e-18 
  9144.5615   6.44071e-18 
  9145.7617   5.77446e-18 
  9146.9629   6.64565e-18 
  9148.1631   5.72505e-18 
  9149.3643   5.23664e-18 
  9150.5645   7.60165e-18 
  9151.7646   6.48647e-18 
  9152.9658   3.86262e-18 
   9154.166   5.49509e-18 
  9155.3662   5.42185e-18 
  9156.5674   5.14725e-18 
  9157.7676   4.68905e-18 
  9158.9678   5.69885e-18 
   9160.168   5.54054e-18 
  9161.3691    7.4074e-18 
  9162.5693   5.77083e-18 
  9163.7695   4.30734e-18 
  9164.9697   5.78354e-18 
  9166.1699   4.49847e-18 
  9167.3711   6.37421e-18 
  9168.5713    4.9492e-18 
  9169.7715   6.67749e-18 
  9170.9717   4.86009e-18 
  9172.1719   5.74576e-18 
  9173.3721   7.12788e-18 
  9174.5732   6.47099e-18 
  9175.7734   7.56825e-18 
  9176.9736    6.4201e-18 
  9178.1738   6.12897e-18 
   9179.374   7.35363e-18 
  9180.5742   5.59685e-18 
  9181.7744   6.08149e-18 
  9182.9746   6.51787e-18 
  9184.1748   7.40104e-18 
   9185.375    6.2502e-18 
  9186.5752   4.67159e-18 
  9187.7754   5.63023e-18 
  9188.9756   6.08526e-18 
  9190.1758    5.1808e-18 
   9191.376   4.91829e-18 
  9192.5762   4.80238e-18 
  9193.7764   6.64849e-18 
  9194.9766   4.96165e-18 
  9196.1768   6.54506e-18 
   9197.376   5.93446e-18 
  9198.5762   5.96028e-18 
  9199.7764   4.97688e-18 
  9200.9766   4.41025e-18 
  9202.1768   6.83144e-18 
   9203.377   6.91496e-18 
  9204.5762   4.18061e-18 
  9205.7764    5.3838e-18 
  9206.9766   7.26875e-18 
  9208.1768   5.96039e-18 
   9209.376   5.58205e-18 
  9210.5762   4.73547e-18 
  9211.7764   5.39165e-18 
  9212.9766   5.42751e-18 
  9214.1758   4.19091e-18 
   9215.376   5.89987e-18 
  9216.5762   5.29224e-18 
  9217.7754   4.43689e-18 
  9218.9756   4.71346e-18 
  9220.1758   6.68873e-18 
   9221.375   5.37067e-18 
  9222.5752   6.10727e-18 
  9223.7744   4.30197e-18 
  9224.9746   5.08362e-18 
  9226.1748   5.60388e-18 
   9227.374   7.31275e-18 
  9228.5742   4.67917e-18 
  9229.7734   3.61331e-18 
  9230.9736   4.29842e-18 
  9232.1729    6.0041e-18 
   9233.373   3.98147e-18 
  9234.5723   5.06282e-18 
  9235.7725   5.57984e-18 
  9236.9717   4.69102e-18 
  9238.1719   5.65971e-18 
  9239.3711   5.36986e-18 
  9240.5703   5.47676e-18 
  9241.7705   4.79524e-18 
  9242.9697   6.52811e-18 
  9244.1699    4.7115e-18 
  9245.3691   6.04224e-18 
  9246.5684   5.83968e-18 
  9247.7686   3.42044e-18 
  9248.9678   4.24511e-18 
   9250.167   5.99031e-18 
  9251.3672   5.48505e-18 
  9252.5664   7.87761e-18 
  9253.7656   5.11459e-18 
  9254.9648   4.45515e-18 
   9256.165   6.48628e-18 
  9257.3643   6.74648e-18 
  9258.5635   4.69176e-18 
  9259.7627   7.45993e-18 
  9260.9619   6.98394e-18 
  9262.1621   6.16197e-18 
  9263.3613   4.28294e-18 
  9264.5605   4.40566e-18 
  9265.7598   5.53074e-18 
   9266.959   5.64199e-18 
  9268.1582   4.23107e-18 
  9269.3574   4.18525e-18 
  9270.5566   5.14737e-18 
  9271.7559   5.33563e-18 
  9272.9551   6.26388e-18 
  9274.1553   3.82415e-18 
  9275.3535   5.22233e-18 
  9276.5527   4.96682e-18 
  9277.7529   4.24187e-18 
  9278.9512   4.29681e-18 
  9280.1504   4.66495e-18 
  9281.3496   5.42194e-18 
  9282.5488   5.84894e-18 
   9283.748   5.56767e-18 
  9284.9473   6.41631e-18 
  9286.1465   5.07058e-18 
  9287.3457   6.61454e-18 
  9288.5449   5.47983e-18 
  9289.7441   4.21216e-18 
  9290.9424    3.9516e-18 
  9292.1416   5.81052e-18 
  9293.3408   5.92779e-18 
    9294.54   4.69225e-18 
  9295.7393   5.11142e-18 
  9296.9375   4.68346e-18 
  9298.1367   6.31714e-18 
  9299.3359   5.09103e-18 
  9300.5352   4.64442e-18 
  9301.7334   4.46043e-18 
  9302.9326   7.68442e-18 
  9304.1318   4.83462e-18 
  9305.3301   5.12201e-18 
  9306.5293   1.17042e-17 
  9307.7285   4.14955e-18 
  9308.9268   1.03036e-17 
   9310.126   7.43632e-19 
  9311.3242   6.44763e-18 
  9312.5234   3.42575e-18 
  9313.7217   6.29434e-18 
  9314.9209   5.35754e-18 
  9316.1201   9.61586e-18 
  9317.3184   1.88048e-18 
  9318.5176   3.21509e-18 
  9319.7158   4.65234e-18 
  9320.9141   1.34145e-17 
  9322.1133    8.7053e-18 
  9323.3115   4.89297e-18 
  9324.5107   5.52479e-18 
   9325.709   4.43215e-18 
  9326.9082   3.44923e-18 
  9328.1064   6.29179e-18 
  9329.3047   4.72199e-18 
  9330.5039   4.45926e-18 
  9331.7021   7.34506e-18 
  9332.9004   5.27289e-18 
  9334.0996   8.17847e-18 
  9335.2979   8.76485e-18 
  9336.4961   3.50154e-18 
  9337.6943   9.50375e-18 
  9338.8936   7.81065e-18 
  9340.0918   7.26604e-18 
    9341.29   5.46147e-18 
  9342.4883   2.38354e-18 
  9343.6875    3.6981e-18 
  9344.8857   6.40859e-18 
   9346.084   4.50293e-18 
  9347.2822   7.26053e-18 
  9348.4805   6.02913e-18 
  9349.6787   5.93528e-18 
   9350.877   5.06788e-18 
  9352.0752    3.6265e-18 
  9353.2734   5.27195e-18 
  9354.4727   5.52015e-18 
  9355.6709   4.93583e-18 
  9356.8691   4.83331e-18 
  9358.0674   4.91209e-18 
  9359.2656   4.80706e-18 
  9360.4639   5.14984e-18 
  9361.6611   5.35824e-18 
  9362.8594    6.1366e-18 
  9364.0576   4.66834e-18 
  9365.2559   4.48162e-18 
  9366.4541   8.00822e-18 
  9367.6523   6.56198e-18 
  9368.8506   4.04253e-18 
  9370.0488    3.6376e-18 
  9371.2471   8.42344e-19 
  9372.4443   7.50172e-19 
  9373.6426   1.76516e-17 
  9374.8408   1.92705e-17 
  9376.0391   9.68723e-18 
  9377.2363    1.0604e-17 
  9378.4346   2.30648e-18 
  9379.6328  -1.36204e-17 
  9380.8311  -1.30052e-18 
  9382.0283   4.59872e-18 
  9383.2266   7.58307e-18 
  9384.4248   1.03922e-17 
  9385.6221    3.9103e-18 
  9386.8203   2.31025e-18 
  9388.0186    1.0498e-17 
  9389.2158   9.38346e-18 
  9390.4141    4.6358e-18 
  9391.6113   2.30961e-18 
  9392.8096   5.14562e-18 
  9394.0068   5.30003e-18 
  9395.2051   5.73469e-18 
  9396.4023   5.25394e-18 
  9397.6006   4.15184e-18 
  9398.7979   5.53997e-18 
  9399.9961   3.50482e-18 
  9401.1934   6.71907e-18 
  9402.3916   3.68141e-18 
  9403.5889   2.48014e-18 
  9404.7871   4.32664e-18 
  9405.9844   4.22947e-18 
  9407.1816   2.40441e-18 
  9408.3799   5.24207e-18 
  9409.5771   4.55692e-18 
  9410.7744   5.76256e-18 
  9411.9727   4.88437e-18 
  9413.1699   4.54034e-18 
  9414.3672   4.64641e-18 
  9415.5645   3.60665e-18 
  9416.7627  -7.21653e-19 
    9417.96   1.15891e-17 
  9419.1572   5.56286e-18 
  9420.3545   7.54807e-18 
  9421.5518   4.43119e-18 
   9422.749  -3.42443e-19 
  9423.9473    1.5514e-18 
  9425.1445   1.63264e-18 
  9426.3418   6.04108e-18 
  9427.5391   5.28184e-18 
  9428.7363   5.72786e-18 
  9429.9336   5.91457e-18 
  9431.1309   5.09104e-18 
  9432.3281   4.80745e-18 
  9433.5254   3.96601e-18 
  9434.7227   3.52082e-18 
  9435.9199   2.12744e-18 
  9437.1172   1.96487e-17 
  9438.3145   6.68024e-18 
  9439.5117    2.6114e-18 
   9440.709   2.12309e-18 
  9441.9062   5.24793e-19 
  9443.1035  -8.71893e-18 
  9444.3008   -1.4773e-18 
  9445.4971   3.17376e-18 
  9446.6943   4.62613e-18 
  9447.8916   6.97367e-18 
  9449.0889   6.40968e-18 
  9450.2861   4.99726e-18 
  9451.4824   4.73385e-18 
  9452.6797   3.81947e-18 
   9453.877   4.64617e-18 
  9455.0742   1.84114e-18 
  9456.2705   1.20078e-17 
  9457.4678   7.72034e-18 
   9458.665   -9.5241e-19 
  9459.8613   8.21812e-18 
  9461.0586   6.05844e-18 
  9462.2549   5.57036e-18 
  9463.4521   1.20139e-18 
  9464.6494   4.98674e-18 
  9465.8457   4.77342e-18 
   9467.043   5.41564e-18 
  9468.2393   5.07308e-18 
  9469.4365   5.70649e-18 
  9470.6328    4.7448e-18 
  9471.8301   6.04823e-18 
  9473.0264    9.0859e-19 
  9474.2236   9.89803e-18 
  9475.4199   1.12851e-17 
  9476.6172   6.82943e-18 
  9477.8135   9.66736e-18 
  9479.0098   9.95253e-18 
   9480.207   1.01935e-17 
  9481.4033  -2.40094e-18 
  9482.5996   3.64229e-18 
  9483.7969   6.43113e-18 
  9484.9932    4.8701e-18 
  9486.1895   4.40245e-18 
  9487.3867   5.46068e-18 
   9488.583    6.5897e-18 
  9489.7793   4.62533e-18 
  9490.9756   6.09904e-18 
  9492.1719   2.68669e-18 
  9493.3691   3.89268e-18 
  9494.5654   6.04213e-18 
  9495.7617   3.49679e-18 
   9496.958   4.65584e-18 
  9498.1543   3.96652e-18 
  9499.3506    3.5033e-18 
  9500.5469    5.2507e-18 
  9501.7432   6.86314e-18 
  9502.9395   4.13573e-18 
  9504.1357   4.53257e-18 
   9505.333   3.23615e-18 
  9506.5283   2.50995e-19 
  9507.7256   4.98857e-18 
  9508.9219   5.67018e-18 
  9510.1172   7.70076e-18 
  9511.3135   5.35561e-18 
  9512.5098   6.77165e-18 
  9513.7061   6.02825e-18 
  9514.9023   3.52394e-18 
  9516.0986   2.58077e-18 
  9517.2949   2.91638e-18 
  9518.4912   4.20357e-19 
  9519.6865  -3.87448e-18 
  9520.8828   4.80036e-18 
  9522.0791   8.63915e-18 
  9523.2754   4.96224e-18 
  9524.4717   9.95998e-19 
   9525.667   2.00841e-18 
  9526.8633   6.55422e-18 
  9528.0596   6.30447e-18 
  9529.2549   6.39582e-18 
  9530.4512   3.85271e-18 
  9531.6475   4.41197e-18 
  9532.8428   5.87518e-18 
  9534.0391   5.44534e-18 
  9535.2344   3.04407e-18 
  9536.4307   5.90762e-18 
   9537.627   6.20777e-18 
  9538.8223   6.76916e-18 
  9540.0186   6.82874e-18 
  9541.2139    6.6389e-18 
  9542.4102   6.87874e-18 
  9543.6055   5.07285e-18 
  9544.8018   6.83902e-18 
  9545.9971   5.06283e-18 
  9547.1924   4.83071e-18 
  9548.3887   4.82833e-18 
   9549.584   6.74358e-18 
  9550.7803   7.01586e-18 
  9551.9756   2.97978e-18 
  9553.1709   7.35754e-18 
  9554.3672   5.94242e-18 
  9555.5625   8.77528e-18 
  9556.7578  -1.46985e-18 
  9557.9531   8.03312e-18 
  9559.1494   4.31419e-18 
  9560.3447   5.28646e-18 
    9561.54    5.2456e-18 
  9562.7354   6.18889e-18 
  9563.9307   6.30276e-18 
   9565.127   1.61493e-17 
  9566.3223   4.69331e-18 
  9567.5176   1.73849e-18 
  9568.7129    4.2876e-18 
  9569.9082   5.57274e-18 
  9571.1035  -1.41298e-18 
  9572.2988   5.68541e-18 
  9573.4941     6.041e-18 
  9574.6895   2.75344e-18 
  9575.8848   3.07801e-18 
  9577.0801   6.09826e-18 
  9578.2754   5.37342e-18 
  9579.4707     4.547e-18 
   9580.666   5.40247e-18 
  9581.8613   5.70592e-18 
  9583.0566   5.26428e-18 
   9584.252   5.91398e-18 
  9585.4473   4.50026e-18 
  9586.6426    5.7334e-18 
  9587.8369   3.99968e-18 
  9589.0322   5.26596e-18 
  9590.2275   6.45244e-18 
  9591.4229   5.99603e-18 
  9592.6182   5.39581e-18 
  9593.8135   5.37609e-18 
  9595.0078   5.87738e-18 
  9596.2031   5.23703e-18 
  9597.3984   7.87051e-18 
  9598.5928   4.40997e-18 
  9599.7881   5.09568e-18 
  9600.9834   4.22146e-18 
  9602.1777   4.35154e-18 
   9603.373   5.68064e-18 
  9604.5684   5.10346e-18 
  9605.7627   6.68326e-18 
   9606.958   5.81991e-18 
  9608.1523   4.85787e-18 
  9609.3477   4.91944e-18 
   9610.542   4.59222e-18 
  9611.7373   3.28031e-18 
  9612.9316   5.97196e-18 
   9614.127   7.91635e-18 
  9615.3213   5.90353e-18 
  9616.5166   6.12644e-18 
  9617.7109   7.70973e-18 
  9618.9053   8.65942e-18 
  9620.1006   8.78683e-18 
  9621.2949   1.02786e-18 
  9622.4893   2.36863e-18 
  9623.6846   6.16692e-18 
  9624.8789   3.21786e-18 
  9626.0732   3.89856e-18 
  9627.2686   2.55727e-18 
  9628.4629   4.71195e-18 
  9629.6572   5.50103e-18 
  9630.8516   6.24882e-18 
  9632.0469   3.55547e-18 
  9633.2412    6.3448e-18 
  9634.4355   7.08381e-18 
  9635.6299   6.34033e-18 
  9636.8242   6.65757e-18 
  9638.0186    6.3429e-18 
  9639.2129   6.39563e-18 
  9640.4082   5.25734e-18 
  9641.6025   3.74142e-18 
  9642.7969   8.60777e-18 
  9643.9912   6.25234e-18 
  9645.1855   5.29919e-18 
  9646.3799   4.15828e-18 
  9647.5742   5.93134e-18 
  9648.7686   5.93715e-18 
  9649.9629   6.00571e-18 
  9651.1572   6.10162e-18 
  9652.3506   6.19889e-18 
  9653.5449   6.10788e-18 
  9654.7393   5.56921e-18 
  9655.9336   5.76778e-18 
  9657.1279   5.91429e-18 
  9658.3223   5.85055e-18 
  9659.5166   6.23104e-18 
    9660.71   8.23629e-18 
  9661.9043   3.83054e-18 
  9663.0986   8.71624e-18 
   9664.293   3.53562e-18 
  9665.4863   7.04593e-18 
  9666.6807   6.16752e-18 
   9667.875   3.76939e-18 
  9669.0693   4.18635e-18 
  9670.2627   7.48126e-18 
   9671.457   8.31756e-18 
  9672.6504    3.3266e-18 
  9673.8447   4.49176e-18 
  9675.0391   5.95643e-18 
  9676.2324   4.21338e-18 
  9677.4268   8.37723e-18 
  9678.6201   6.92332e-18 
  9679.8145   8.04294e-18 
  9681.0078   5.32154e-18 
  9682.2021   2.79975e-18 
  9683.3955   1.01059e-17 
  9684.5898   5.89762e-18 
  9685.7832   6.31149e-18 
  9686.9775   4.62375e-18 
  9688.1709   8.73523e-18 
  9689.3643   6.23154e-18 
  9690.5586   6.17938e-18 
   9691.752   7.48918e-18 
  9692.9453   6.00286e-18 
  9694.1396   1.50771e-18 
   9695.333    5.7812e-18 
  9696.5264   1.20835e-17 
  9697.7207   1.41118e-17 
  9698.9141   9.30236e-18 
  9700.1074    1.6028e-18 
  9701.3008   9.24566e-18 
  9702.4951   3.75236e-18 
  9703.6885   4.44774e-19 
  9704.8818   5.63064e-18 
  9706.0752    5.4334e-18 
  9707.2686   5.80999e-18 
  9708.4619   7.11088e-18 
  9709.6562   6.66764e-18 
  9710.8496   1.96135e-18 
   9712.043   5.84779e-18 
  9713.2363   2.27896e-18 
  9714.4297   2.34227e-18 
   9715.623   5.74659e-18 
  9716.8164   8.82373e-18 
  9718.0098   1.36365e-17 
  9719.2031   9.97881e-18 
  9720.3965   3.94964e-18 
  9721.5898   6.84704e-18 
  9722.7832   9.98975e-18 
  9723.9766   1.19823e-18 
  9725.1689    6.6691e-18 
  9726.3623   5.05913e-18 
  9727.5557   5.39762e-18 
   9728.749   4.58871e-18 
  9729.9424   4.63616e-18 
  9731.1357   6.07055e-18 
  9732.3281   7.75261e-18 
  9733.5215   4.19837e-18 
  9734.7148   5.23866e-18 
  9735.9082   1.08276e-17 
  9737.1016   4.98206e-18 
  9738.2939    7.4507e-18 
  9739.4873   1.49009e-18 
  9740.6807    5.5629e-18 
   9741.873   2.64505e-18 
  9743.0664     3.257e-18 
  9744.2598   6.48864e-18 
  9745.4521   6.33773e-18 
  9746.6455   8.08967e-18 
  9747.8379   4.64538e-18 
  9749.0312   7.87439e-18 
  9750.2236   4.71562e-18 
   9751.417   6.40285e-18 
  9752.6104   5.97667e-18 
  9753.8027   6.30203e-18 
  9754.9951   5.07898e-18 
  9756.1885   5.31314e-18 
  9757.3809   6.02681e-18 
  9758.5742   5.93137e-18 
  9759.7666   5.94608e-18 
    9760.96   4.41394e-18 
  9762.1523   5.55298e-18 
  9763.3447   5.47725e-18 
  9764.5381   5.73287e-18 
  9765.7305   4.97787e-18 
  9766.9238   3.11889e-18 
  9768.1162   5.23099e-18 
  9769.3086   5.21857e-18 
   9770.501   5.28791e-18 
  9771.6943   4.60147e-18 
  9772.8867   4.88198e-18 
  9774.0791   6.45143e-18 
  9775.2715    5.7151e-18 
  9776.4648    5.3893e-18 
  9777.6572    2.7058e-18 
  9778.8496   7.35808e-18 
   9780.042    5.6554e-18 
  9781.2344   4.59395e-18 
  9782.4268   6.47472e-18 
  9783.6191   5.39946e-18 
  9784.8125   3.56715e-18 
  9786.0049   6.01254e-18 
  9787.1973  -1.80744e-18 
  9788.3896   1.81289e-17 
   9789.582   1.47501e-19 
  9790.7744   7.45824e-18 
  9791.9668  -3.99806e-18 
  9793.1592   9.62823e-18 
  9794.3516    1.2096e-17 
  9795.5439  -5.41947e-18 
  9796.7363   3.64875e-18 
  9797.9287   6.07406e-18 
  9799.1201   8.60832e-18 
  9800.3125   7.04862e-18 
  9801.5049   4.62331e-18 
  9802.6973   9.67789e-19 
  9803.8896  -9.79682e-19 
   9805.082   4.55165e-18 
  9806.2744    8.6623e-18 
  9807.4658   6.03232e-18 
  9808.6582    7.0432e-18 
  9809.8506   7.88987e-18 
   9811.043   4.05011e-18 
  9812.2344   3.66342e-18 
  9813.4268   4.91267e-18 
  9814.6191   6.03339e-18 
  9815.8115   2.23088e-18 
  9817.0029   3.44959e-18 
  9818.1953   5.77913e-18 
  9819.3877   4.80072e-18 
  9820.5791   4.93522e-18 
  9821.7715   3.33909e-18 
  9822.9629   6.55598e-18 
  9824.1553   3.64777e-18 
  9825.3477   6.51376e-18 
  9826.5391   5.07614e-18 
  9827.7314   5.39797e-18 
  9828.9229   3.91578e-18 
  9830.1152   8.61084e-18 
  9831.3066   6.53154e-18 
   9832.499   5.48644e-18 
  9833.6904   7.18392e-18 
  9834.8828   5.64437e-18 
  9836.0742   6.18911e-18 
  9837.2666   4.13379e-18 
   9838.458    6.6436e-18 
  9839.6494   5.93489e-18 
  9840.8418   6.25958e-18 
  9842.0332   6.31195e-18 
  9843.2256   3.90456e-18 
   9844.417   7.71274e-18 
  9845.6084   7.49856e-18 
  9846.8008   2.10847e-18 
  9847.9922   5.03126e-18 
  9849.1836   5.89398e-18 
   9850.375   5.74764e-18 
  9851.5674    5.6298e-18 
  9852.7588   3.76099e-18 
  9853.9502   5.18285e-18 
  9855.1416   4.23821e-18 
   9856.334   4.95822e-18 
  9857.5254      6.14e-18 
  9858.7168    6.7907e-18 
  9859.9082   4.33185e-18 
  9861.0996   7.15746e-18 
   9862.291   3.79946e-18 
  9863.4834   5.20129e-18 
  9864.6748   4.62262e-18 
  9865.8662   4.70508e-18 
  9867.0576   5.53754e-18 
   9868.249   2.38216e-18 
  9869.4404   5.77003e-19 
  9870.6318   8.27776e-20 
  9871.8232   4.65657e-18 
  9873.0146   3.97683e-18 
  9874.2061   1.34184e-17 
  9875.3975  -5.43743e-18 
  9876.5889  -5.71805e-19 
  9877.7803   3.21179e-18 
  9878.9717   5.46079e-18 
  9880.1631   1.00542e-17 
  9881.3545   8.62262e-18 
  9882.5459   5.08385e-18 
  9883.7373   5.57134e-18 
  9884.9277   6.33899e-18 
  9886.1191   5.74567e-18 
  9887.3105   4.04099e-18 
   9888.502   4.34643e-18 
  9889.6934   3.87929e-18 
  9890.8848   2.88876e-18 
  9892.0752   1.06028e-17 
  9893.2666   9.09527e-18 
   9894.458  -1.51466e-19 
  9895.6494   3.38642e-18 
  9896.8408   7.84853e-18 
  9898.0312   4.69522e-18 
  9899.2227   4.82742e-18 
  9900.4141   4.75209e-18 
  9901.6045   6.71748e-18 
  9902.7959   7.10954e-18 
  9903.9873   1.73056e-18 
  9905.1777    5.6829e-18 
  9906.3691   6.13914e-18 
  9907.5605   6.65184e-18 
   9908.751   4.36932e-18 
  9909.9424   7.81404e-18 
  9911.1338   1.39535e-17 
  9912.3242    1.9286e-17 
  9913.5156   4.34777e-18 
  9914.7061    1.1694e-17 
  9915.8975    2.4731e-17 
  9917.0879   6.88235e-18 
  9918.2793  -4.78691e-18 
  9919.4697  -5.10259e-18 
  9920.6611   2.15636e-18 
  9921.8516   3.86943e-18 
   9923.043   4.21686e-18 
  9924.2334   5.04648e-18 
  9925.4248   4.63439e-18 
  9926.6152   5.45027e-18 
  9927.8066   5.74927e-18 
  9928.9971   5.98878e-18 
  9930.1885   6.20704e-18 
  9931.3789   5.40239e-18 
  9932.5693   6.28338e-18 
  9933.7607   6.19304e-18 
  9934.9512   5.29982e-18 
  9936.1426   5.01923e-18 
   9937.333   8.06541e-18 
  9938.5234   8.41016e-18 
  9939.7148   1.28323e-17 
  9940.9053   4.73296e-18 
  9942.0957  -7.44893e-19 
  9943.2861   1.19526e-17 
  9944.4775   9.18441e-18 
   9945.668   -1.3377e-17 
  9946.8584   1.63322e-17 
  9948.0488    1.2897e-18 
  9949.2402   8.46284e-18 
  9950.4307   1.03887e-18 
  9951.6211  -2.25868e-18 
  9952.8115   6.83658e-18 
  9954.0029   1.55761e-17 
  9955.1934   6.05673e-18 
  9956.3838      1.62e-17 
  9957.5742   7.40321e-18 
  9958.7646   1.01585e-17 
  9959.9551   1.31548e-17 
  9961.1465    3.4668e-18 
  9962.3369   1.49725e-17 
  9963.5273   2.85634e-18 
  9964.7178   5.45355e-18 
  9965.9082  -6.27153e-18 
  9967.0986  -5.87834e-19 
  9968.2891   7.81582e-18 
  9969.4795   8.45039e-18 
  9970.6699  -1.94358e-18 
  9971.8604    4.4838e-18 
  9973.0508   4.75773e-18 
  9974.2412   2.52557e-18 
  9975.4316   2.03839e-18 
  9976.6221   4.57712e-18 
  9977.8125   3.87256e-18 
  9979.0029   7.82426e-18 
  9980.1934   7.63146e-18 
  9981.3838   2.83607e-18 
  9982.5742   6.47828e-18 
  9983.7646   6.13767e-19 
  9984.9551   4.85306e-18 
  9986.1455   4.01879e-18 
  9987.3359   3.97989e-18 
  9988.5264     4.727e-18 
  9989.7168   2.74311e-18 
  9990.9062    6.7043e-18 
  9992.0967   2.96763e-18 
  9993.2871   4.44495e-18 
  9994.4775   4.38788e-18 
   9995.668   4.57941e-18 
  9996.8584   7.46867e-18 
  9998.0488   1.16802e-17 
  9999.2383   9.24052e-18 
  10000.429   3.89582e-18 
  10001.619   1.10559e-17 
  10002.809  -9.85086e-19 
    10004.0   1.02731e-18 
   10005.19   1.12716e-18 
   10006.38   8.57474e-18 
   10007.57  -2.80817e-18 
  10008.761   9.75978e-18 
  10009.951   1.25009e-17 
  10011.141    2.0781e-17 
  10012.331    2.1135e-18 
  10013.521  -7.06601e-18 
  10014.711      7.53e-19 
  10015.902   1.70697e-17 
  10017.092  -6.74655e-18 
  10018.282   5.79073e-18 
  10019.472   7.10212e-19 
  10020.662   5.22974e-18 
  10021.852   4.09649e-18 
  10023.042   6.43723e-18 
  10024.232   3.40279e-18 
  10025.422  -3.38223e-18 
  10026.613   8.44487e-18 
  10027.803   8.80793e-18 
  10028.993   1.01707e-17 
  10030.183   3.21158e-18 
  10031.373    2.9261e-18 
  10032.563   4.85006e-18 
  10033.753    2.3133e-18 
  10034.943   5.23989e-18 
  10036.133   2.70865e-18 
  10037.323   2.03522e-18 
  10038.513   3.33888e-18 
  10039.703   3.73088e-18 
  10040.893   2.39317e-18 
  10042.083   4.83936e-18 
  10043.273   1.24075e-18 
  10044.463   6.89464e-18 
  10045.653   1.03137e-18 
  10046.843   3.18722e-19 
  10048.033   4.02206e-18 
  10049.223   3.40294e-18 
  10050.413   3.59954e-18 
  10051.603    2.8873e-18 
  10052.793   6.04086e-18 
  10053.983    4.4871e-18 
  10055.173   2.92623e-18 
  10056.363   2.52568e-18 
  10057.553   4.34543e-18 
  10058.743    7.6742e-18 
  10059.932   1.10789e-17 
  10061.122   4.70112e-19 
  10062.312   1.25905e-18 
  10063.502   1.21339e-17 
  10064.692   1.69435e-18 
  10065.882   1.72126e-19 
  10067.072   5.16872e-18 
  10068.262  -6.46169e-19 
  10069.452   1.14928e-17 
  10070.641   2.26374e-18 
  10071.831    6.7709e-18 
  10073.021   6.43659e-20 
  10074.211    5.4926e-18 
  10075.401   4.02396e-18 
  10076.591   5.96037e-18 
  10077.781   6.74963e-18 
   10078.97   6.64525e-18 
   10080.16    1.8788e-17 
   10081.35  -1.73316e-18 
   10082.54   4.77099e-18 
   10083.73   1.07024e-17 
   10084.92   4.35082e-18 
  10086.109  -7.83992e-18 
  10087.299   3.68319e-18 
  10088.489   6.52785e-18 
  10089.679   2.52627e-18 
  10090.869  -4.62178e-19 
  10092.059   3.82406e-18 
  10093.248   7.77517e-18 
  10094.438   2.51427e-18 
  10095.628   3.33258e-18 
  10096.818   6.20656e-18 
  10098.008   4.07014e-18 
  10099.197   6.63387e-18 
  10100.387   3.20745e-18 
  10101.577  -8.88678e-19 
  10102.767    2.6728e-18 
  10103.956    5.2579e-18 
  10105.146    1.0347e-17 
  10106.336    6.4061e-19 
  10107.526    6.8434e-18 
  10108.716    1.0056e-18 
  10109.905   9.29228e-18 
  10111.095   5.91974e-18 
  10112.285   4.28216e-18 
  10113.475   5.55238e-18 
  10114.664   2.12214e-18 
  10115.854   6.05575e-18 
  10117.044   4.39626e-18 
  10118.234   5.49299e-18 
  10119.423    1.3609e-18 
  10120.613   9.14672e-18 
  10121.803   2.25615e-17 
  10122.993   1.67273e-17 
  10124.182   8.34403e-18 
  10125.372   7.42622e-18 
  10126.562  -1.20297e-17 
  10127.752  -7.07141e-18 
  10128.941   4.94448e-18 
  10130.131   3.05292e-18 
  10131.321   3.28691e-18 
  10132.511   9.27643e-18 
    10133.7  -1.09029e-18 
   10134.89   6.60016e-18 
   10136.08   7.10015e-18 
   10137.27   1.56469e-18 
  10138.459   1.90472e-18 
  10139.649   1.81129e-18 
  10140.839   6.71743e-18 
  10142.029  -2.22497e-19 
  10143.218   4.70545e-18 
  10144.408    3.9992e-18 
  10145.598   6.56012e-18 
  10146.788   3.04705e-18 
  10147.977   7.44964e-18 
  10149.167   7.37568e-18 
  10150.357   1.39924e-17 
  10151.547   3.94498e-18 
  10152.736   6.84184e-18 
  10153.926   1.46058e-17 
  10155.116   1.03246e-18 
  10156.306   5.48133e-18 
  10157.495   3.90596e-18 
  10158.685  -2.29928e-18 
  10159.875   4.99347e-18 
  10161.065   5.82753e-19 
  10162.255    5.9544e-18 
  10163.444   6.48461e-18 
  10164.634   3.58001e-18 
  10165.824   5.84568e-18 
  10167.014   6.88156e-19 
  10168.203   5.75151e-18 
  10169.393   1.01466e-17 
  10170.583   2.54958e-17 
  10171.773   -9.3353e-19 
  10172.963   1.10336e-17 
  10174.152  -8.52583e-18 
  10175.342  -8.84736e-19 
  10176.532  -1.00142e-17 
  10177.722   5.45996e-18 
  10178.912   8.58316e-18 
  10180.101   2.32661e-18 
  10181.291   5.48772e-18 
  10182.481   1.07892e-17 
  10183.671  -4.34188e-18 
  10184.861   4.52715e-18 
   10186.05  -3.46335e-18 
   10187.24   9.44007e-18 
   10188.43    1.2293e-17 
   10189.62   6.42928e-18 
   10190.81   1.34377e-17 
    10192.0  -1.03421e-17 
   10193.19   9.72058e-18 
  10194.379   3.27352e-19 
  10195.569   4.31605e-18 
  10196.759  -2.75099e-18 
  10197.949   3.26007e-18 
  10199.139   4.59256e-18 
  10200.329   4.10059e-18 
  10201.519   1.39627e-18 
  10202.709   3.14998e-18 
  10203.898   3.70873e-18 
  10205.088   2.12071e-18 
  10206.278   3.01432e-18 
  10207.468  -3.98838e-18 
  10208.658   1.99342e-17 
  10209.848    1.7086e-17 
  10211.038   2.48113e-17 
  10212.228     1.001e-17 
  10213.418   4.87254e-18 
  10214.608  -4.54598e-18 
  10215.798  -1.30473e-17 
  10216.988   1.62646e-19 
  10218.178   2.63018e-18 
  10219.368   2.17776e-18 
  10220.558   9.50729e-18 
  10221.748  -1.67811e-18 
  10222.938  -2.80836e-18 
  10224.128   1.36809e-17 
  10225.318   1.04301e-17 
  10226.508  -3.14724e-18 
  10227.698   1.94855e-17 
  10228.888  -1.36886e-18 
  10230.078   6.44035e-18 
  10231.268  -2.14582e-18 
  10232.458   5.44291e-18 
  10233.648    -5.661e-18 
  10234.838  -2.38755e-18 
  10236.028  -3.08172e-18 
  10237.218   1.06757e-17 
  10238.408   8.73939e-18 
  10239.599   7.45508e-18 
  10240.789  -2.18463e-18 
  10241.979   5.48614e-18 
  10243.169   2.10093e-18 
  10244.359   3.73684e-18 
  10245.549   5.92617e-18 
  10246.739   5.12304e-18 
   10247.93   6.57816e-18 
   10249.12   8.94512e-18 
   10250.31   4.29097e-18 
    10251.5     4.737e-18 
   10252.69   2.34367e-18 
  10253.881   5.60005e-18 
  10255.071   3.32881e-18 
  10256.261   2.30839e-18 
  10257.451   7.26588e-18 
  10258.642   9.39079e-19 
  10259.832   9.39952e-18 
  10261.022  -5.40567e-19 
  10262.213    5.8127e-18 
  10263.403   4.67587e-18 
  10264.593   1.77885e-18 
  10265.784   1.06286e-18 
  10266.974   2.28595e-18 
  10268.164    3.0857e-18 
  10269.355   4.62846e-18 
  10270.545    3.0848e-18 
  10271.735   6.14715e-18 
  10272.926   6.04206e-18 
  10274.116  -1.46703e-18 
  10275.307   1.25961e-17 
  10276.497  -4.15235e-18 
  10277.688   1.21548e-17 
  10278.878   5.49509e-18 
  10280.069   9.32682e-18 
  10281.259   3.05725e-18 
   10282.45  -2.62222e-17 
   10283.64   2.63298e-17 
  10284.831   4.73224e-17 
  10286.021   1.14679e-17 
  10287.212   2.34611e-17 
  10288.402    1.4945e-18 
  10289.593   1.79349e-17 
  10290.784  -2.17464e-17 
  10291.974  -2.09446e-17 
  10293.165   1.68778e-17 
  10294.355   1.22251e-17 
  10295.546   1.16508e-17 
  10296.737    1.3874e-17 
  10297.927   2.28765e-17 
  10299.118   2.34879e-17 
  10300.309   1.17332e-18 
    10301.5  -2.23586e-18 
   10302.69  -1.07557e-18 
  10303.881   2.76362e-18 
  10305.072   1.22319e-17 
  10306.263   1.26697e-17 
  10307.454   8.59331e-18 
  10308.644   1.18184e-17 
  10309.835  -6.40512e-19 
  10311.026   4.56289e-18 
