# STATUS =
# OBJECT = 2019kwt
# TELESCOPE = Keck1
# INSTRUMENT = LRIS
# DATE-OBS = 2019-07-02 00:00:00.000
# MJD = 58666.0
# EXPTIME =
# AIRMASS =
# SLIT =
# DISPERSER =
# SOURCE = DOI 10.3847/1538-4357/aca161
# FILTER =
# RESOLUTION =
# FLUX_STANDARD =
# EXTINCTION_CORRECTED =
# PHOTOMETRY_CALIBRATED =
# TELLURIC_CORRECTED =
# FLUX_UNITS =
# WAVE_UNITS =
# QUALITY =
# MIN_WAVE = 3106.2524
# MAX_WAVE = 10306.4
# COMMENT =
 Wavelength          Flux 
   3108.208   5.12183e-17 
  3110.1638   7.40295e-17 
  3112.1206   2.77905e-18 
  3114.0776   9.37298e-17 
  3116.0356  -1.90257e-17 
  3117.9939   4.39874e-18 
  3119.9531   8.58292e-17 
  3121.9128  -8.45475e-19 
   3123.873   9.19363e-17 
   3125.834   1.21495e-16 
  3127.7957  -1.82314e-17 
  3129.7578  -1.08809e-17 
  3131.7205   4.35286e-18 
  3133.6838  -1.32675e-17 
  3135.6477   9.50757e-18 
  3137.6123  -2.84767e-17 
  3139.5774   4.60618e-17 
  3141.5432   4.30434e-17 
  3143.5095   1.63653e-18 
  3145.4766  -6.35257e-17 
  3147.4441   6.68653e-17 
  3149.4124  -1.44383e-17 
  3151.3811   2.57906e-17 
  3153.3506   2.36721e-17 
  3155.3206   1.44428e-17 
   3157.291   2.39659e-17 
  3159.2622   2.99534e-17 
  3161.2339  -2.41035e-17 
  3163.2063  -3.22112e-17 
  3165.1792    2.5024e-17 
  3167.1528  -4.85068e-19 
   3169.127  -2.32255e-17 
  3171.1016   3.18892e-17 
  3173.0769  -7.71691e-18 
  3175.0527   1.76234e-17 
  3177.0293    4.6797e-17 
  3179.0063  -2.56272e-18 
  3180.9839   1.48849e-17 
  3182.9622   2.53273e-17 
  3184.9409   8.60774e-18 
  3186.9204   2.39248e-17 
  3188.9004  -2.66695e-17 
  3190.8809  -2.43528e-17 
  3192.8621   3.42481e-18 
  3194.8438  -1.69788e-17 
  3196.8259  -1.00622e-17 
  3198.8088   6.52706e-18 
  3200.7922  -4.86287e-18 
  3202.7764   1.45463e-17 
   3204.761   3.55394e-19 
  3206.7461  -6.37068e-19 
  3208.7317   5.15632e-18 
   3210.718   6.93444e-18 
  3212.7048  -2.53485e-18 
  3214.6924  -3.10973e-18 
  3216.6804  -6.16401e-18 
  3218.6689   3.04251e-18 
   3220.658   2.00657e-17 
  3222.6477   1.59803e-17 
  3224.6379   3.81347e-18 
  3226.6289   3.10825e-17 
  3228.6201   7.19127e-18 
  3230.6121  -1.57669e-19 
  3232.6045  -9.03859e-20 
  3234.5977  -1.47148e-17 
  3236.5913   1.28641e-17 
  3238.5854   4.44169e-18 
  3240.5801   3.04908e-17 
  3242.5754   1.72155e-17 
  3244.5713   2.12871e-17 
  3246.5676   3.46725e-18 
  3248.5647   1.46985e-17 
   3250.562   9.24264e-18 
  3252.5601   1.78186e-17 
  3254.5586   2.12268e-18 
  3256.5579   8.04338e-18 
  3258.5576    1.8153e-17 
  3260.5576   1.52077e-17 
  3262.5586   1.45636e-17 
  3264.5598   1.00005e-18 
  3266.5618   1.28301e-17 
  3268.5642   3.02633e-17 
  3270.5671  -4.57259e-18 
  3272.5706   -1.5995e-18 
  3274.5747  -8.77501e-18 
  3276.5791  -4.75576e-18 
  3278.5842  -5.33222e-18 
  3280.5898   1.76167e-19 
  3282.5962   1.44536e-17 
  3284.6028   1.39668e-17 
  3286.6101  -1.00046e-18 
  3288.6179   -1.5895e-17 
  3290.6262  -5.15291e-18 
   3292.635   3.82154e-18 
  3294.6443   1.64403e-17 
  3296.6543   1.73794e-17 
  3298.6648    1.0812e-17 
  3300.6758  -5.06607e-19 
  3302.6873   1.50503e-17 
  3304.6992   6.79136e-18 
  3306.7117  -2.51815e-18 
  3308.7249   9.72315e-18 
  3310.7383   1.26278e-17 
  3312.7524   6.50147e-18 
  3314.7671   1.24882e-17 
  3316.7822   8.49293e-18 
  3318.7981    8.7219e-18 
  3320.8142   2.69265e-17 
  3322.8308  -6.56199e-18 
  3324.8481   1.24608e-17 
   3326.866   2.64679e-18 
   3328.884   9.12065e-18 
  3330.9028   1.06758e-17 
  3332.9221    1.2487e-17 
  3334.9419   3.29225e-18 
  3336.9624  -6.00382e-18 
  3338.9832   1.15142e-17 
  3341.0044   1.67044e-20 
  3343.0264   -1.4472e-18 
  3345.0486   1.10457e-17 
  3347.0715   4.58011e-18 
   3349.095   9.56168e-18 
  3351.1189   1.93608e-17 
  3353.1431   4.09452e-18 
   3355.168  -9.41604e-18 
  3357.1934   5.47215e-18 
  3359.2192   7.85393e-18 
  3361.2456   1.29082e-17 
  3363.2727   6.52209e-18 
  3365.2998   1.72403e-17 
  3367.3279   4.87002e-18 
  3369.3562   1.94682e-17 
   3371.385    5.3045e-18 
  3373.4143   1.72436e-17 
  3375.4443   5.97249e-18 
  3377.4746   1.37396e-17 
  3379.5056   1.77472e-17 
  3381.5369   6.48515e-18 
  3383.5686   1.88275e-17 
  3385.6011   9.50923e-18 
  3387.6338   9.62897e-18 
   3389.667   5.87829e-18 
  3391.7009   1.12753e-17 
  3393.7351   1.91952e-17 
    3395.77   1.72322e-17 
  3397.8052   2.38176e-17 
  3399.8411   6.59271e-18 
  3401.8772   1.44806e-17 
  3403.9138   1.24758e-17 
  3405.9512   1.09819e-17 
  3407.9888   1.46269e-17 
  3410.0269   7.00466e-18 
  3412.0654   1.82679e-17 
  3414.1045   9.52841e-18 
  3416.1443   7.56474e-18 
  3418.1841   1.29425e-17 
  3420.2246   1.67595e-17 
  3422.2656   1.03978e-17 
  3424.3071    4.2444e-19 
  3426.3491   1.29307e-17 
  3428.3916   9.55389e-18 
  3430.4346   1.29845e-17 
  3432.4778   5.84068e-18 
  3434.5217   1.98528e-17 
  3436.5659   8.36698e-18 
  3438.6106   1.12781e-17 
   3440.656   5.89365e-18 
  3442.7017   1.61939e-18 
  3444.7478   6.45193e-18 
  3446.7944     5.927e-18 
  3448.8416   1.43293e-17 
  3450.8892    6.3492e-18 
   3452.937   7.30491e-18 
  3454.9856  -2.11367e-18 
  3457.0344   1.24576e-17 
   3459.084   1.35283e-17 
  3461.1338  -4.34323e-19 
  3463.1841     5.834e-18 
  3465.2349    5.7694e-18 
  3467.2861    8.3705e-18 
  3469.3376   1.10825e-17 
  3471.3899   1.06275e-18 
  3473.4424   4.47813e-18 
  3475.4956   8.89765e-18 
  3477.5491   1.13531e-17 
  3479.6028    3.6928e-18 
  3481.6572   4.05102e-18 
  3483.7122   6.47211e-18 
  3485.7673   6.31309e-18 
   3487.823   1.47094e-17 
  3489.8794   4.66619e-18 
  3491.9358   6.39468e-18 
  3493.9929   1.68234e-17 
  3496.0505   3.62525e-18 
  3498.1084   2.10807e-18 
   3500.167   1.08026e-17 
  3502.2256   5.68913e-18 
  3504.2849   4.04729e-18 
  3506.3447   2.27452e-18 
  3508.4048   9.07203e-18 
  3510.4653   9.29733e-18 
  3512.5266   1.08818e-17 
  3514.5879   7.12816e-18 
  3516.6499   2.89932e-18 
  3518.7122   9.03523e-18 
  3520.7749   5.64764e-18 
  3522.8381   1.29953e-18 
  3524.9019   1.70519e-18 
  3526.9658   6.00426e-18 
  3529.0303   2.94034e-18 
  3531.0952   3.39414e-18 
  3533.1606    5.1956e-18 
  3535.2263   5.99336e-18 
  3537.2925   2.83349e-18 
  3539.3591  -1.74057e-18 
  3541.4263   9.35704e-18 
  3543.4939   1.41252e-17 
  3545.5618   2.30371e-18 
  3547.6299    7.4741e-18 
  3549.6987   9.71493e-18 
  3551.7681     7.386e-18 
  3553.8376   9.26327e-18 
  3555.9077   1.12025e-17 
   3557.978   4.77687e-18 
  3560.0488   1.42762e-17 
  3562.1201    6.9164e-18 
  3564.1919   7.91672e-18 
  3566.2639   6.93818e-18 
  3568.3364   6.03022e-18 
  3570.4092   1.30654e-17 
  3572.4827   6.18039e-18 
  3574.5564   1.13984e-17 
  3576.6306   1.34048e-17 
  3578.7051   7.11745e-18 
  3580.7803   1.07407e-17 
  3582.8557   3.38873e-18 
  3584.9314   6.95975e-18 
  3587.0076   3.96233e-18 
  3589.0842   6.61525e-18 
  3591.1611   1.05809e-17 
  3593.2385   7.87787e-18 
  3595.3164   1.62528e-18 
  3597.3948   9.65479e-18 
  3599.4734   5.95584e-18 
  3601.5525   8.33759e-18 
  3603.6318   8.92749e-18 
  3605.7117   1.33022e-17 
   3607.792   1.03373e-17 
  3609.8726   1.01354e-17 
  3611.9536   1.00381e-17 
  3614.0349   9.94433e-18 
  3616.1167   1.07763e-17 
  3618.1992   1.05641e-17 
  3620.2817   1.37882e-17 
  3622.3647   1.61392e-17 
   3624.448   1.30521e-17 
   3626.532   6.39552e-18 
  3628.6162   1.50855e-17 
  3630.7007   1.19104e-17 
  3632.7856   1.31559e-17 
  3634.8711   1.49689e-17 
  3636.9568    2.6763e-18 
  3639.0427   1.07344e-17 
  3641.1294     2.087e-17 
  3643.2163   1.47008e-17 
  3645.3037   2.02161e-17 
  3647.3911   1.33376e-17 
  3649.4792    2.0923e-17 
  3651.5676   9.43306e-18 
  3653.6565   1.70803e-17 
  3655.7456   1.68775e-17 
  3657.8352   1.87493e-17 
  3659.9253   1.83506e-17 
  3662.0156   2.19399e-17 
  3664.1062   1.64906e-17 
  3666.1975   1.38628e-17 
  3668.2888    1.5779e-17 
  3670.3809   2.24191e-17 
  3672.4729   2.22364e-17 
  3674.5657     2.447e-17 
  3676.6584     2.372e-17 
   3678.752    2.0864e-17 
  3680.8457    2.5548e-17 
  3682.9397   2.46351e-17 
  3685.0342    2.1758e-17 
  3687.1289   1.97575e-17 
  3689.2241   2.31078e-17 
  3691.3196   2.50578e-17 
  3693.4155   2.56647e-17 
   3695.512   2.08295e-17 
  3697.6086   2.59692e-17 
  3699.7056   2.91474e-17 
   3701.803   2.43013e-17 
  3703.9006   2.05132e-17 
  3705.9988   2.33842e-17 
  3708.0974   2.24187e-17 
  3710.1963   2.52856e-17 
  3712.2954   2.51643e-17 
   3714.395   2.30561e-17 
  3716.4949   2.27663e-17 
  3718.5952   2.30146e-17 
  3720.6958   3.14078e-17 
  3722.7966   2.78495e-17 
  3724.8979   2.58251e-17 
  3726.9998   3.52238e-17 
  3729.1018   2.80695e-17 
  3731.2041   2.70044e-17 
  3733.3069   2.97466e-17 
  3735.4099   2.25298e-17 
  3737.5134   3.60429e-17 
  3739.6172   3.25981e-17 
  3741.7214   3.51195e-17 
  3743.8259   3.32589e-17 
  3745.9309   3.28483e-17 
  3748.0359   3.99227e-17 
  3750.1416   3.60215e-17 
  3752.2473   2.88338e-17 
  3754.3538   3.70425e-17 
  3756.4602   3.54544e-17 
  3758.5671    2.9992e-17 
  3760.6743   3.42514e-17 
   3762.782   3.79547e-17 
  3764.8899   4.34983e-17 
  3766.9983   3.99504e-17 
  3769.1069   4.10666e-17 
  3771.2158   3.92782e-17 
  3773.3252   4.65023e-17 
  3775.4348    3.6676e-17 
  3777.5449   3.61546e-17 
   3779.655   3.54203e-17 
  3781.7656   3.74691e-17 
  3783.8767   3.94041e-17 
   3785.988   3.75767e-17 
  3788.0996   3.45861e-17 
  3790.2117   3.34232e-17 
   3792.324    2.7859e-17 
  3794.4365   3.40856e-17 
  3796.5496   3.42186e-17 
  3798.6628   3.81383e-17 
  3800.7766   2.93917e-17 
  3802.8904   3.40274e-17 
  3805.0049   4.32898e-17 
  3807.1194   3.39276e-17 
  3809.2344   3.87964e-17 
  3811.3496   3.94396e-17 
  3813.4651   3.73289e-17 
  3815.5811   3.81611e-17 
  3817.6973   3.83059e-17 
   3819.814   4.33654e-17 
  3821.9307   3.99347e-17 
  3824.0479   4.65536e-17 
  3826.1655   3.67759e-17 
  3828.2832   3.54394e-17 
  3830.4014   4.43269e-17 
    3832.52   3.86226e-17 
  3834.6387   3.99528e-17 
  3836.7578     3.845e-17 
  3838.8772    3.9711e-17 
  3840.9968   4.11349e-17 
  3843.1169   4.35163e-17 
  3845.2373   4.24158e-17 
  3847.3579   4.26559e-17 
   3849.479   4.72324e-17 
  3851.6003   3.90038e-17 
  3853.7219   4.11287e-17 
  3855.8438   3.88338e-17 
  3857.9661   4.46205e-17 
  3860.0886   4.41797e-17 
  3862.2114   4.45014e-17 
  3864.3347   3.76445e-17 
   3866.458   3.83857e-17 
  3868.5818   3.98586e-17 
  3870.7058   3.89186e-17 
  3872.8301   4.58515e-17 
  3874.9548   3.34863e-17 
  3877.0798   4.26217e-17 
  3879.2051   4.80717e-17 
  3881.3308   4.05407e-17 
  3883.4565   3.66579e-17 
  3885.5828   4.01813e-17 
  3887.7092    4.4104e-17 
  3889.8359   4.34705e-17 
  3891.9629   4.45578e-17 
  3894.0903   4.31226e-17 
   3896.218   4.22543e-17 
  3898.3459   4.44279e-17 
  3900.4744   4.27842e-17 
  3902.6028   3.95111e-17 
  3904.7317   3.83522e-17 
  3906.8608   4.07384e-17 
  3908.9902   4.39454e-17 
  3911.1199   3.94344e-17 
    3913.25   4.52591e-17 
  3915.3801   4.33052e-17 
  3917.5107   4.35921e-17 
  3919.6416   3.92905e-17 
  3921.7727   5.04336e-17 
  3923.9043   4.52838e-17 
  3926.0359   4.81159e-17 
   3928.168   3.85714e-17 
  3930.3003   4.39037e-17 
  3932.4329   4.59359e-17 
  3934.5657   4.18543e-17 
   3936.699   4.25892e-17 
  3938.8323   4.64364e-17 
  3940.9661   4.92708e-17 
  3943.1001   4.45583e-17 
  3945.2344   4.99565e-17 
  3947.3689   4.53586e-17 
  3949.5037   4.63653e-17 
  3951.6389   4.30339e-17 
  3953.7742   4.62588e-17 
  3955.9099   4.41995e-17 
  3958.0459   4.70579e-17 
  3960.1819   5.00579e-17 
  3962.3186   4.44036e-17 
  3964.4553   4.26763e-17 
  3966.5923   4.81773e-17 
  3968.7295   4.70169e-17 
  3970.8672   4.70445e-17 
  3973.0051   4.26272e-17 
  3975.1433    4.7455e-17 
  3977.2815   4.28485e-17 
  3979.4202   5.06241e-17 
  3981.5591   4.55496e-17 
  3983.6985   3.55863e-17 
  3985.8379   4.03896e-17 
  3987.9775   3.86382e-17 
  3990.1177   3.82865e-17 
  3992.2578   4.03932e-17 
  3994.3982    4.1478e-17 
  3996.5391   3.97729e-17 
  3998.6802   4.20685e-17 
  4000.8215    4.0987e-17 
  4002.9631   4.05441e-17 
   4005.105   3.57732e-17 
  4007.2471   3.87922e-17 
  4009.3894   4.39375e-17 
   4011.532    4.4647e-17 
  4013.6748   4.52207e-17 
  4015.8181    4.3182e-17 
  4017.9614   4.16444e-17 
   4020.105   3.99581e-17 
  4022.2488   3.57508e-17 
  4024.3931   3.72013e-17 
  4026.5376    3.7969e-17 
  4028.6821   4.19303e-17 
  4030.8271   3.53833e-17 
  4032.9724   3.75125e-17 
  4035.1177   3.99432e-17 
  4037.2634   3.62551e-17 
  4039.4092   2.98416e-17 
  4041.5554    4.0455e-17 
  4043.7019    3.5169e-17 
  4045.8484   3.68327e-17 
  4047.9956   3.20862e-17 
  4050.1426   3.47188e-17 
    4052.29   3.14025e-17 
  4054.4377   3.47741e-17 
  4056.5857   3.50953e-17 
  4058.7336   3.02035e-17 
  4060.8821   3.16472e-17 
  4063.0308    3.2438e-17 
  4065.1797   3.51422e-17 
  4067.3289   2.94212e-17 
   4069.478   3.59133e-17 
  4071.6277   3.12863e-17 
  4073.7776   3.34545e-17 
  4075.9275   3.61567e-17 
  4078.0779   3.26245e-17 
  4080.2285   3.09104e-17 
  4082.3794   3.55301e-17 
  4084.5303   2.67615e-17 
  4086.6816   3.49799e-17 
   4088.833   3.81334e-17 
  4090.9849   3.60502e-17 
  4093.1367   3.36121e-17 
  4095.2891   3.49662e-17 
  4097.4414   3.40621e-17 
  4099.5942   2.95467e-17 
  4101.7471   2.99691e-17 
  4103.9004   3.12069e-17 
  4106.0537   3.10164e-17 
   4108.207   2.99351e-17 
  4110.3608   3.32603e-17 
  4112.5151   3.05228e-17 
  4114.6694   3.17938e-17 
  4116.8237   3.10182e-17 
  4118.9785   3.61373e-17 
  4121.1333   3.33608e-17 
  4123.2886   3.53988e-17 
  4125.4443   2.98677e-17 
  4127.5996    3.0327e-17 
  4129.7554   3.31094e-17 
  4131.9116   3.03487e-17 
  4134.0679   3.04012e-17 
  4136.2246   3.22715e-17 
  4138.3813   3.06155e-17 
  4140.5381   2.98266e-17 
  4142.6953   3.29274e-17 
  4144.8525   2.76628e-17 
  4147.0103   3.19917e-17 
   4149.168   3.26946e-17 
  4151.3262   3.10021e-17 
  4153.4844   3.60993e-17 
  4155.6431   2.98829e-17 
  4157.8018   3.35233e-17 
  4159.9604    3.3316e-17 
  4162.1196   3.40121e-17 
  4164.2793   3.50044e-17 
  4166.4385   3.69474e-17 
  4168.5986   3.25691e-17 
  4170.7583    3.7112e-17 
  4172.9185   3.23891e-17 
  4175.0791   3.36208e-17 
  4177.2397   3.06745e-17 
  4179.4004   3.20743e-17 
  4181.5615   3.73326e-17 
  4183.7227   3.70959e-17 
  4185.8843   3.61294e-17 
  4188.0459   3.67124e-17 
  4190.2075   3.73009e-17 
  4192.3696   3.67774e-17 
  4194.5322   3.98496e-17 
  4196.6943   3.43899e-17 
  4198.8569   4.02689e-17 
    4201.02   3.43926e-17 
  4203.1831   3.42906e-17 
  4205.3462   3.45365e-17 
  4207.5098   3.73763e-17 
  4209.6733   3.59441e-17 
  4211.8374   3.63659e-17 
  4214.0015   3.54237e-17 
   4216.166   3.56956e-17 
  4218.3301   3.63396e-17 
  4220.4951   3.07403e-17 
  4222.6597   3.40273e-17 
  4224.8247   3.07089e-17 
  4226.9902   3.47975e-17 
  4229.1558   3.48377e-17 
  4231.3213    3.2536e-17 
  4233.4873   3.32083e-17 
  4235.6533   3.48987e-17 
  4237.8193   3.24933e-17 
  4239.9858    3.3704e-17 
  4242.1523    3.1524e-17 
  4244.3193   3.68031e-17 
  4246.4863   3.55974e-17 
  4248.6533   3.35443e-17 
  4250.8208   3.36955e-17 
  4252.9883   3.32677e-17 
  4255.1562   3.36877e-17 
  4257.3242   3.36179e-17 
  4259.4922   3.88008e-17 
  4261.6606   3.33728e-17 
  4263.8291   3.51026e-17 
  4265.9976   3.59876e-17 
  4268.1665   3.20891e-17 
  4270.3359   3.38584e-17 
  4272.5049   3.59327e-17 
  4274.6743   3.65109e-17 
  4276.8438   3.74784e-17 
  4279.0137   4.13295e-17 
  4281.1836   3.97855e-17 
   4283.354   3.46495e-17 
  4285.5244    3.5629e-17 
  4287.6948   3.34194e-17 
  4289.8652   3.56063e-17 
  4292.0361   3.68024e-17 
  4294.2075   3.96803e-17 
  4296.3784   3.66626e-17 
  4298.5498   3.63998e-17 
  4300.7217   3.53342e-17 
  4302.8931   3.84635e-17 
  4305.0654   3.50667e-17 
  4307.2373   3.84179e-17 
  4309.4097    3.7715e-17 
   4311.582   3.73731e-17 
  4313.7544   3.95233e-17 
  4315.9272   3.37523e-17 
  4318.1001   3.68585e-17 
  4320.2734   3.51433e-17 
  4322.4468   3.68398e-17 
  4324.6201   3.04909e-17 
  4326.7939   3.79039e-17 
  4328.9678   3.73468e-17 
  4331.1416   3.44365e-17 
  4333.3159    3.4514e-17 
  4335.4902   3.57654e-17 
  4337.6646   3.48354e-17 
  4339.8394   3.53645e-17 
  4342.0142   3.46732e-17 
   4344.189   3.49022e-17 
  4346.3643   3.23015e-17 
  4348.5396   3.14713e-17 
  4350.7148   3.40783e-17 
  4352.8906   3.25333e-17 
  4355.0664   3.64559e-17 
  4357.2422   3.13202e-17 
  4359.4185   3.33554e-17 
  4361.5947   3.07182e-17 
   4363.771   3.25101e-17 
  4365.9478     3.262e-17 
  4368.1245   3.10652e-17 
  4370.3013   3.74453e-17 
  4372.4785    3.3327e-17 
  4374.6558   3.33936e-17 
   4376.833   3.43251e-17 
  4379.0107    3.5016e-17 
   4381.188   3.56957e-17 
  4383.3662   3.12645e-17 
  4385.5439   3.55134e-17 
  4387.7222   3.29037e-17 
  4389.9004   3.67458e-17 
  4392.0791   3.64908e-17 
  4394.2573   3.37117e-17 
  4396.4365   3.35307e-17 
  4398.6152   3.68697e-17 
  4400.7944   3.21746e-17 
  4402.9736   3.85266e-17 
  4405.1528   3.64388e-17 
  4407.3325   3.65287e-17 
  4409.5117    3.4028e-17 
  4411.6919   3.14884e-17 
  4413.8716   3.39394e-17 
  4416.0518   3.38958e-17 
  4418.2319   3.80087e-17 
  4420.4126   3.45425e-17 
  4422.5928   3.89317e-17 
  4424.7734   3.59546e-17 
  4426.9546   3.89775e-17 
  4429.1353   3.51618e-17 
  4431.3164   3.26592e-17 
  4433.4976   3.24236e-17 
  4435.6792   3.57532e-17 
  4437.8608   3.32103e-17 
  4440.0425   3.51412e-17 
  4442.2241   3.71327e-17 
  4444.4062   3.66526e-17 
  4446.5879   3.47042e-17 
  4448.7705   3.61702e-17 
  4450.9526   3.63874e-17 
  4453.1353   3.30626e-17 
  4455.3179    3.5196e-17 
  4457.5005   3.52934e-17 
  4459.6836   3.37285e-17 
  4461.8667   3.80716e-17 
  4464.0498   3.71773e-17 
  4466.2329   3.65429e-17 
  4468.4165   3.39151e-17 
  4470.6001   3.83682e-17 
  4472.7837   3.43849e-17 
  4474.9678   3.58935e-17 
  4477.1514    3.9451e-17 
  4479.3359   3.44422e-17 
    4481.52    3.4317e-17 
  4483.7046   3.69418e-17 
  4485.8887   3.75497e-17 
  4488.0737   3.39282e-17 
  4490.2583   4.00576e-17 
  4492.4429   3.86756e-17 
  4494.6279   4.37046e-17 
  4496.8135   3.75055e-17 
  4498.9985   3.18974e-17 
  4501.1841   3.70407e-17 
  4503.3696   3.83564e-17 
  4505.5552   3.72023e-17 
  4507.7407   3.90323e-17 
  4509.9268   3.66596e-17 
  4512.1128   3.90634e-17 
  4514.2988   3.51717e-17 
  4516.4849   3.93883e-17 
  4518.6714   3.17721e-17 
  4520.8579   3.43047e-17 
  4523.0444   3.66485e-17 
  4525.2314   3.45785e-17 
   4527.418    3.1499e-17 
   4529.605   3.70759e-17 
  4531.7925    3.5512e-17 
  4533.9795   3.73523e-17 
   4536.167   3.45231e-17 
  4538.3545   3.20711e-17 
   4540.542    3.5882e-17 
  4542.7295   3.46971e-17 
  4544.9175   3.61992e-17 
  4547.1055   3.09756e-17 
  4549.2935   3.71302e-17 
  4551.4814    3.4067e-17 
  4553.6699   3.45625e-17 
  4555.8579   3.52473e-17 
  4558.0464   3.82803e-17 
  4560.2354   3.62863e-17 
  4562.4238     3.771e-17 
  4564.6128   3.59288e-17 
  4566.8018   3.77108e-17 
  4568.9907   3.63032e-17 
  4571.1797   3.57252e-17 
  4573.3691   3.57348e-17 
  4575.5586   3.12048e-17 
   4577.748   3.60194e-17 
  4579.9375    3.7624e-17 
  4582.1274     4.009e-17 
  4584.3169   3.46669e-17 
  4586.5068   3.69777e-17 
  4588.6968   3.67742e-17 
  4590.8872   3.82852e-17 
  4593.0771   3.60992e-17 
  4595.2676   4.05153e-17 
   4597.458   4.27491e-17 
  4599.6484   4.03576e-17 
  4601.8394   3.94825e-17 
  4604.0298   3.79218e-17 
  4606.2207   3.92294e-17 
  4608.4116   4.12443e-17 
   4610.603   3.85166e-17 
  4612.7939   4.13408e-17 
  4614.9854   3.79696e-17 
  4617.1768    3.8285e-17 
  4619.3682   4.39656e-17 
  4621.5596   4.22401e-17 
   4623.751   4.09684e-17 
  4625.9429   4.15296e-17 
  4628.1348   4.16581e-17 
  4630.3267   3.96708e-17 
   4632.519   3.98599e-17 
  4634.7109   4.04308e-17 
  4636.9033   4.04698e-17 
  4639.0957    4.0036e-17 
  4641.2881   4.24032e-17 
  4643.4805   4.43114e-17 
  4645.6729   3.82303e-17 
  4647.8657   4.38995e-17 
  4650.0586   4.32679e-17 
  4652.2515   4.30723e-17 
  4654.4443   4.21919e-17 
  4656.6372    4.3607e-17 
  4658.8306   4.18557e-17 
  4661.0239   4.50506e-17 
  4663.2173   4.72129e-17 
  4665.4106   4.73112e-17 
   4667.604   4.65696e-17 
  4669.7979    4.5823e-17 
  4671.9912   4.34082e-17 
  4674.1851   4.49046e-17 
  4676.3789   4.41906e-17 
  4678.5732   4.72112e-17 
  4680.7671   4.84918e-17 
  4682.9609   4.45399e-17 
  4685.1553   4.69089e-17 
  4687.3496   4.91695e-17 
  4689.5439    5.0699e-17 
  4691.7383   4.83521e-17 
  4693.9331    4.8182e-17 
  4696.1279   4.83008e-17 
  4698.3223   4.71567e-17 
  4700.5171   4.63538e-17 
  4702.7119   5.10579e-17 
  4704.9072   5.23764e-17 
  4707.1021   5.18605e-17 
  4709.2969   5.26494e-17 
  4711.4922   5.00907e-17 
  4713.6875   5.20147e-17 
  4715.8828   5.17617e-17 
  4718.0786   5.42508e-17 
  4720.2739   5.08219e-17 
  4722.4697    5.0058e-17 
   4724.665   4.94929e-17 
  4726.8608   5.13066e-17 
  4729.0566   5.15914e-17 
  4731.2524   4.82511e-17 
  4733.4487    4.9005e-17 
  4735.6445   5.23327e-17 
  4737.8408   5.14806e-17 
  4740.0371    4.9011e-17 
  4742.2334   5.31428e-17 
  4744.4297   5.10182e-17 
   4746.626   5.47638e-17 
  4748.8223    5.3621e-17 
   4751.019   5.74058e-17 
  4753.2158   5.39257e-17 
  4755.4126   5.57577e-17 
  4757.6089   4.96464e-17 
  4759.8062   4.71342e-17 
  4762.0029   5.26893e-17 
  4764.1997   5.13597e-17 
   4766.397   5.34892e-17 
  4768.5942    5.2134e-17 
   4770.791   5.66504e-17 
  4772.9883   5.40185e-17 
   4775.186   5.48688e-17 
  4777.3833   5.34101e-17 
  4779.5806   5.44514e-17 
  4781.7783   5.55244e-17 
  4783.9756   5.49144e-17 
  4786.1733   5.30249e-17 
  4788.3711   5.64533e-17 
  4790.5688   5.31103e-17 
  4792.7666    5.1834e-17 
  4794.9648   5.62869e-17 
  4797.1626   5.30231e-17 
  4799.3608   5.18167e-17 
  4801.5586   5.62368e-17 
  4803.7568   5.28408e-17 
  4805.9551   5.57382e-17 
  4808.1533   5.73514e-17 
  4810.3516   6.03546e-17 
  4812.5503   5.92261e-17 
  4814.7485   5.57672e-17 
  4816.9473   5.92424e-17 
  4819.1455   5.29877e-17 
  4821.3442   5.66129e-17 
   4823.543   5.90044e-17 
  4825.7417    5.7669e-17 
  4827.9404   6.06005e-17 
  4830.1392   5.97644e-17 
  4832.3384   5.74194e-17 
  4834.5371   5.82862e-17 
  4836.7363   5.77377e-17 
  4838.9355   5.80516e-17 
  4841.1343   5.75198e-17 
  4843.3335   5.97291e-17 
  4845.5332    5.5977e-17 
  4847.7324   6.12213e-17 
  4849.9316   6.10554e-17 
  4852.1309   6.80161e-17 
  4854.3306   5.98208e-17 
  4856.5298   6.34307e-17 
  4858.7295   5.81935e-17 
  4860.9292   5.96134e-17 
  4863.1289   6.34927e-17 
  4865.3286    6.2658e-17 
  4867.5283   6.02336e-17 
   4869.728   6.59526e-17 
  4871.9282   5.99762e-17 
  4874.1279   5.96529e-17 
  4876.3276   5.45239e-17 
  4878.5278   5.63905e-17 
   4880.728   5.81657e-17 
  4882.9282   5.97249e-17 
  4885.1279   5.66654e-17 
  4887.3281   5.43519e-17 
  4889.5288   6.12332e-17 
   4891.729   6.03475e-17 
  4893.9292   6.06531e-17 
  4896.1294   5.98236e-17 
  4898.3301   6.85253e-17 
  4900.5303   5.75602e-17 
   4902.731   6.46318e-17 
  4904.9316   6.22259e-17 
  4907.1323   5.58062e-17 
  4909.3325   5.87768e-17 
  4911.5332    6.2926e-17 
  4913.7339   5.62607e-17 
  4915.9346   6.13355e-17 
  4918.1357   6.10729e-17 
  4920.3364    5.4747e-17 
  4922.5371   6.20772e-17 
  4924.7383   6.13063e-17 
   4926.939    5.5296e-17 
  4929.1401   5.75984e-17 
  4931.3413   5.59629e-17 
  4933.5425   5.76808e-17 
  4935.7432   5.75587e-17 
  4937.9443   5.50697e-17 
  4940.1455   5.10467e-17 
  4942.3467   5.50539e-17 
  4944.5483   5.54044e-17 
  4946.7495   5.15847e-17 
  4948.9507   5.27819e-17 
  4951.1523   4.85903e-17 
  4953.3535   5.14656e-17 
  4955.5547   5.00752e-17 
  4957.7563   4.83406e-17 
   4959.958   5.47043e-17 
  4962.1592   5.19164e-17 
  4964.3608   5.06454e-17 
  4966.5625   5.07502e-17 
  4968.7642   5.11248e-17 
  4970.9658   5.29405e-17 
  4973.1675   4.91308e-17 
  4975.3691   5.13187e-17 
  4977.5708   5.10533e-17 
  4979.7729   5.13367e-17 
  4981.9746   4.99061e-17 
  4984.1763   4.70358e-17 
  4986.3784   4.69599e-17 
  4988.5801   4.76003e-17 
  4990.7822   4.78856e-17 
  4992.9839    5.2176e-17 
   4995.186   4.99906e-17 
  4997.3882   4.58927e-17 
  4999.5898    5.0665e-17 
   5001.792   4.80612e-17 
  5003.9941   4.72877e-17 
  5006.1963   4.84506e-17 
  5008.3984   5.13199e-17 
  5010.6006   4.54814e-17 
  5012.8027   5.03118e-17 
  5015.0049   5.03471e-17 
   5017.207   4.78502e-17 
  5019.4092   4.56715e-17 
  5021.6118   4.72562e-17 
   5023.814   4.58976e-17 
  5026.0161   4.75736e-17 
  5028.2188    4.6155e-17 
  5030.4209   4.94257e-17 
  5032.6235   4.88233e-17 
  5034.8257   4.54118e-17 
  5037.0283   4.46105e-17 
  5039.2305   4.21974e-17 
  5041.4331    5.0063e-17 
  5043.6357   4.41231e-17 
  5045.8384   4.33285e-17 
  5048.0405   5.01059e-17 
  5050.2432   4.98919e-17 
  5052.4458   5.32487e-17 
  5054.6484    5.7855e-17 
  5056.8511   5.49345e-17 
  5059.0537   4.86259e-17 
  5061.2563   4.52256e-17 
   5063.459    4.8296e-17 
  5065.6616   4.47784e-17 
  5067.8643   4.24629e-17 
  5070.0669   4.79683e-17 
  5072.2695   4.33943e-17 
  5074.4722    4.8278e-17 
  5076.6753   4.36573e-17 
  5078.8779   4.65844e-17 
  5081.0806   4.83967e-17 
  5083.2832   4.44423e-17 
  5085.4863   4.62323e-17 
   5087.689   4.85802e-17 
  5089.8916   4.50164e-17 
  5092.0947   4.70816e-17 
  5094.2974   4.91303e-17 
  5096.5005   4.73039e-17 
  5098.7031   4.75871e-17 
  5100.9062   4.64891e-17 
  5103.1089   4.38433e-17 
   5105.312   4.71532e-17 
  5107.5146   4.86046e-17 
  5109.7178    4.5257e-17 
  5111.9204   4.50993e-17 
  5114.1235   4.84489e-17 
  5116.3267   4.43925e-17 
  5118.5293    4.6173e-17 
  5120.7324   4.95042e-17 
  5122.9351    4.6855e-17 
  5125.1382   4.79513e-17 
  5127.3413   4.94138e-17 
  5129.5444   4.74903e-17 
  5131.7471   4.79559e-17 
  5133.9502   5.16836e-17 
  5136.1533   5.19562e-17 
   5138.356   4.71554e-17 
  5140.5591   5.13893e-17 
  5142.7622   4.92551e-17 
  5144.9653   4.98879e-17 
  5147.1685   5.00898e-17 
  5149.3711    5.2275e-17 
  5151.5742   5.12545e-17 
  5153.7773   4.77762e-17 
  5155.9805   5.05829e-17 
  5158.1836    4.7421e-17 
  5160.3867    4.9513e-17 
  5162.5894   4.67556e-17 
  5164.7925    4.7423e-17 
  5166.9956   5.29454e-17 
  5169.1987   4.93977e-17 
  5171.4019   5.12904e-17 
  5173.6045   5.24609e-17 
  5175.8076    4.9792e-17 
  5178.0107   4.72292e-17 
  5180.2139   4.76965e-17 
   5182.417   5.14116e-17 
  5184.6201   4.89827e-17 
  5186.8232   5.27132e-17 
  5189.0259   5.27219e-17 
   5191.229   5.05281e-17 
  5193.4321   5.42409e-17 
  5195.6353    5.3412e-17 
  5197.8379   5.33469e-17 
   5200.041   5.28532e-17 
  5202.2441   5.00476e-17 
  5204.4473   5.24599e-17 
  5206.6499   5.50239e-17 
   5208.853   4.83599e-17 
  5211.0562   5.57611e-17 
  5213.2593   5.08791e-17 
  5215.4619   5.23084e-17 
   5217.665   4.87832e-17 
  5219.8682   5.10832e-17 
  5222.0708   4.73676e-17 
  5224.2739   5.10956e-17 
  5226.4771   5.15402e-17 
  5228.6797   5.18818e-17 
  5230.8828   5.00886e-17 
  5233.0859   5.05407e-17 
  5235.2886   5.05352e-17 
  5237.4917   5.53229e-17 
  5239.6943   5.30073e-17 
  5241.8975   5.08561e-17 
  5244.1001   5.78198e-17 
  5246.3032   5.97146e-17 
  5248.5059   5.46308e-17 
  5250.7085   5.27789e-17 
  5252.9116   5.29685e-17 
  5255.1143   4.99762e-17 
  5257.3174   5.22305e-17 
    5259.52   5.17551e-17 
  5261.7227   5.12395e-17 
  5263.9258     5.291e-17 
  5266.1284   5.15307e-17 
  5268.3311   5.30894e-17 
  5270.5337    5.5724e-17 
  5272.7363   5.11294e-17 
   5274.939   5.15868e-17 
  5277.1421   5.99337e-17 
  5279.3447    4.9979e-17 
  5281.5474   5.29505e-17 
    5283.75   5.43856e-17 
  5285.9526   5.00361e-17 
  5288.1553   5.55032e-17 
  5290.3579   5.29587e-17 
  5292.5605   5.37523e-17 
  5294.7632   5.26207e-17 
  5296.9653   5.39913e-17 
   5299.168    5.2787e-17 
  5301.3706   5.22567e-17 
  5303.5732   5.53935e-17 
  5305.7754   5.55863e-17 
   5307.978   5.52662e-17 
  5310.1807   5.44564e-17 
  5312.3828   5.08178e-17 
  5314.5854   5.30178e-17 
  5316.7876   5.43529e-17 
  5318.9902    5.2687e-17 
  5321.1924   5.21861e-17 
   5323.395   4.95213e-17 
  5325.5972   5.21713e-17 
  5327.7993   5.67698e-17 
  5330.0015   4.88426e-17 
  5332.2041   5.25823e-17 
  5334.4062   5.55884e-17 
  5336.6084   5.65784e-17 
  5338.8105   5.43724e-17 
  5341.0127   5.48493e-17 
  5343.2148   5.27036e-17 
   5345.417   5.60577e-17 
  5347.6191     4.897e-17 
  5349.8213   5.20382e-17 
  5352.0229   4.97466e-17 
  5354.2251    4.9515e-17 
  5356.4272   5.30171e-17 
  5358.6289   5.39392e-17 
  5360.8311   5.21976e-17 
  5363.0332   5.48655e-17 
  5365.2349   4.79609e-17 
   5367.437   5.14436e-17 
  5369.6387   5.38372e-17 
  5371.8403    4.9277e-17 
  5374.0425   5.46087e-17 
  5376.2441   5.43328e-17 
  5378.4458    5.2974e-17 
  5380.6475   5.38652e-17 
  5382.8491   5.32598e-17 
  5385.0508   4.97662e-17 
  5387.2524   5.22875e-17 
  5389.4541   5.27846e-17 
  5391.6558   4.84192e-17 
  5393.8574   5.23811e-17 
  5396.0586   5.35939e-17 
  5398.2603   5.26954e-17 
  5400.4619   5.32272e-17 
  5402.6631   5.18804e-17 
  5404.8647   5.39294e-17 
  5407.0659   4.88672e-17 
  5409.2671   4.93098e-17 
  5411.4688   5.12519e-17 
  5413.6699   5.09722e-17 
  5415.8711   4.53324e-17 
  5418.0723   5.27888e-17 
  5420.2734   4.73806e-17 
  5422.4746   4.85022e-17 
  5424.6758   4.77998e-17 
   5426.877   4.56618e-17 
  5429.0781   4.84455e-17 
  5431.2793   4.64905e-17 
    5433.48   5.20773e-17 
  5435.6812   4.16606e-17 
  5437.8818   4.57156e-17 
   5440.083   4.78812e-17 
  5442.2837   5.10255e-17 
  5444.4844    4.6158e-17 
  5446.6855   4.76298e-17 
  5448.8862   4.66931e-17 
  5451.0869   4.55314e-17 
  5453.2876   4.71458e-17 
  5455.4883   4.90522e-17 
   5457.689   4.22963e-17 
  5459.8892    4.5899e-17 
  5462.0898   4.70267e-17 
  5464.2905   4.68098e-17 
  5466.4907   4.50572e-17 
  5468.6914   4.29264e-17 
  5470.8916   4.82088e-17 
  5473.0923   4.82393e-17 
  5475.2925    4.8451e-17 
  5477.4927   4.80612e-17 
  5479.6929   4.80838e-17 
  5481.8931   5.06231e-17 
  5484.0933   4.92292e-17 
  5486.2935   4.76489e-17 
  5488.4937   5.10071e-17 
  5490.6938   4.91473e-17 
   5492.894   5.21012e-17 
  5495.0938    5.0031e-17 
  5497.2935   4.88976e-17 
  5499.4937    4.5241e-17 
  5501.6934   4.80418e-17 
  5503.8931   5.21173e-17 
  5506.0933   4.89919e-17 
   5508.293   5.12659e-17 
  5510.4927   4.97081e-17 
  5512.6924   4.85365e-17 
  5514.8916   4.73001e-17 
  5517.0913    5.0994e-17 
   5519.291   4.97296e-17 
  5521.4902   5.42017e-17 
  5523.6899   4.98753e-17 
  5525.8892   5.08485e-17 
  5528.0889   4.99151e-17 
  5530.2881   4.61294e-17 
  5532.4873   4.86466e-17 
  5534.6865   5.12029e-17 
  5536.8857   4.62366e-17 
   5539.085   4.72074e-17 
  5541.2842   5.24271e-17 
  5543.4829   4.91467e-17 
  5545.6821   4.87807e-17 
  5547.8809   4.82778e-17 
  5550.0801   5.36611e-17 
  5552.2788   4.81656e-17 
  5554.4775   5.54446e-17 
  5556.6763   5.36603e-17 
   5558.875   5.06276e-17 
  5561.0737   5.18702e-17 
  5563.2725   5.22718e-17 
  5565.4712   5.16109e-17 
  5567.6699   5.38392e-17 
  5569.8682   5.59564e-17 
  5572.0669   5.61256e-17 
  5574.2651   5.02134e-17 
  5576.4634   5.28666e-17 
  5578.6621   5.08686e-17 
  5580.8599   4.36032e-17 
  5583.0586   4.84063e-17 
  5585.2568   5.24853e-17 
  5587.4546   5.04199e-17 
  5589.6528    5.5274e-17 
  5591.8506   5.43988e-17 
  5594.0488   5.11903e-17 
  5596.2466   5.10981e-17 
  5598.4448    5.2241e-17 
  5600.6426   4.94038e-17 
  5602.8403   5.22724e-17 
  5605.0381   5.13419e-17 
  5607.2358   4.90764e-17 
  5609.4336   4.68362e-17 
  5611.6309   5.21695e-17 
  5613.8286   4.93793e-17 
  5616.0259   5.00482e-17 
  5618.2236   5.56723e-17 
  5620.4209   5.22488e-17 
  5622.6182   5.12797e-17 
  5624.8154   4.80962e-17 
  5627.0127   4.76364e-17 
    5629.21   4.65647e-17 
  5631.4072   4.85168e-17 
   5633.604   5.51018e-17 
  5635.8013   4.97317e-17 
   5637.998   4.55361e-17 
  5640.1948   4.81378e-17 
  5642.3921   4.50484e-17 
  5644.5889   4.77826e-17 
  5646.7856   4.18932e-17 
  5648.9824   4.92407e-17 
  5651.1787   3.85225e-17 
  5653.3755   4.64212e-17 
  5655.5718   5.32237e-17 
  5657.7686    4.6321e-17 
  5659.9648   3.68645e-17 
  5662.1611   4.18551e-17 
  5664.3574   4.00455e-17 
  5666.5537   3.94607e-17 
  5666.8677   3.28448e-17 
  5668.0156   3.62595e-17 
  5669.1641   5.39313e-17 
   5670.312   4.50269e-17 
    5671.46   4.61092e-17 
  5672.6084   4.29022e-17 
  5673.7563   4.24337e-17 
  5674.9048   3.95337e-17 
  5676.0532   4.69285e-17 
  5677.2012   4.75608e-17 
  5678.3496   4.94962e-17 
   5679.498   3.61383e-17 
  5680.6465   4.11273e-17 
  5681.7949   4.10216e-17 
  5682.9434   4.90664e-17 
  5684.0918   4.63926e-17 
  5685.2402    4.2359e-17 
  5686.3887   4.19369e-17 
  5687.5371   4.75798e-17 
  5688.6855   3.95057e-17 
   5689.834   3.67114e-17 
  5690.9829   4.46881e-17 
  5692.1313   3.65973e-17 
  5693.2803   4.53721e-17 
  5694.4287   4.36658e-17 
  5695.5776   5.07352e-17 
  5696.7261   5.02735e-17 
   5697.875   4.10896e-17 
  5699.0239   4.53053e-17 
  5700.1729    4.7144e-17 
  5701.3218   4.66705e-17 
  5702.4702   4.00846e-17 
  5703.6196   4.04277e-17 
  5704.7681   3.48432e-17 
  5705.9175   3.88198e-17 
  5707.0664   3.60795e-17 
  5708.2153   4.56943e-17 
  5709.3643   3.76694e-17 
  5710.5132   4.33827e-17 
  5711.6626   4.04425e-17 
  5712.8115   4.38699e-17 
  5713.9609   4.17568e-17 
  5715.1099   3.90339e-17 
  5716.2593   3.98658e-17 
  5717.4082   4.50274e-17 
  5718.5576   4.85336e-17 
   5719.707   4.96401e-17 
  5720.8564    4.2204e-17 
  5722.0059     4.267e-17 
  5723.1553   4.05863e-17 
  5724.3047   4.15087e-17 
  5725.4541   3.91282e-17 
  5726.6035   3.39715e-17 
  5727.7529   4.15876e-17 
  5728.9023   3.60732e-17 
  5730.0518   4.07824e-17 
  5731.2017   4.42196e-17 
  5732.3511   4.57869e-17 
   5733.501   3.96946e-17 
  5734.6504   3.89137e-17 
  5735.8003   3.52121e-17 
  5736.9497   3.96262e-17 
  5738.0996    3.8205e-17 
  5739.2495   4.68137e-17 
  5740.3994   3.84647e-17 
  5741.5488   3.57241e-17 
  5742.6987   3.85933e-17 
  5743.8486   3.55395e-17 
  5744.9985   3.48695e-17 
  5746.1489   3.94062e-17 
  5747.2988   3.66225e-17 
  5748.4487   3.91123e-17 
  5749.5986   3.82345e-17 
   5750.749   3.53511e-17 
  5751.8989   3.96583e-17 
  5753.0488   3.92542e-17 
  5754.1992   4.04512e-17 
  5755.3491   3.96156e-17 
  5756.4995   4.22981e-17 
  5757.6499   3.97226e-17 
  5758.8003   3.37908e-17 
  5759.9502    3.9696e-17 
  5761.1006   4.07796e-17 
   5762.251   3.71569e-17 
  5763.4014   3.88676e-17 
  5764.5518   3.72486e-17 
  5765.7021   3.04835e-17 
   5766.853   3.61658e-17 
  5768.0034   3.58108e-17 
  5769.1538   3.32493e-17 
  5770.3042   3.62253e-17 
  5771.4551    3.5239e-17 
  5772.6055   3.86198e-17 
  5773.7563   3.67268e-17 
  5774.9072   3.19129e-17 
  5776.0576   3.18627e-17 
  5777.2085   3.39935e-17 
  5778.3594   3.41394e-17 
  5779.5098   3.40937e-17 
  5780.6606    2.9705e-17 
  5781.8115   3.27424e-17 
  5782.9624   3.51902e-17 
  5784.1133   3.29118e-17 
  5785.2646   3.86181e-17 
  5786.4155   3.75061e-17 
  5787.5664   3.10786e-17 
  5788.7173   3.71226e-17 
  5789.8687   3.37593e-17 
  5791.0195   3.45801e-17 
  5792.1709   3.14124e-17 
  5793.3218   2.61437e-17 
  5794.4731   2.92717e-17 
  5795.6245   3.64703e-17 
  5796.7759   3.59315e-17 
  5797.9268   3.56078e-17 
  5799.0781   3.47996e-17 
  5800.2295   3.24689e-17 
  5801.3809   3.38064e-17 
  5802.5322   3.60027e-17 
  5803.6836    3.4152e-17 
  5804.8354   3.02551e-17 
  5805.9868   3.21272e-17 
  5807.1382   3.50866e-17 
    5808.29   3.48831e-17 
  5809.4414   3.92199e-17 
  5810.5933   3.25901e-17 
  5811.7446   2.86486e-17 
  5812.8965   3.24463e-17 
  5814.0483   3.32163e-17 
  5815.1997   3.22445e-17 
  5816.3516   3.21084e-17 
  5817.5034   3.41965e-17 
  5818.6553   2.93008e-17 
  5819.8071   3.15794e-17 
   5820.959      3.03e-17 
  5822.1108   3.21875e-17 
  5823.2627   3.31329e-17 
   5824.415   3.68966e-17 
  5825.5669   3.75729e-17 
  5826.7192   3.11575e-17 
  5827.8711   3.54608e-17 
  5829.0234   3.96069e-17 
  5830.1753   3.67372e-17 
  5831.3276   3.29967e-17 
  5832.4795   3.36836e-17 
  5833.6318   3.64178e-17 
  5834.7842   3.44725e-17 
  5835.9365   3.22747e-17 
  5837.0889   3.42668e-17 
  5838.2412   3.38606e-17 
  5839.3936   3.23494e-17 
  5840.5459   3.48631e-17 
  5841.6987   3.41087e-17 
  5842.8511   3.50411e-17 
  5844.0034   3.43819e-17 
  5845.1558   3.53595e-17 
  5846.3086   3.34553e-17 
  5847.4614    3.3273e-17 
  5848.6138   3.55838e-17 
  5849.7666   3.34492e-17 
  5850.9194   3.05902e-17 
  5852.0718   3.14863e-17 
  5853.2246   3.37087e-17 
  5854.3774   3.39585e-17 
  5855.5303   3.61435e-17 
  5856.6831    3.5264e-17 
  5857.8364   3.39012e-17 
  5858.9893    3.8111e-17 
  5860.1421   3.78998e-17 
  5861.2949   3.39691e-17 
  5862.4482   3.06216e-17 
  5863.6011   3.53941e-17 
  5864.7544   3.62208e-17 
  5865.9072   3.60267e-17 
  5867.0605   3.41629e-17 
  5868.2139   3.48014e-17 
  5869.3667   3.27333e-17 
    5870.52    3.3085e-17 
  5871.6733   3.49338e-17 
  5872.8267   3.29116e-17 
    5873.98    3.4786e-17 
  5875.1333   3.83582e-17 
  5876.2866    3.7084e-17 
  5877.4404   3.40209e-17 
  5878.5938   3.07098e-17 
  5879.7471   3.75317e-17 
  5880.9009   3.52723e-17 
  5882.0542   3.52642e-17 
   5883.208   3.90552e-17 
  5884.3618   3.79662e-17 
  5885.5151   3.45813e-17 
  5886.6689   3.79309e-17 
  5887.8228   3.14016e-17 
  5888.9766   3.24558e-17 
  5890.1304   3.45338e-17 
  5891.2842   3.27405e-17 
   5892.438   3.71039e-17 
  5893.5918   3.42501e-17 
  5894.7456   2.94202e-17 
  5895.8994   3.15991e-17 
  5897.0537   3.18388e-17 
  5898.2075   3.54212e-17 
  5899.3618   3.98415e-17 
  5900.5156   3.33581e-17 
  5901.6699   3.60904e-17 
  5902.8242   4.30275e-17 
   5903.978   3.89034e-17 
  5905.1323   3.37828e-17 
  5906.2866   3.28513e-17 
  5907.4409    3.7739e-17 
  5908.5952   3.60332e-17 
  5909.7495    3.7674e-17 
  5910.9038   3.37033e-17 
  5912.0586   2.80388e-17 
  5913.2129   4.01877e-17 
  5914.3672   3.90684e-17 
   5915.522    3.3373e-17 
  5916.6763   3.75018e-17 
  5917.8311   3.92054e-17 
  5918.9854   3.45853e-17 
  5920.1401    3.8665e-17 
  5921.2949   4.03164e-17 
  5922.4497    3.4961e-17 
  5923.6045   3.55017e-17 
  5924.7588   3.87562e-17 
  5925.9136   3.00785e-17 
  5927.0688   3.62411e-17 
  5928.2236   3.80519e-17 
  5929.3784   4.03972e-17 
  5930.5332   3.42842e-17 
  5931.6885    3.5128e-17 
  5932.8433   3.50338e-17 
  5933.9985    3.9472e-17 
  5935.1533    4.3028e-17 
  5936.3086   3.80967e-17 
  5937.4639   3.57731e-17 
  5938.6187   3.33396e-17 
  5939.7739   3.76124e-17 
  5940.9292    3.6113e-17 
  5942.0845   3.46907e-17 
  5943.2397   3.66714e-17 
   5944.395   3.78069e-17 
  5945.5503   3.73233e-17 
  5946.7061   3.98869e-17 
  5947.8613   4.39806e-17 
  5949.0166   3.80342e-17 
  5950.1724   3.76293e-17 
  5951.3276   4.21232e-17 
  5952.4834   3.73687e-17 
  5953.6392   3.91581e-17 
  5954.7944   3.91037e-17 
  5955.9502   4.07541e-17 
   5957.106   3.59182e-17 
  5958.2617   4.10485e-17 
  5959.4175   3.96578e-17 
  5960.5732   4.32803e-17 
   5961.729   4.72709e-17 
  5962.8848   4.01687e-17 
   5964.041   4.02392e-17 
  5965.1968   4.36739e-17 
  5966.3525   4.76722e-17 
  5967.5088   4.05286e-17 
   5968.665   4.18825e-17 
  5969.8208   4.69929e-17 
  5970.9771   4.16612e-17 
  5972.1328    4.6302e-17 
  5973.2891   3.91249e-17 
  5974.4453   4.21336e-17 
  5975.6016   4.28883e-17 
  5976.7578   4.37448e-17 
  5977.9141   4.11401e-17 
  5979.0703   4.17527e-17 
  5980.2271   4.01598e-17 
  5981.3833   4.25304e-17 
  5982.5396    4.3925e-17 
  5983.6963   4.30644e-17 
  5984.8525   3.90451e-17 
  5986.0093   4.26108e-17 
   5987.166   4.55322e-17 
  5988.3223   3.78413e-17 
   5989.479   4.13097e-17 
  5990.6357   3.52666e-17 
  5991.7925   4.60916e-17 
  5992.9492   4.38327e-17 
   5994.106   4.09958e-17 
  5995.2627   3.98327e-17 
  5996.4194   4.29965e-17 
  5997.5762   3.96338e-17 
  5998.7334   4.92365e-17 
  5999.8901   4.16419e-17 
  6001.0474   4.39062e-17 
  6002.2041   4.78499e-17 
  6003.3613   4.33965e-17 
  6004.5181   4.90798e-17 
  6005.6753   3.82574e-17 
  6006.8325   4.36965e-17 
  6007.9897   4.91042e-17 
   6009.147   4.83154e-17 
  6010.3042   4.41524e-17 
  6011.4614   4.54221e-17 
  6012.6187   4.20288e-17 
  6013.7764   4.82686e-17 
  6014.9336   5.12505e-17 
  6016.0908    4.7719e-17 
  6017.2485   4.59203e-17 
  6018.4058   4.73094e-17 
  6019.5635   4.41109e-17 
  6020.7207   4.35344e-17 
  6021.8784    4.2898e-17 
  6023.0361   4.69682e-17 
  6024.1938   4.67025e-17 
  6025.3516   4.96775e-17 
  6026.5093   4.40493e-17 
   6027.667    4.3501e-17 
  6028.8247   4.10809e-17 
  6029.9824   4.29134e-17 
  6031.1406   4.50873e-17 
  6032.2983    4.4522e-17 
  6033.4561   4.65662e-17 
  6034.6143   4.60429e-17 
   6035.772   4.62053e-17 
  6036.9302   4.58351e-17 
  6038.0884   4.68602e-17 
  6039.2466   4.51675e-17 
  6040.4043   4.70749e-17 
  6041.5625    4.6215e-17 
  6042.7207   4.80281e-17 
  6043.8789   4.27764e-17 
  6045.0376   4.85927e-17 
  6046.1958   4.10947e-17 
   6047.354   4.67045e-17 
  6048.5122   4.62083e-17 
  6049.6709   4.52026e-17 
  6050.8291   4.46657e-17 
  6051.9878   3.98562e-17 
   6053.146   5.00474e-17 
  6054.3047    4.2604e-17 
  6055.4634   4.79082e-17 
  6056.6221   4.86275e-17 
  6057.7808   4.47009e-17 
  6058.9395   4.56635e-17 
  6060.0981   4.71264e-17 
  6061.2568   4.94365e-17 
  6062.4155   5.14103e-17 
  6063.5742   4.66862e-17 
  6064.7334   4.41355e-17 
  6065.8921   4.68584e-17 
  6067.0508   4.26277e-17 
    6068.21   4.59696e-17 
  6069.3691   4.48679e-17 
  6070.5278   4.75857e-17 
   6071.687   5.39388e-17 
  6072.8462   4.50993e-17 
  6074.0054   4.52677e-17 
  6075.1646   4.38049e-17 
  6076.3237   4.28287e-17 
  6077.4829   4.42901e-17 
  6078.6421    4.4115e-17 
  6079.8013   4.49694e-17 
  6080.9609   4.66023e-17 
  6082.1201   4.48442e-17 
  6083.2793    4.5835e-17 
   6084.439   4.40146e-17 
  6085.5986   4.91052e-17 
  6086.7578   4.76754e-17 
  6087.9175   4.41947e-17 
  6089.0771   4.34002e-17 
  6090.2368   4.54327e-17 
  6091.3965   4.07982e-17 
  6092.5557   4.39035e-17 
  6093.7158   4.70088e-17 
  6094.8755   4.39129e-17 
  6096.0352   4.11868e-17 
  6097.1948   3.75785e-17 
   6098.355    3.8699e-17 
  6099.5146   4.86345e-17 
  6100.6748   4.65857e-17 
  6101.8345   4.85607e-17 
  6102.9946   4.17878e-17 
  6104.1548   4.36017e-17 
  6105.3149   4.55489e-17 
  6106.4746   4.31524e-17 
  6107.6348   4.89878e-17 
  6108.7949   5.14995e-17 
  6109.9551   4.51753e-17 
  6111.1157   4.62491e-17 
  6112.2759    4.7194e-17 
   6113.436    4.0744e-17 
  6114.5962    4.8418e-17 
  6115.7568   4.20832e-17 
   6116.917   4.55699e-17 
  6118.0776   4.39271e-17 
  6119.2383   4.55066e-17 
  6120.3989   5.31209e-17 
  6121.5591   4.91428e-17 
  6122.7197   4.98851e-17 
  6123.8804   4.68065e-17 
   6125.041    5.3232e-17 
  6126.2017   3.96605e-17 
  6127.3623    4.5516e-17 
  6128.5234   4.86662e-17 
  6129.6841   4.77891e-17 
  6130.8447   4.93774e-17 
  6132.0059   4.90404e-17 
  6133.1665   4.53148e-17 
  6134.3276   4.89957e-17 
  6135.4883   4.58401e-17 
  6136.6494   4.51053e-17 
  6137.8105   4.52698e-17 
  6138.9717   4.53011e-17 
  6140.1328   5.02285e-17 
  6141.2939   5.04399e-17 
  6142.4551   4.51519e-17 
  6143.6162    4.4367e-17 
  6144.7773   4.61071e-17 
  6145.9385    4.6529e-17 
  6147.1001    4.6136e-17 
  6148.2612   4.94332e-17 
  6149.4229   4.64403e-17 
   6150.584   4.46301e-17 
  6151.7456   4.56702e-17 
  6152.9072   4.36337e-17 
  6154.0684   4.61378e-17 
    6155.23   4.75444e-17 
  6156.3916   4.30099e-17 
  6157.5532    5.1743e-17 
  6158.7153   4.74039e-17 
   6159.877   4.42992e-17 
  6161.0386   4.67725e-17 
  6162.2002   5.12144e-17 
  6163.3623   4.42403e-17 
  6164.5239    4.4411e-17 
   6165.686   4.48146e-17 
  6166.8477   4.48797e-17 
  6168.0098     3.953e-17 
  6169.1714   4.91606e-17 
  6170.3335   4.92138e-17 
  6171.4956   4.49242e-17 
  6172.6577   3.86422e-17 
  6173.8198   4.14407e-17 
  6174.9819   4.62881e-17 
   6176.144   4.89222e-17 
  6177.3066   4.07222e-17 
  6178.4688   4.67758e-17 
  6179.6309   4.21498e-17 
  6180.7935   4.32386e-17 
  6181.9556   4.43142e-17 
  6183.1182   4.45242e-17 
  6184.2803   4.44674e-17 
  6185.4429   4.44799e-17 
  6186.6055   4.42934e-17 
  6187.7681   5.01127e-17 
  6188.9307   4.48105e-17 
  6190.0933   4.28787e-17 
  6191.2559   4.20515e-17 
  6192.4185   4.44502e-17 
  6193.5811    4.2982e-17 
  6194.7441   4.29849e-17 
  6195.9067   3.75594e-17 
  6197.0693   4.28523e-17 
  6198.2324   4.12973e-17 
   6199.395   4.08396e-17 
  6200.5581   4.46851e-17 
  6201.7212   4.10263e-17 
  6202.8843   3.78549e-17 
  6204.0469   4.71851e-17 
    6205.21   4.04649e-17 
  6206.3735   3.92274e-17 
  6207.5366   4.65114e-17 
  6208.6997   4.55115e-17 
  6209.8628   4.40598e-17 
  6211.0259   3.81915e-17 
   6212.189   3.90898e-17 
  6213.3525   3.98716e-17 
  6214.5161   4.14958e-17 
  6215.6792   4.40168e-17 
  6216.8428   3.62345e-17 
  6218.0059   4.27463e-17 
  6219.1694   4.29584e-17 
   6220.333   3.87832e-17 
  6221.4966   3.94791e-17 
  6222.6602   3.81236e-17 
  6223.8237    3.9505e-17 
  6224.9873   4.05135e-17 
  6226.1514   4.49807e-17 
  6227.3149   3.58887e-17 
  6228.4785   4.05528e-17 
  6229.6426   4.10288e-17 
  6230.8062   3.89485e-17 
  6231.9702   3.54088e-17 
  6233.1338    3.8956e-17 
  6234.2979   3.47886e-17 
  6235.4619   3.71158e-17 
   6236.626   4.19062e-17 
    6237.79    3.4587e-17 
  6238.9541   4.39276e-17 
  6240.1182   4.03381e-17 
  6241.2822   3.82875e-17 
  6242.4463   4.11124e-17 
  6243.6108   4.21448e-17 
  6244.7749   3.20503e-17 
   6245.939   3.65931e-17 
  6247.1035   3.77766e-17 
  6248.2681   4.19389e-17 
  6249.4321    3.7589e-17 
  6250.5967   4.04457e-17 
  6251.7612   4.28851e-17 
  6252.9258   4.16196e-17 
  6254.0903   3.90221e-17 
  6255.2549   3.91999e-17 
  6256.4194   4.21149e-17 
   6257.584   3.88501e-17 
  6258.7485   3.85975e-17 
  6259.9131   4.07949e-17 
  6261.0781   4.37876e-17 
  6262.2427   3.90245e-17 
  6263.4077   4.17518e-17 
  6264.5723    4.3229e-17 
  6265.7373   4.47532e-17 
  6266.9023   4.09921e-17 
  6268.0674   4.27217e-17 
  6269.2324   4.09136e-17 
   6270.397   3.96409e-17 
   6271.562   4.08997e-17 
  6272.7275   3.79579e-17 
  6273.8926   4.31281e-17 
  6275.0576   3.60241e-17 
  6276.2227   4.23191e-17 
  6277.3882   3.85188e-17 
  6278.5532   3.60706e-17 
  6279.7188   3.51332e-17 
  6280.8838   3.74205e-17 
  6282.0493   3.70176e-17 
  6283.2148   3.93355e-17 
  6284.3799   3.78149e-17 
  6285.5454   3.68105e-17 
  6286.7109   4.07374e-17 
  6287.8765   3.99461e-17 
   6289.042   3.65019e-17 
   6290.208   3.84278e-17 
  6291.3735   3.72291e-17 
  6292.5391    3.7677e-17 
  6293.7046   4.05091e-17 
  6294.8706   4.69984e-17 
  6296.0361   3.77351e-17 
  6297.2021   4.09956e-17 
  6298.3682   4.49559e-17 
  6299.5337   3.39713e-17 
  6300.6997   3.82344e-17 
  6301.8657   4.30724e-17 
  6303.0317   3.77446e-17 
  6304.1978   4.21548e-17 
  6305.3638   3.62609e-17 
  6306.5298   3.64151e-17 
  6307.6958   4.06095e-17 
  6308.8623   4.20956e-17 
  6310.0283   3.54257e-17 
  6311.1948   4.21688e-17 
  6312.3608   3.42454e-17 
  6313.5273   3.88695e-17 
  6314.6934   4.00748e-17 
  6315.8599   3.76143e-17 
  6317.0264   3.62889e-17 
  6318.1929   3.98767e-17 
  6319.3594   3.60686e-17 
  6320.5259   3.61938e-17 
  6321.6924   3.41812e-17 
  6322.8589   3.97973e-17 
  6324.0254   3.81116e-17 
  6325.1924   3.77025e-17 
  6326.3589   3.89988e-17 
  6327.5254   3.50133e-17 
  6328.6924   3.85528e-17 
  6329.8589   3.31357e-17 
  6331.0259   4.18902e-17 
  6332.1929   3.35072e-17 
  6333.3599   4.05824e-17 
  6334.5264   3.82754e-17 
  6335.6934   3.59927e-17 
  6336.8608   3.92767e-17 
  6338.0278   3.36503e-17 
  6339.1948   3.50395e-17 
  6340.3618   3.62523e-17 
  6341.5288   3.21932e-17 
  6342.6963   3.31814e-17 
  6343.8633   3.29213e-17 
  6345.0303    3.6849e-17 
  6346.1978   3.51759e-17 
  6347.3652   3.31535e-17 
  6348.5327   3.18089e-17 
  6349.6997    3.6437e-17 
  6350.8672   3.06457e-17 
  6352.0347   3.51898e-17 
  6353.2021   3.89066e-17 
  6354.3696   2.95651e-17 
  6355.5371   3.48168e-17 
  6356.7046   3.77477e-17 
  6357.8726   3.40316e-17 
    6359.04   3.21564e-17 
   6360.208   3.25419e-17 
  6361.3755   3.61392e-17 
  6362.5435   3.40856e-17 
  6363.7109   3.35965e-17 
  6364.8789   3.32967e-17 
  6366.0469   3.89888e-17 
  6367.2148   3.18948e-17 
  6368.3828   3.60135e-17 
  6369.5508   3.73352e-17 
  6370.7188   3.41428e-17 
  6371.8867   3.43118e-17 
  6373.0547    3.4174e-17 
  6374.2227   2.94114e-17 
  6375.3911   3.77194e-17 
  6376.5591   4.15139e-17 
  6377.7275   3.52627e-17 
  6378.8955   3.88122e-17 
   6380.064   3.38904e-17 
  6381.2319   3.06197e-17 
  6382.4004    3.4313e-17 
  6383.5688   3.59982e-17 
  6384.7373   3.44648e-17 
  6385.9058   3.28004e-17 
  6387.0742   3.49397e-17 
  6388.2427   3.59203e-17 
  6389.4111    3.2833e-17 
  6390.5801   3.48283e-17 
  6391.7485    3.3646e-17 
   6392.917   3.19298e-17 
  6394.0859   3.03895e-17 
  6395.2544   3.17907e-17 
  6396.4233   3.75131e-17 
  6397.5923   3.53777e-17 
  6398.7607   3.10491e-17 
  6399.9297   3.23543e-17 
  6401.0986   3.13103e-17 
  6402.2676   3.12898e-17 
  6403.4365   3.42303e-17 
  6404.6055   3.48993e-17 
  6405.7744   3.36374e-17 
  6406.9438   3.22452e-17 
  6408.1128   3.70733e-17 
  6409.2817   3.45738e-17 
  6410.4512   3.65653e-17 
  6411.6201   3.07684e-17 
  6412.7896   3.74454e-17 
   6413.959   3.34878e-17 
  6415.1279   3.40065e-17 
  6416.2974   3.92177e-17 
  6417.4668   3.47396e-17 
  6418.6362   3.61824e-17 
  6419.8057   3.79118e-17 
  6420.9751   3.37842e-17 
  6422.1445   3.45073e-17 
   6423.314   3.72369e-17 
  6424.4839    3.2871e-17 
  6425.6533   3.72582e-17 
  6426.8232    3.3206e-17 
  6427.9927    3.7931e-17 
  6429.1626   3.34355e-17 
   6430.332   3.27878e-17 
   6431.502   3.47982e-17 
  6432.6719   3.65119e-17 
  6433.8418   3.24058e-17 
  6435.0117   3.35654e-17 
  6436.1816   3.88792e-17 
  6437.3516   3.62789e-17 
  6438.5215   3.34679e-17 
  6439.6914   3.53406e-17 
  6440.8613   3.33199e-17 
  6442.0317   3.59077e-17 
  6443.2017   3.39411e-17 
  6444.3721   3.91558e-17 
   6445.542   3.84529e-17 
  6446.7124   3.38568e-17 
  6447.8828   3.98957e-17 
  6449.0527   3.46743e-17 
  6450.2231   3.50212e-17 
  6451.3936    3.2993e-17 
   6452.564   3.77631e-17 
  6453.7344   3.24914e-17 
  6454.9048   3.20812e-17 
  6456.0752   3.25846e-17 
  6457.2461   3.09906e-17 
  6458.4165   3.58637e-17 
  6459.5869   3.62014e-17 
  6460.7578   3.08152e-17 
  6461.9282    3.1303e-17 
  6463.0991    3.8322e-17 
    6464.27   3.21724e-17 
  6465.4404   3.67887e-17 
  6466.6113   3.17651e-17 
  6467.7822   3.15865e-17 
  6468.9531   3.17011e-17 
   6470.124   3.28483e-17 
  6471.2949   2.82477e-17 
  6472.4658   3.29956e-17 
  6473.6372   3.01273e-17 
  6474.8081   2.58372e-17 
   6475.979    3.4892e-17 
  6477.1504   3.22644e-17 
  6478.3213   3.28099e-17 
  6479.4927    3.1556e-17 
  6480.6636   2.95286e-17 
   6481.835   2.86918e-17 
  6483.0063   3.40319e-17 
  6484.1777   2.97986e-17 
  6485.3491   2.95369e-17 
  6486.5205   3.16141e-17 
  6487.6919    3.0333e-17 
  6488.8633   3.34204e-17 
  6490.0347   2.95375e-17 
  6491.2061   2.74299e-17 
  6492.3779   3.08773e-17 
  6493.5493   2.97462e-17 
  6494.7207   3.15016e-17 
  6495.8926   3.23467e-17 
   6497.064   2.76682e-17 
  6498.2358   3.24533e-17 
  6499.4077    2.9095e-17 
  6500.5796   3.27807e-17 
  6501.7515   3.07583e-17 
  6502.9233    2.7524e-17 
  6504.0952   3.40401e-17 
  6505.2671   3.50289e-17 
   6506.439   2.84585e-17 
  6507.6108   2.83945e-17 
  6508.7827   3.18239e-17 
  6509.9551   3.02867e-17 
   6511.127   3.45867e-17 
  6512.2993   3.04503e-17 
  6513.4712   3.49411e-17 
  6514.6436   2.81504e-17 
  6515.8159   3.14612e-17 
  6516.9878   2.78912e-17 
  6518.1602   2.50481e-17 
  6519.3325   3.10194e-17 
  6520.5049   2.70454e-17 
  6521.6772   2.58489e-17 
  6522.8496   2.79865e-17 
   6524.022   2.99164e-17 
  6525.1948   3.06704e-17 
  6526.3672   3.02358e-17 
    6527.54   2.75937e-17 
  6528.7124   2.57816e-17 
  6529.8848   2.91793e-17 
  6531.0576    2.8972e-17 
  6532.2305    2.7966e-17 
  6533.4028   2.70473e-17 
  6534.5757   2.88287e-17 
  6535.7485   2.71293e-17 
  6536.9214    3.0456e-17 
  6538.0942   2.66549e-17 
  6539.2671   2.35935e-17 
  6540.4399   3.00253e-17 
  6541.6128   3.06529e-17 
  6542.7861   2.99783e-17 
   6543.959   2.69447e-17 
  6545.1318   2.88457e-17 
  6546.3052   3.09814e-17 
   6547.478   2.73402e-17 
  6548.6514   3.05797e-17 
  6549.8247   2.60189e-17 
  6550.9976   2.59309e-17 
  6552.1709   2.88227e-17 
  6553.3442   2.46777e-17 
  6554.5176    2.9699e-17 
  6555.6909   3.22112e-17 
  6556.8643   3.08259e-17 
  6558.0376   2.97195e-17 
  6559.2114   3.14336e-17 
  6560.3848   2.56834e-17 
  6561.5581    3.2184e-17 
  6562.7319   2.84793e-17 
  6563.9053   2.76481e-17 
  6565.0791   2.29708e-17 
  6566.2524   2.78692e-17 
  6567.4263    2.7893e-17 
  6568.6001   2.42375e-17 
  6569.7739   2.78803e-17 
  6570.9473   2.75747e-17 
  6572.1211   2.90872e-17 
  6573.2954   2.84034e-17 
  6574.4692   2.97572e-17 
  6575.6431    3.0697e-17 
  6576.8169   3.02458e-17 
  6577.9907    3.3477e-17 
   6579.165   2.59509e-17 
  6580.3389    2.9736e-17 
  6581.5132   2.46618e-17 
   6582.687   2.78402e-17 
  6583.8613   2.90795e-17 
  6585.0352   2.66501e-17 
  6586.2095   2.51699e-17 
  6587.3838   2.85947e-17 
  6588.5581   3.20361e-17 
  6589.7324   3.24882e-17 
  6590.9067   3.58655e-17 
  6592.0811   3.72336e-17 
  6593.2554   3.62647e-17 
  6594.4302   3.54754e-17 
  6595.6045   2.99289e-17 
  6596.7788   2.88042e-17 
  6597.9536   2.63906e-17 
  6599.1279   2.73454e-17 
  6600.3027   2.55393e-17 
  6601.4775   2.82474e-17 
  6602.6519   2.56174e-17 
  6603.8267    2.5202e-17 
  6605.0015   2.43406e-17 
  6606.1763   2.51541e-17 
  6607.3511   2.40558e-17 
  6608.5259   2.77684e-17 
  6609.7007   2.25948e-17 
  6610.8755   3.08197e-17 
  6612.0503   2.99268e-17 
  6613.2251   2.60105e-17 
  6614.4004    2.9945e-17 
  6615.5752   2.56153e-17 
  6616.7505    2.4072e-17 
  6617.9253   2.42191e-17 
  6619.1006   2.85678e-17 
  6620.2759   2.82429e-17 
  6621.4507   2.68722e-17 
   6622.626    2.6285e-17 
  6623.8013    2.8812e-17 
  6624.9766   3.15905e-17 
  6626.1519   3.05765e-17 
  6627.3271   2.50576e-17 
  6628.5029   2.77407e-17 
  6629.6782   2.51073e-17 
  6630.8535   2.56155e-17 
  6632.0288   2.51928e-17 
  6633.2046   2.49261e-17 
  6634.3799    2.7761e-17 
  6635.5557    2.6839e-17 
   6636.731   2.66514e-17 
  6637.9067   2.84218e-17 
  6639.0825    2.6511e-17 
  6640.2583   2.93646e-17 
  6641.4341   2.99202e-17 
  6642.6099   2.74298e-17 
  6643.7856   3.12447e-17 
  6644.9614   2.90325e-17 
  6646.1372   2.41896e-17 
   6647.313   2.74469e-17 
  6648.4888   2.76917e-17 
   6649.665   2.66827e-17 
  6650.8408   2.50009e-17 
  6652.0171   2.69584e-17 
  6653.1929   2.88205e-17 
  6654.3691   3.05281e-17 
  6655.5449   2.32881e-17 
  6656.7212   2.50971e-17 
  6657.8975   2.63746e-17 
  6659.0737   2.88434e-17 
    6660.25   2.87869e-17 
  6661.4263   2.62818e-17 
  6662.6025    2.6326e-17 
  6663.7788   2.47431e-17 
  6664.9551   2.91801e-17 
  6666.1318   2.94724e-17 
  6667.3081   2.63063e-17 
  6668.4844   2.59524e-17 
  6669.6611   2.70458e-17 
  6670.8374   2.81552e-17 
  6672.0142   2.79234e-17 
  6673.1909   2.94186e-17 
  6674.3672   2.99275e-17 
  6675.5439   2.99629e-17 
  6676.7207   2.87644e-17 
  6677.8975   2.88165e-17 
  6679.0742   2.90422e-17 
   6680.251   3.17602e-17 
  6681.4277   2.74641e-17 
  6682.6045   2.55068e-17 
  6683.7812   2.84561e-17 
  6684.9585   2.58165e-17 
  6686.1353   2.83746e-17 
   6687.312   2.55886e-17 
  6688.4893   2.65078e-17 
   6689.666   2.62933e-17 
  6690.8433   2.68675e-17 
  6692.0205   3.03123e-17 
  6693.1973    2.7025e-17 
  6694.3745   3.12709e-17 
  6695.5518     2.941e-17 
   6696.729   2.99341e-17 
  6697.9062   3.06257e-17 
  6699.0835   3.10168e-17 
  6700.2607   3.01066e-17 
  6701.4385   2.58666e-17 
  6702.6157   2.80257e-17 
   6703.793   2.83221e-17 
  6704.9707   2.95555e-17 
  6706.1479   2.93977e-17 
  6707.3257   2.75013e-17 
  6708.5029     2.811e-17 
  6709.6807   2.48683e-17 
  6710.8584   2.62033e-17 
  6712.0356   2.77888e-17 
  6713.2134   3.07487e-17 
  6714.3911   2.87039e-17 
  6715.5688   3.05535e-17 
  6716.7466    2.4002e-17 
  6717.9243    2.8048e-17 
  6719.1025   2.98521e-17 
  6720.2803   3.61427e-17 
   6721.458   4.37213e-17 
  6722.6357   4.48389e-17 
   6723.814   4.86616e-17 
  6724.9917   4.75872e-17 
  6726.1699   4.21582e-17 
  6727.3477    3.5409e-17 
  6728.5259   3.30107e-17 
  6729.7041   2.98153e-17 
  6730.8823   2.74046e-17 
  6732.0601   2.97669e-17 
  6733.2383   2.73794e-17 
  6734.4165   3.06689e-17 
  6735.5947   2.93004e-17 
  6736.7734   2.85022e-17 
  6737.9517   2.95541e-17 
  6739.1299   3.01555e-17 
  6740.3081   2.98906e-17 
  6741.4868   2.77466e-17 
   6742.665   2.74999e-17 
  6743.8438   3.11685e-17 
   6745.022    2.8497e-17 
  6746.2007   3.08971e-17 
  6747.3794   2.65852e-17 
  6748.5576   2.77058e-17 
  6749.7363   3.17794e-17 
   6750.915   2.92014e-17 
  6752.0938   2.98707e-17 
  6753.2725   2.95489e-17 
  6754.4512   3.17216e-17 
  6755.6299   3.09242e-17 
  6756.8086   2.97482e-17 
  6757.9878   2.73339e-17 
  6759.1665   2.99611e-17 
  6760.3452   2.87742e-17 
  6761.5244   3.11215e-17 
  6762.7031    2.4813e-17 
  6763.8823   2.96756e-17 
   6765.061   2.89447e-17 
  6766.2402   3.17041e-17 
  6767.4194   2.99422e-17 
  6768.5986   2.91957e-17 
  6769.7778    3.2788e-17 
   6770.957   3.19249e-17 
  6772.1362   3.17927e-17 
  6773.3154   3.18915e-17 
  6774.4946   3.09307e-17 
  6775.6738   3.27591e-17 
   6776.853   3.21348e-17 
  6778.0327   2.85593e-17 
  6779.2119   3.25422e-17 
  6780.3911   2.80149e-17 
  6781.5708   3.25765e-17 
    6782.75   3.32632e-17 
  6783.9297   3.70415e-17 
  6785.1094   5.40723e-17 
  6786.2886   6.54181e-17 
  6787.4683   7.91734e-17 
  6788.6479   9.30114e-17 
  6789.8276   9.17233e-17 
  6791.0073   7.67791e-17 
   6792.187   5.83226e-17 
  6793.3667   4.88551e-17 
  6794.5464   3.78914e-17 
  6795.7266   3.17034e-17 
  6796.9062   3.33553e-17 
  6798.0859   3.03917e-17 
  6799.2661   3.29228e-17 
  6800.4458    3.2274e-17 
   6801.626   2.72858e-17 
  6802.8057   3.30296e-17 
  6803.9858   3.16879e-17 
   6805.166   3.05731e-17 
  6806.3462    3.2395e-17 
  6807.5264     3.028e-17 
  6808.7065   3.13157e-17 
  6809.8867   2.99095e-17 
  6811.0669   3.40433e-17 
  6812.2471   3.17184e-17 
  6813.4272    2.9551e-17 
  6814.6074   3.21341e-17 
  6815.7876   2.94054e-17 
  6816.9683   2.90162e-17 
  6818.1484   3.20864e-17 
  6819.3291   2.79038e-17 
  6820.5093   3.05059e-17 
  6821.6899   3.02802e-17 
  6822.8701    2.9891e-17 
  6824.0508   3.16421e-17 
  6825.2314   2.99521e-17 
  6826.4121    3.2019e-17 
  6827.5928   3.26052e-17 
  6828.7734   2.77779e-17 
  6829.9541   3.38123e-17 
  6831.1348   3.63672e-17 
  6832.3154   2.99166e-17 
  6833.4961   3.50557e-17 
  6834.6768   2.97476e-17 
  6835.8579   3.31623e-17 
  6837.0386   3.38343e-17 
  6838.2197   3.11558e-17 
  6839.4004    3.5443e-17 
  6840.5815   2.95668e-17 
  6841.7622   3.27839e-17 
  6842.9434   3.35051e-17 
  6844.1245   3.08112e-17 
  6845.3052   2.93796e-17 
  6846.4863   2.93891e-17 
  6847.6675   3.19511e-17 
  6848.8486   3.28457e-17 
  6850.0298   3.41651e-17 
  6851.2109   3.54135e-17 
  6852.3921   3.03533e-17 
  6853.5737    3.3588e-17 
  6854.7549   3.02708e-17 
   6855.936   3.16356e-17 
  6857.1177   3.51779e-17 
  6858.2988   3.14039e-17 
  6859.4805   3.36514e-17 
  6860.6616   3.49852e-17 
  6861.8433   2.53613e-17 
  6863.0249   3.45052e-17 
  6864.2065   3.19156e-17 
  6865.3877    3.8055e-17 
  6866.5693    3.8325e-17 
   6867.751   4.02052e-17 
  6868.9326   3.40011e-17 
  6870.1143   3.84219e-17 
  6871.2959   3.65012e-17 
   6872.478   3.26126e-17 
  6873.6597   3.88337e-17 
  6874.8413   2.95442e-17 
  6876.0234   3.51929e-17 
  6877.2051   3.20697e-17 
  6878.3867   3.16107e-17 
  6879.5688   3.17419e-17 
   6880.751    3.3896e-17 
  6881.9326    3.3457e-17 
  6883.1147   3.25681e-17 
  6884.2969   3.51241e-17 
   6885.479   3.59604e-17 
  6886.6611   3.29592e-17 
  6887.8428   3.63772e-17 
  6889.0249   3.46783e-17 
  6890.2075   3.48597e-17 
  6891.3896   3.71042e-17 
  6892.5718   4.14084e-17 
  6893.7539   3.38233e-17 
   6894.936   3.76205e-17 
  6896.1187   3.72489e-17 
  6897.3008   3.27403e-17 
  6898.4834   3.68393e-17 
  6899.6655   3.39144e-17 
  6900.8481   3.36707e-17 
  6902.0303   3.16687e-17 
  6903.2129   3.85633e-17 
  6904.3955   3.56265e-17 
  6905.5781   3.59863e-17 
  6906.7607    3.0934e-17 
  6907.9434   3.41636e-17 
   6909.126   3.52257e-17 
  6910.3086   4.10329e-17 
  6911.4912   3.51238e-17 
  6912.6738   3.37663e-17 
  6913.8564   3.42406e-17 
  6915.0396   3.65844e-17 
  6916.2222   3.83058e-17 
  6917.4048   3.46995e-17 
  6918.5879   3.65044e-17 
  6919.7705   3.21029e-17 
  6920.9536   3.50975e-17 
  6922.1367   3.50845e-17 
  6923.3193   3.36871e-17 
  6924.5024   4.19564e-17 
  6925.6855   3.79194e-17 
  6926.8687   3.53352e-17 
  6928.0518   3.51189e-17 
  6929.2349   3.95491e-17 
   6930.418    3.8615e-17 
  6931.6011   3.62951e-17 
  6932.7842   3.60697e-17 
  6933.9673   3.74219e-17 
  6935.1509   3.45121e-17 
   6936.334   3.53372e-17 
  6937.5171   3.53368e-17 
  6938.7007   3.66165e-17 
  6939.8838   3.69118e-17 
  6941.0674     4.224e-17 
   6942.251   3.95498e-17 
  6943.4341   3.95185e-17 
  6944.6177    3.6073e-17 
  6945.8013   3.47161e-17 
  6946.9849   3.46787e-17 
  6948.1685   3.72676e-17 
  6949.3521   3.78921e-17 
  6950.5356   3.94641e-17 
  6951.7192   3.78424e-17 
  6952.9028   3.42673e-17 
  6954.0864   3.69383e-17 
    6955.27   3.84927e-17 
  6956.4541   4.07361e-17 
  6957.6377   3.71277e-17 
  6958.8218   3.79555e-17 
  6960.0054   3.84682e-17 
  6961.1895   3.51517e-17 
   6962.373   3.53064e-17 
  6963.5571   3.69462e-17 
  6964.7412   3.75019e-17 
  6965.9248   3.95012e-17 
  6967.1089   3.88386e-17 
   6968.293    3.2579e-17 
  6969.4771   2.95272e-17 
  6970.6611   3.61221e-17 
  6971.8452   3.70745e-17 
  6973.0293   3.62435e-17 
  6974.2134    3.6867e-17 
  6975.3975   4.01274e-17 
   6976.582   3.77688e-17 
  6977.7661   3.94106e-17 
  6978.9507   4.19577e-17 
  6980.1348   4.12862e-17 
  6981.3193    3.8947e-17 
  6982.5034    3.9001e-17 
   6983.688   3.99002e-17 
  6984.8721   3.63237e-17 
  6986.0566   3.54269e-17 
  6987.2412   3.74843e-17 
  6988.4258   3.75521e-17 
  6989.6104   3.77208e-17 
  6990.7949   3.58606e-17 
  6991.9795   3.31601e-17 
  6993.1641   3.76073e-17 
  6994.3486   3.77613e-17 
  6995.5332   3.94336e-17 
  6996.7178   3.64497e-17 
  6997.9028   3.75776e-17 
  6999.0874   3.81247e-17 
   7000.272   4.12213e-17 
   7001.457    3.9068e-17 
  7002.6416   3.88726e-17 
  7003.8267   4.04345e-17 
  7005.0112   3.78291e-17 
  7006.1963   3.76744e-17 
  7007.3813   3.64311e-17 
  7008.5664    3.6999e-17 
   7009.751   3.26719e-17 
   7010.936   3.57227e-17 
  7012.1211   3.64227e-17 
  7013.3062   3.68057e-17 
  7014.4912   3.40353e-17 
  7015.6763   3.55328e-17 
  7016.8618    4.0515e-17 
  7018.0469    3.7189e-17 
  7019.2319   3.65825e-17 
  7020.4175   3.78245e-17 
  7021.6025   4.11792e-17 
  7022.7876   3.91216e-17 
  7023.9731   3.82351e-17 
  7025.1582   3.84626e-17 
  7026.3438   3.70465e-17 
  7027.5293   3.70323e-17 
  7028.7148   4.00892e-17 
  7029.8999   3.93981e-17 
  7031.0854   4.07155e-17 
   7032.271   3.70077e-17 
  7033.4565   3.57407e-17 
  7034.6421   3.31576e-17 
  7035.8276   3.85547e-17 
  7037.0132   3.86277e-17 
  7038.1987   3.89623e-17 
  7039.3843   3.69673e-17 
  7040.5703   3.84613e-17 
  7041.7559   3.98202e-17 
  7042.9414    3.8205e-17 
  7044.1274   3.59999e-17 
   7045.313   3.35033e-17 
   7046.499   3.81689e-17 
  7047.6846   3.75856e-17 
  7048.8706   3.55583e-17 
  7050.0566   3.57212e-17 
  7051.2427   3.72113e-17 
  7052.4282   3.71496e-17 
  7053.6143   3.57819e-17 
  7054.8003   3.52698e-17 
  7055.9863   3.53874e-17 
  7057.1724   3.63144e-17 
  7058.3584   3.54135e-17 
  7059.5444   3.61187e-17 
  7060.7305   3.92808e-17 
   7061.917   3.74235e-17 
   7063.103   3.64395e-17 
  7064.2891   3.69057e-17 
  7065.4756   3.55831e-17 
  7066.6616   3.38359e-17 
  7067.8481   3.71257e-17 
  7069.0342   3.45946e-17 
  7070.2207   3.56893e-17 
  7071.4072   3.62297e-17 
  7072.5933   3.15147e-17 
  7073.7798   3.75912e-17 
  7074.9663    3.9277e-17 
  7076.1528   3.64345e-17 
  7077.3394   4.13264e-17 
  7078.5259   3.34494e-17 
  7079.7124   3.29403e-17 
  7080.8989   3.44892e-17 
  7082.0854   3.71055e-17 
   7083.272   3.43186e-17 
  7084.4585   3.43697e-17 
  7085.6455   3.41208e-17 
   7086.832   3.26465e-17 
   7088.019   3.25269e-17 
  7089.2056   3.58882e-17 
  7090.3921   3.63337e-17 
  7091.5791   3.47869e-17 
  7092.7661   3.47104e-17 
  7093.9526   3.55559e-17 
  7095.1396   3.60694e-17 
  7096.3267   3.61003e-17 
  7097.5137   3.63971e-17 
  7098.7002    3.3423e-17 
  7099.8872   3.43518e-17 
  7101.0742   3.70905e-17 
  7102.2612   3.46843e-17 
  7103.4487   3.77604e-17 
  7104.6357   3.08761e-17 
  7105.8228   3.16024e-17 
  7107.0098   3.38808e-17 
  7108.1968   3.50161e-17 
  7109.3843   3.55279e-17 
  7110.5713   3.49971e-17 
  7111.7588   3.41333e-17 
  7112.9458   3.38533e-17 
  7114.1333   3.57997e-17 
  7115.3203    3.4734e-17 
  7116.5078   3.79166e-17 
  7117.6953   3.49835e-17 
  7118.8823   3.42561e-17 
  7120.0698   3.34759e-17 
  7121.2573   3.46582e-17 
  7122.4448   3.17047e-17 
  7123.6323   3.49311e-17 
  7124.8198   3.47319e-17 
  7126.0073   3.17722e-17 
  7127.1948   3.34122e-17 
  7128.3823   3.51634e-17 
  7129.5703   3.31146e-17 
  7130.7578   3.41563e-17 
  7131.9453   3.01619e-17 
  7133.1333   3.34404e-17 
  7134.3208   3.23279e-17 
  7135.5088   3.36606e-17 
  7136.6963   3.64503e-17 
  7137.8843   3.24599e-17 
  7139.0718     3.257e-17 
  7140.2598    3.3981e-17 
  7141.4478    3.6029e-17 
  7142.6357   3.35751e-17 
  7143.8232    3.0692e-17 
  7145.0112   3.45759e-17 
  7146.1992   3.14068e-17 
  7147.3872   2.99581e-17 
  7148.5752   2.99729e-17 
  7149.7632    3.2431e-17 
  7150.9512   2.99967e-17 
  7152.1396   3.39701e-17 
  7153.3276   3.10887e-17 
  7154.5156   3.31521e-17 
  7155.7041   2.92755e-17 
  7156.8921   2.90078e-17 
  7158.0801   2.92649e-17 
  7159.2686   2.79544e-17 
   7160.457   3.40146e-17 
   7161.645   3.01111e-17 
  7162.8335   2.78568e-17 
  7164.0215    2.8111e-17 
    7165.21   3.01713e-17 
  7166.3984   3.15771e-17 
  7167.5869   3.48319e-17 
  7168.7754   2.95811e-17 
  7169.9639   3.12259e-17 
  7171.1523   3.24665e-17 
  7172.3408   3.17761e-17 
  7173.5293   3.22331e-17 
  7174.7178   2.90079e-17 
  7175.9062   3.01111e-17 
  7177.0947   2.88714e-17 
  7178.2837   3.29793e-17 
  7179.4722     2.843e-17 
  7180.6611   3.13123e-17 
  7181.8496   2.85333e-17 
  7183.0381    2.9224e-17 
  7184.2271   3.55789e-17 
   7185.416   2.92464e-17 
  7186.6045   3.25097e-17 
  7187.7935   3.06131e-17 
  7188.9824   3.01827e-17 
  7190.1709   2.71245e-17 
  7191.3599   2.91399e-17 
  7192.5488    2.9647e-17 
  7193.7378   2.76445e-17 
  7194.9268    3.4188e-17 
  7196.1157   2.75668e-17 
  7197.3047   2.88879e-17 
  7198.4937   3.36249e-17 
  7199.6831     3.086e-17 
  7200.8721   3.01567e-17 
   7202.061   3.21011e-17 
    7203.25     2.894e-17 
  7204.4395   2.94045e-17 
  7205.6284   2.80529e-17 
  7206.8179   2.95002e-17 
  7208.0068   3.22151e-17 
  7209.1963   2.88926e-17 
  7210.3857   2.85936e-17 
  7211.5747   2.90219e-17 
  7212.7642   3.30701e-17 
  7213.9536   2.89644e-17 
  7215.1426   3.09175e-17 
   7216.332   2.97528e-17 
  7217.5215   2.79011e-17 
  7218.7109    2.9775e-17 
  7219.9004   2.92068e-17 
  7221.0898   2.74404e-17 
  7222.2793   2.85162e-17 
  7223.4692   2.82477e-17 
  7224.6587    2.7991e-17 
  7225.8481   3.16213e-17 
  7227.0376   2.76989e-17 
  7228.2275   3.01113e-17 
   7229.417   2.82707e-17 
  7230.6069     2.858e-17 
  7231.7964   3.06451e-17 
  7232.9863   3.17979e-17 
  7234.1758   2.85294e-17 
  7235.3657   3.20168e-17 
  7236.5552    3.0249e-17 
  7237.7451   2.67212e-17 
  7238.9351    2.7401e-17 
   7240.125   3.03045e-17 
  7241.3149   3.25192e-17 
  7242.5049   3.22929e-17 
  7243.6948   3.21648e-17 
  7244.8848    3.1458e-17 
  7246.0747   2.79222e-17 
  7247.2646   2.91467e-17 
  7248.4546   2.79378e-17 
  7249.6445   3.04957e-17 
  7250.8345   2.90797e-17 
  7252.0249   2.81727e-17 
  7253.2148    3.3497e-17 
  7254.4048   2.99859e-17 
  7255.5952   3.07086e-17 
  7256.7852   3.22853e-17 
  7257.9756   3.10578e-17 
   7259.166   2.92778e-17 
   7260.356   2.73009e-17 
  7261.5464   2.97928e-17 
  7262.7368   3.09076e-17 
  7263.9268   2.70442e-17 
  7265.1172   3.19661e-17 
  7266.3076   3.30904e-17 
   7267.498   3.11044e-17 
  7268.6885      3.03e-17 
  7269.8789   3.07439e-17 
  7271.0693   3.16848e-17 
  7272.2598   3.05383e-17 
  7273.4502   3.32618e-17 
  7274.6411   2.92631e-17 
  7275.8315   3.52043e-17 
   7277.022    3.3539e-17 
  7278.2124   3.46519e-17 
  7279.4033   3.13935e-17 
  7280.5938   3.12155e-17 
  7281.7847   3.08388e-17 
  7282.9751   3.12792e-17 
   7284.166    3.1272e-17 
  7285.3564   2.80982e-17 
  7286.5474   3.00373e-17 
  7287.7383   3.18239e-17 
  7288.9287   2.70664e-17 
  7290.1196   3.04763e-17 
  7291.3105   3.08238e-17 
  7292.5015   2.95431e-17 
  7293.6924   3.09272e-17 
  7294.8833   3.17821e-17 
  7296.0742   2.92469e-17 
  7297.2651   3.14292e-17 
  7298.4561   3.68324e-17 
   7299.647   3.01978e-17 
  7300.8379   3.45285e-17 
  7302.0293   3.07917e-17 
  7303.2202   2.90292e-17 
  7304.4111   3.23222e-17 
  7305.6025   3.15179e-17 
  7306.7935   2.89384e-17 
  7307.9849    2.7664e-17 
  7309.1758   2.95744e-17 
  7310.3672   2.88695e-17 
  7311.5581   2.52599e-17 
  7312.7495   2.89815e-17 
  7313.9409   2.95739e-17 
  7315.1323   2.72824e-17 
  7316.3232   2.76176e-17 
  7317.5146   3.02792e-17 
  7318.7061   2.59721e-17 
  7319.8975   2.80735e-17 
  7321.0889    2.6489e-17 
  7322.2803   2.71071e-17 
  7323.4717   2.86898e-17 
  7324.6631   3.05747e-17 
  7325.8545   2.88513e-17 
  7327.0464   3.40859e-17 
  7328.2378   3.32709e-17 
  7329.4292   2.91348e-17 
  7330.6206   3.36118e-17 
  7331.8125   2.51944e-17 
  7333.0039   2.80558e-17 
  7334.1958   2.74928e-17 
  7335.3872   3.17699e-17 
  7336.5791   2.87232e-17 
  7337.7705   3.28311e-17 
  7338.9624   3.27107e-17 
  7340.1543   3.43056e-17 
  7341.3457   2.90591e-17 
  7342.5376   2.96509e-17 
  7343.7295   3.13135e-17 
  7344.9214   2.74273e-17 
  7346.1133   2.73694e-17 
  7347.3052   2.93759e-17 
  7348.4971    2.9824e-17 
   7349.689   2.94501e-17 
  7350.8809   2.76268e-17 
  7352.0728   2.91646e-17 
  7353.2646   2.70197e-17 
  7354.4565   2.79252e-17 
  7355.6489   2.89407e-17 
  7356.8408   3.27037e-17 
  7358.0327   3.10209e-17 
  7359.2251    3.0466e-17 
   7360.417   3.02881e-17 
  7361.6094   2.37355e-17 
  7362.8013   2.88134e-17 
  7363.9937    3.3125e-17 
  7365.1855   2.55473e-17 
  7366.3779   2.95934e-17 
  7367.5703   2.77709e-17 
  7368.7622    3.1776e-17 
  7369.9546     3.199e-17 
   7371.147   2.77275e-17 
  7372.3394   2.70542e-17 
  7373.5317   2.85948e-17 
  7374.7241   2.87774e-17 
  7375.9165   2.95448e-17 
  7377.1089   2.59007e-17 
  7378.3013   2.83527e-17 
  7379.4937   2.43445e-17 
   7380.686   2.66195e-17 
  7381.8784   3.01082e-17 
  7383.0713   2.76085e-17 
  7384.2637   2.71003e-17 
  7385.4561   2.72264e-17 
  7386.6489   3.01767e-17 
  7387.8413   2.93601e-17 
  7389.0342   2.71264e-17 
  7390.2266   2.40295e-17 
  7391.4194   2.52089e-17 
  7392.6118    2.6482e-17 
  7393.8047   2.59027e-17 
  7394.9976   2.76728e-17 
  7396.1899   2.67586e-17 
  7397.3828   2.43693e-17 
  7398.5757   2.59527e-17 
  7399.7686   2.57437e-17 
  7400.9614   2.78704e-17 
  7402.1543   2.35655e-17 
  7403.3472    2.6695e-17 
    7404.54   2.86205e-17 
  7405.7329   2.35048e-17 
  7406.9258   2.72682e-17 
  7408.1187   2.46446e-17 
  7409.3115   2.77985e-17 
  7410.5044   2.42596e-17 
  7411.6978   2.85144e-17 
  7412.8906   2.72737e-17 
  7414.0835   3.03397e-17 
  7415.2769   2.41459e-17 
  7416.4697    2.7946e-17 
  7417.6631   2.84056e-17 
   7418.856   2.75126e-17 
  7420.0493   2.39412e-17 
  7421.2422   2.54874e-17 
  7422.4355   2.59446e-17 
  7423.6289   2.36899e-17 
  7424.8218   2.66408e-17 
  7426.0151   2.54183e-17 
  7427.2085   2.63388e-17 
  7428.4019   2.56908e-17 
  7429.5952     2.335e-17 
  7430.7886   2.62498e-17 
  7431.9819   2.88235e-17 
  7433.1753   2.55141e-17 
  7434.3687   2.59842e-17 
   7435.562   2.15558e-17 
  7436.7554   2.36732e-17 
  7437.9487     2.626e-17 
  7439.1421   2.85521e-17 
  7440.3359   2.71494e-17 
  7441.5293   2.71143e-17 
  7442.7227   2.60759e-17 
  7443.9165   2.53187e-17 
  7445.1099   2.20331e-17 
  7446.3032   2.34524e-17 
  7447.4971   2.68899e-17 
  7448.6909   2.61159e-17 
  7449.8843    2.6711e-17 
  7451.0781   2.56793e-17 
  7452.2715   2.62476e-17 
  7453.4653   2.42302e-17 
  7454.6592   2.58415e-17 
   7455.853   2.28483e-17 
  7457.0464   2.47306e-17 
  7458.2402   2.79671e-17 
  7459.4341   2.77513e-17 
  7460.6279   2.29443e-17 
  7461.8218    2.5017e-17 
  7463.0156   2.34159e-17 
  7464.2095   2.23693e-17 
  7465.4033   2.62539e-17 
  7466.5972   2.58988e-17 
  7467.7915   2.72844e-17 
  7468.9854   2.25923e-17 
  7470.1792   2.56959e-17 
  7471.3735   2.77007e-17 
  7472.5674    2.2665e-17 
  7473.7612   2.76725e-17 
  7474.9556   2.67891e-17 
  7476.1494   2.61252e-17 
  7477.3438    2.2793e-17 
  7478.5376   2.72591e-17 
  7479.7319   2.47581e-17 
  7480.9258   2.66225e-17 
  7482.1201   2.58811e-17 
  7483.3145    2.6736e-17 
  7484.5088    2.6588e-17 
  7485.7026    2.4348e-17 
   7486.897   2.66887e-17 
  7488.0913    2.6626e-17 
  7489.2856   2.73028e-17 
    7490.48   2.84246e-17 
  7491.6743   2.60308e-17 
  7492.8687   2.72706e-17 
   7494.063   2.50725e-17 
  7495.2573   2.62018e-17 
  7496.4517   2.59954e-17 
   7497.646   2.51427e-17 
  7498.8408   2.32627e-17 
  7500.0352   2.41404e-17 
  7501.2295    2.4912e-17 
  7502.4238   2.82263e-17 
  7503.6187   3.10743e-17 
   7504.813   2.82925e-17 
  7506.0078   2.59635e-17 
  7507.2021   2.80255e-17 
   7508.397   2.61371e-17 
  7509.5913   2.56963e-17 
  7510.7861   2.72538e-17 
  7511.9805    2.6322e-17 
  7513.1753   2.96272e-17 
  7514.3701   2.85157e-17 
  7515.5649   2.85791e-17 
  7516.7593   2.84396e-17 
  7517.9541   2.61466e-17 
  7519.1489   2.87314e-17 
  7520.3438   2.31691e-17 
  7521.5386   2.88925e-17 
  7522.7334   2.73647e-17 
  7523.9282   2.91504e-17 
   7525.123   2.49542e-17 
  7526.3179   2.61996e-17 
  7527.5127   2.65223e-17 
  7528.7075    2.8013e-17 
  7529.9028   2.51816e-17 
  7531.0977   2.65424e-17 
  7532.2925   2.77291e-17 
  7533.4873   2.32809e-17 
  7534.6826   2.90143e-17 
  7535.8774   2.59523e-17 
  7537.0723   2.78489e-17 
  7538.2676    2.6656e-17 
  7539.4624   2.85689e-17 
  7540.6577   2.75213e-17 
   7541.853   2.87026e-17 
  7543.0479   2.59766e-17 
  7544.2432   2.77451e-17 
   7545.438   3.05793e-17 
  7546.6333   2.72038e-17 
  7547.8286   2.76479e-17 
  7549.0239   2.67728e-17 
  7550.2192   2.80567e-17 
  7551.4141   2.62704e-17 
  7552.6094   2.81407e-17 
  7553.8047   2.92758e-17 
     7555.0   2.75722e-17 
  7556.1953   2.60021e-17 
  7557.3911   2.69139e-17 
  7558.5864    2.5826e-17 
  7559.7817   2.53368e-17 
  7560.9771   2.69576e-17 
  7562.1724    2.8525e-17 
  7563.3677   2.86058e-17 
  7564.5635   2.61115e-17 
  7565.7588   2.57048e-17 
  7566.9541   2.92253e-17 
  7568.1499    2.6391e-17 
  7569.3452   2.65934e-17 
   7570.541    2.7851e-17 
  7571.7363   2.50578e-17 
  7572.9321   2.75339e-17 
  7574.1274   2.79635e-17 
  7575.3232   2.57142e-17 
  7576.5186   2.59075e-17 
  7577.7144   2.95298e-17 
  7578.9102   2.65013e-17 
  7580.1055   2.62964e-17 
  7581.3013   2.68303e-17 
  7582.4971   2.29385e-17 
  7583.6929    2.9215e-17 
  7584.8887     2.914e-17 
  7586.0845   2.46567e-17 
  7587.2803   2.56404e-17 
  7588.4761   2.97275e-17 
  7589.6719   2.62146e-17 
  7590.8677   2.60981e-17 
  7592.0635   2.85488e-17 
  7593.2593   2.75842e-17 
  7594.4551   3.09866e-17 
  7595.6509   3.32524e-17 
  7596.8472   2.98722e-17 
   7598.043    3.5494e-17 
  7599.2388   1.85346e-17 
  7600.4351    3.5597e-17 
  7601.6309   3.10811e-17 
  7602.8267   3.13329e-17 
  7604.0229   3.44744e-17 
  7605.2192   3.04288e-17 
   7606.415   2.16488e-17 
  7607.6113   3.12448e-17 
  7608.8071   2.22632e-17 
  7610.0034   2.46693e-17 
  7611.1997    3.3412e-17 
  7612.3955   2.64298e-17 
  7613.5918   2.49103e-17 
  7614.7881   2.29634e-17 
  7615.9844   2.40246e-17 
  7617.1802    2.4365e-17 
  7618.3765   2.23544e-17 
  7619.5728   2.68301e-17 
   7620.769   2.89929e-17 
  7621.9653   2.90067e-17 
  7623.1616    2.8263e-17 
  7624.3579   3.02771e-17 
  7625.5542   2.81908e-17 
  7626.7505   3.55149e-17 
  7627.9468   2.81538e-17 
  7629.1436   2.86652e-17 
  7630.3398   2.56539e-17 
  7631.5361   2.98453e-17 
  7632.7329   3.01017e-17 
  7633.9292   2.81877e-17 
  7635.1255   2.75461e-17 
  7636.3223   2.59819e-17 
  7637.5186   2.93109e-17 
  7638.7153   2.82417e-17 
  7639.9116   2.20789e-17 
  7641.1084   2.44888e-17 
  7642.3047   2.57382e-17 
  7643.5015    2.6699e-17 
  7644.6978    2.6892e-17 
  7645.8945   2.95497e-17 
  7647.0913   2.38266e-17 
  7648.2876   2.49036e-17 
  7649.4844   2.13222e-17 
  7650.6812   2.50921e-17 
  7651.8779   2.66431e-17 
  7653.0747   2.47653e-17 
  7654.2715   2.85697e-17 
  7655.4678   2.67666e-17 
   7656.665   2.54269e-17 
  7657.8613   2.38791e-17 
  7659.0581   2.95051e-17 
  7660.2549   2.79164e-17 
  7661.4521   2.56337e-17 
  7662.6489   2.82068e-17 
  7663.8457   2.69632e-17 
  7665.0425   2.60092e-17 
  7666.2393   2.80518e-17 
  7667.4365   2.68248e-17 
  7668.6333   2.44387e-17 
  7669.8301   2.70503e-17 
  7671.0273   2.48432e-17 
  7672.2241   2.31419e-17 
  7673.4209    2.5303e-17 
  7674.6182   2.57322e-17 
  7675.8149   2.48875e-17 
  7677.0122   2.86503e-17 
   7678.209   2.64134e-17 
  7679.4062   2.67415e-17 
  7680.6035   2.41787e-17 
  7681.8003   2.61683e-17 
  7682.9976   2.70674e-17 
  7684.1948   2.77208e-17 
  7685.3916   2.50103e-17 
  7686.5889   2.71669e-17 
  7687.7861   2.38965e-17 
  7688.9834    2.9952e-17 
  7690.1807   2.56539e-17 
  7691.3779   2.60411e-17 
  7692.5752    2.6591e-17 
  7693.7725   2.65559e-17 
  7694.9697   2.88344e-17 
   7696.167    2.5214e-17 
  7697.3643    2.5837e-17 
  7698.5615    2.5993e-17 
  7699.7588   2.77351e-17 
  7700.9561   2.65596e-17 
  7702.1533   2.52503e-17 
  7703.3506   2.90323e-17 
  7704.5483   2.76406e-17 
  7705.7456   2.81865e-17 
  7706.9429   2.83876e-17 
  7708.1406   3.00383e-17 
  7709.3379   2.63183e-17 
  7710.5352   2.88583e-17 
  7711.7329   2.42592e-17 
  7712.9302   2.92124e-17 
  7714.1279   2.26648e-17 
  7715.3257   3.11985e-17 
  7716.5229   3.45012e-17 
  7717.7207   3.11248e-17 
   7718.918   2.22359e-17 
  7720.1157   2.55866e-17 
  7721.3135   2.87684e-17 
  7722.5112   2.83741e-17 
  7723.7085    2.9731e-17 
  7724.9062   2.90382e-17 
   7726.104    2.5609e-17 
  7727.3018   2.97608e-17 
  7728.4995   2.37492e-17 
  7729.6968   2.74733e-17 
  7730.8945   2.84483e-17 
  7732.0923   2.78697e-17 
    7733.29   2.79396e-17 
  7734.4878    2.4226e-17 
   7735.686    2.7501e-17 
  7736.8838   3.14468e-17 
  7738.0815   2.62817e-17 
  7739.2793   2.45992e-17 
  7740.4771   3.05268e-17 
  7741.6748   2.72593e-17 
  7742.8726   2.82366e-17 
  7744.0708   2.77372e-17 
  7745.2686   2.73311e-17 
  7748.8623   2.36204e-17 
  7750.0605   2.70552e-17 
  7751.2583   2.09031e-17 
  7752.4565   2.40921e-17 
  7753.6543   2.60459e-17 
  7754.8525   3.02324e-17 
  7756.0503   3.02776e-17 
  7757.2485   3.14341e-17 
  7758.4463   2.74261e-17 
  7759.6445   3.12014e-17 
  7760.8428   2.51281e-17 
   7762.041   2.75487e-17 
  7763.2388   3.05656e-17 
   7764.437   2.68945e-17 
  7765.6353    2.7805e-17 
  7766.8335   2.61699e-17 
  7768.0317   2.91783e-17 
    7769.23   2.74984e-17 
  7770.4282   2.84103e-17 
   7771.626   2.72972e-17 
  7772.8242   2.31806e-17 
  7774.0225   2.44828e-17 
  7775.2212   3.06903e-17 
  7776.4194   3.07714e-17 
  7777.6177   3.00139e-17 
  7778.8159   3.00141e-17 
  7780.0142   2.53471e-17 
  7781.2124   2.54246e-17 
  7782.4106   2.72666e-17 
  7783.6094   2.96298e-17 
  7784.8076   2.81304e-17 
  7786.0059   2.82945e-17 
  7787.2046   2.76227e-17 
  7788.4028   2.70376e-17 
  7789.6011   2.54928e-17 
  7790.7998   2.21066e-17 
   7791.998   2.66452e-17 
  7793.1968   2.52726e-17 
   7794.395   2.52538e-17 
  7795.5938   2.65521e-17 
   7796.792   2.61498e-17 
  7797.9907   2.45484e-17 
   7799.189   2.50692e-17 
  7800.3877   2.39912e-17 
  7801.5864   2.64689e-17 
  7802.7847   2.59981e-17 
  7803.9834   2.62358e-17 
  7805.1821    2.8084e-17 
  7806.3809   2.91942e-17 
  7807.5796   3.04589e-17 
  7808.7783   2.73744e-17 
  7809.9766   2.74932e-17 
  7811.1753   2.54078e-17 
   7812.374   2.31236e-17 
  7813.5728   2.47105e-17 
  7814.7715   2.40715e-17 
  7815.9702   2.43699e-17 
  7817.1689   2.55405e-17 
  7818.3677   2.39485e-17 
  7819.5664   2.93181e-17 
  7820.7656   2.45678e-17 
  7821.9644   2.40162e-17 
  7823.1631   2.95388e-17 
  7824.3618   2.33789e-17 
  7825.5605   2.34604e-17 
  7826.7593    2.4714e-17 
  7827.9585   2.37469e-17 
  7829.1572   2.56866e-17 
   7830.356   2.45984e-17 
  7831.5552    2.5267e-17 
  7832.7539   2.60891e-17 
  7833.9531   2.62155e-17 
  7835.1519   2.45706e-17 
  7836.3511   2.69657e-17 
  7837.5498   2.46172e-17 
   7838.749   2.19243e-17 
  7839.9478   2.49775e-17 
   7841.147   2.44799e-17 
  7842.3457   2.21287e-17 
  7843.5449   2.44378e-17 
  7844.7441   2.23352e-17 
  7845.9429   2.80729e-17 
  7847.1421   2.35544e-17 
  7848.3413   2.68676e-17 
  7849.5405   2.42712e-17 
  7850.7393   2.08949e-17 
  7851.9385   2.09446e-17 
  7853.1377    2.7417e-17 
  7854.3369   1.91073e-17 
  7855.5361   2.19852e-17 
  7856.7354   2.49235e-17 
  7857.9346   2.63057e-17 
  7859.1338   2.35016e-17 
   7860.333   2.47675e-17 
  7861.5322   2.29014e-17 
  7862.7314   2.29428e-17 
  7863.9307   2.41607e-17 
  7865.1299   2.24085e-17 
  7866.3291   2.61496e-17 
  7867.5283   2.02355e-17 
   7868.728    2.6109e-17 
  7869.9272   2.40592e-17 
  7871.1265   2.27173e-17 
  7872.3257   2.56532e-17 
  7873.5249   2.16422e-17 
  7874.7246    3.0288e-17 
  7875.9238   2.53254e-17 
  7877.1235   2.48827e-17 
  7878.3228   2.49391e-17 
   7879.522   2.56317e-17 
  7880.7217   2.78331e-17 
  7881.9209   2.39655e-17 
  7883.1206   2.38636e-17 
  7884.3198   2.68439e-17 
  7885.5195   2.60586e-17 
  7886.7188   2.78965e-17 
  7887.9185   2.64811e-17 
  7889.1182   2.33421e-17 
  7890.3174   2.62755e-17 
  7891.5171   2.50301e-17 
  7892.7168   2.47418e-17 
   7893.916   2.21042e-17 
  7895.1157   2.22101e-17 
  7896.3154   2.39637e-17 
  7897.5151   2.55394e-17 
  7898.7148   2.59745e-17 
  7899.9141   2.47019e-17 
  7901.1138   2.63469e-17 
  7902.3135   2.37807e-17 
  7903.5132   2.30419e-17 
  7904.7129   2.44677e-17 
  7905.9126   2.40097e-17 
  7907.1123   2.35219e-17 
   7908.312   2.54127e-17 
  7909.5117   2.46277e-17 
  7910.7114   2.75838e-17 
  7911.9111   2.82393e-17 
  7913.1108   2.85952e-17 
  7914.3105    2.3055e-17 
  7915.5107   2.46485e-17 
  7916.7104   1.91714e-17 
  7917.9102   2.35739e-17 
  7919.1099   2.46059e-17 
  7920.3096   1.89959e-17 
  7921.5098   2.33935e-17 
  7922.7095   2.34455e-17 
  7923.9092   2.46383e-17 
  7925.1094   2.30643e-17 
  7926.3091   2.41347e-17 
  7927.5088   2.92001e-17 
   7928.709   2.47674e-17 
  7929.9087   2.49369e-17 
  7931.1089   2.40989e-17 
  7932.3086   2.67648e-17 
  7933.5088   2.46154e-17 
  7934.7085   2.37393e-17 
  7935.9087   2.52886e-17 
  7937.1084   2.14521e-17 
  7938.3086   2.42629e-17 
  7939.5088   2.60923e-17 
  7940.7085   2.58534e-17 
  7941.9087   2.35235e-17 
  7943.1089   2.63074e-17 
  7944.3086   2.68874e-17 
  7945.5088   2.21278e-17 
   7946.709   2.38716e-17 
  7947.9092   2.51921e-17 
  7949.1094   2.02349e-17 
  7950.3091   2.64644e-17 
  7951.5093   2.37006e-17 
  7952.7095   2.32964e-17 
  7953.9097   2.88632e-17 
  7955.1099   2.56892e-17 
  7956.3101   2.50391e-17 
  7957.5103   2.43397e-17 
  7958.7104     2.636e-17 
  7959.9106   2.09613e-17 
  7961.1108    2.6888e-17 
   7962.311   2.61298e-17 
  7963.5112   3.03087e-17 
  7964.7114   2.46643e-17 
  7965.9116   2.44951e-17 
  7967.1123   2.47803e-17 
  7968.3125    2.5747e-17 
  7969.5127   2.38181e-17 
  7970.7129   2.58207e-17 
  7971.9131   2.36017e-17 
  7973.1138   2.62553e-17 
   7974.314   2.52191e-17 
  7975.5142   2.56696e-17 
  7976.7148   2.48504e-17 
   7977.915    2.5089e-17 
  7979.1152    2.3275e-17 
  7980.3159   2.87447e-17 
  7981.5161   2.28999e-17 
  7982.7168   2.34504e-17 
   7983.917   2.66436e-17 
  7985.1177    2.5519e-17 
  7986.3179   2.24946e-17 
  7987.5186   2.09834e-17 
  7988.7188   2.37403e-17 
  7989.9194   2.49323e-17 
  7991.1196   2.74859e-17 
  7992.3203   2.57989e-17 
   7993.521   1.96908e-17 
  7994.7212   2.76674e-17 
  7995.9219   2.72761e-17 
  7997.1226   2.34993e-17 
  7998.3228    2.5462e-17 
  7999.5234   2.22082e-17 
  8000.7241   2.22857e-17 
  8001.9248   2.40122e-17 
   8003.125   2.51166e-17 
  8004.3257   2.33132e-17 
  8005.5264   2.47938e-17 
  8006.7271   2.43454e-17 
  8007.9277   2.44529e-17 
  8009.1284   2.28986e-17 
  8010.3291   2.39963e-17 
  8011.5298   2.12818e-17 
  8012.7305   2.28651e-17 
  8013.9307   2.61654e-17 
  8015.1318   2.39169e-17 
  8016.3325   2.24185e-17 
  8017.5332   2.44362e-17 
  8018.7339   2.23195e-17 
  8019.9346   2.59434e-17 
  8021.1353   2.30541e-17 
  8022.3359   2.66706e-17 
  8023.5366   2.47202e-17 
  8024.7373   2.36341e-17 
  8025.9385   2.18545e-17 
  8027.1392   2.82041e-17 
  8028.3398   1.48575e-17 
  8029.5405   2.53626e-17 
  8030.7417   2.27977e-17 
  8031.9424   2.39738e-17 
  8033.1431   2.03944e-17 
  8034.3442    2.1084e-17 
  8035.5449   1.91416e-17 
  8036.7456   2.35637e-17 
  8037.9468   2.01929e-17 
  8039.1475   1.94498e-17 
  8040.3486   2.07785e-17 
  8041.5493   2.29151e-17 
    8042.75   2.34931e-17 
  8043.9512   2.28593e-17 
  8045.1523   2.09787e-17 
   8046.353   2.10519e-17 
  8047.5542   2.10749e-17 
  8048.7549   2.18135e-17 
  8049.9561     1.883e-17 
  8051.1567   2.17184e-17 
  8052.3579   1.97961e-17 
  8053.5591   2.02932e-17 
  8054.7598   2.26289e-17 
  8055.9609   2.20441e-17 
  8057.1621   2.08014e-17 
  8058.3628   2.07093e-17 
   8059.564   2.25496e-17 
  8060.7651   2.32319e-17 
  8061.9663   2.51534e-17 
   8063.167   2.17188e-17 
  8064.3682   1.99889e-17 
  8065.5693   2.00279e-17 
  8066.7705   2.16136e-17 
  8067.9717   2.25789e-17 
  8069.1729   2.10073e-17 
   8070.374   2.28654e-17 
  8071.5752   2.10961e-17 
  8072.7759    2.1586e-17 
  8073.9775   2.06421e-17 
  8075.1782   2.19086e-17 
  8076.3794   2.09355e-17 
  8077.5806   2.52724e-17 
  8078.7822   1.98882e-17 
  8079.9834   2.11217e-17 
  8081.1846   2.35402e-17 
  8082.3857   2.40173e-17 
  8083.5869    2.1821e-17 
  8084.7881   2.25657e-17 
  8085.9893   2.21005e-17 
  8087.1904   2.35533e-17 
  8088.3916   2.31482e-17 
  8089.5933   2.08778e-17 
  8090.7944   2.31221e-17 
  8091.9956   2.10239e-17 
  8093.1968    2.0847e-17 
  8094.3984   2.08041e-17 
  8095.5996   2.05083e-17 
  8096.8008   1.96346e-17 
  8098.0024    2.0967e-17 
  8099.2036   2.26163e-17 
  8100.4048   2.20362e-17 
  8101.6064   2.03666e-17 
  8102.8076   2.38538e-17 
  8104.0088   2.00082e-17 
  8105.2104   1.99333e-17 
  8106.4116    2.3189e-17 
  8107.6133    2.0594e-17 
  8108.8145     2.215e-17 
  8110.0161   2.27626e-17 
  8111.2173   2.24568e-17 
  8112.4189   1.77503e-17 
  8113.6201   2.03172e-17 
  8114.8218   1.85432e-17 
  8116.0234   2.21382e-17 
  8117.2246   1.89519e-17 
  8118.4263   1.99706e-17 
  8119.6274   2.11346e-17 
  8120.8291   2.08411e-17 
  8122.0308   2.14489e-17 
  8123.2319   2.16802e-17 
  8124.4336   2.06658e-17 
  8125.6353   2.41519e-17 
  8126.8369    1.9575e-17 
  8128.0381   1.97869e-17 
  8129.2397   2.10159e-17 
  8130.4414   1.99944e-17 
  8131.6431   2.17024e-17 
  8132.8447   2.44644e-17 
  8134.0459   2.27448e-17 
  8135.2476   2.27193e-17 
  8136.4492   2.24126e-17 
  8137.6509   2.13025e-17 
  8138.8525   1.98564e-17 
  8140.0542   1.77893e-17 
  8141.2559   1.88732e-17 
  8142.4575   2.09065e-17 
  8143.6592   2.20984e-17 
  8144.8608   2.12741e-17 
  8146.0625   1.93271e-17 
  8147.2637   2.01617e-17 
  8148.4658   2.05198e-17 
  8149.6675   2.33131e-17 
  8150.8691   2.18173e-17 
  8152.0708   1.63053e-17 
  8153.2725   2.14126e-17 
  8154.4741   1.73129e-17 
  8155.6758   2.19182e-17 
  8156.8774   1.89572e-17 
  8158.0791   2.00737e-17 
  8159.2808   2.29088e-17 
  8160.4829   2.06085e-17 
  8161.6846   2.27927e-17 
  8162.8862   1.76903e-17 
  8164.0879   2.12165e-17 
    8165.29   2.03108e-17 
  8166.4917    2.1148e-17 
  8167.6934   1.85673e-17 
   8168.895   2.08481e-17 
  8170.0972   1.88849e-17 
  8171.2988    1.9898e-17 
  8172.5005   1.96773e-17 
  8173.7026   2.10581e-17 
  8174.9043   2.07579e-17 
   8176.106   2.11984e-17 
  8177.3081   1.75428e-17 
  8178.5098    2.0587e-17 
  8179.7119   1.92359e-17 
  8180.9136   1.71541e-17 
  8182.1152   2.00298e-17 
  8183.3174   1.72316e-17 
   8184.519   2.04544e-17 
  8185.7212   1.88349e-17 
  8186.9229   1.98104e-17 
   8188.125   1.99081e-17 
  8189.3267   1.87623e-17 
  8190.5288   2.22094e-17 
  8191.7305   1.85514e-17 
  8192.9326   1.96501e-17 
  8194.1348    1.8211e-17 
  8195.3369   1.87154e-17 
  8196.5381   1.93449e-17 
  8197.7402   1.96036e-17 
  8198.9424   1.98548e-17 
  8200.1445   1.67892e-17 
  8201.3467   1.79438e-17 
  8202.5488   2.10962e-17 
    8203.75    1.8878e-17 
  8204.9521   2.04863e-17 
  8206.1543   2.02323e-17 
  8207.3564   1.86475e-17 
  8208.5586    2.1226e-17 
  8209.7607   2.21464e-17 
  8210.9629   2.08924e-17 
   8212.165   2.25792e-17 
  8213.3672   2.10488e-17 
  8214.5684   1.85125e-17 
  8215.7705   1.94074e-17 
  8216.9727    2.0082e-17 
  8218.1748   2.03236e-17 
   8219.377   1.70853e-17 
  8220.5791   2.10349e-17 
  8221.7812   1.94283e-17 
  8222.9834   1.64036e-17 
  8224.1855   1.76087e-17 
  8225.3877   1.75725e-17 
  8226.5898   1.63708e-17 
   8227.792   1.59615e-17 
  8228.9941     1.592e-17 
  8230.1963   1.38811e-17 
  8231.3984   1.63634e-17 
  8232.6006   1.74188e-17 
  8233.8027   1.90325e-17 
  8235.0049   1.89264e-17 
   8236.207   1.91861e-17 
  8237.4092   1.67544e-17 
  8238.6113   1.75672e-17 
  8239.8135   1.76635e-17 
  8241.0156   1.76864e-17 
  8242.2178   1.86475e-17 
  8243.4199   1.69409e-17 
  8244.6221   1.90269e-17 
  8245.8242   2.08313e-17 
  8247.0264    1.7095e-17 
  8248.2285   1.81339e-17 
  8249.4316   2.07247e-17 
  8250.6338    1.9727e-17 
  8251.8359   1.97505e-17 
  8253.0381   1.88001e-17 
  8254.2402   1.91319e-17 
  8255.4424   1.69299e-17 
  8256.6445   1.69999e-17 
  8257.8467   1.60065e-17 
  8259.0498    1.5717e-17 
   8260.252   1.76011e-17 
  8261.4541   1.80016e-17 
  8262.6562    1.7518e-17 
  8263.8584   1.51121e-17 
  8265.0605   1.67745e-17 
  8266.2637   1.63701e-17 
  8267.4658   1.86208e-17 
   8268.668   1.69283e-17 
  8269.8701   1.69857e-17 
  8271.0723   1.52222e-17 
  8272.2744    1.3866e-17 
  8273.4775   1.73441e-17 
  8274.6797   1.73424e-17 
  8275.8818   1.36724e-17 
   8277.084   1.79031e-17 
  8278.2871   1.93054e-17 
  8279.4893   2.08079e-17 
  8280.6914   1.84247e-17 
  8281.8936   1.71735e-17 
  8283.0967   1.47755e-17 
  8284.2988   2.25183e-17 
   8285.501   1.81751e-17 
  8286.7031   1.21418e-17 
  8287.9062   1.66367e-17 
  8289.1084   2.03186e-17 
  8290.3105   1.81205e-17 
  8291.5137    1.3116e-17 
  8292.7158   1.99306e-17 
   8293.918   1.66563e-17 
  8295.1201   1.82688e-17 
  8296.3232   1.74757e-17 
  8297.5254   1.84866e-17 
  8298.7275   2.09361e-17 
  8299.9307     1.817e-17 
  8301.1328   1.48059e-17 
   8302.335   1.74203e-17 
  8303.5381    1.4454e-17 
  8304.7402   1.81018e-17 
  8305.9424   1.40209e-17 
  8307.1455   1.52574e-17 
  8308.3477   1.40474e-17 
  8309.5508   1.57343e-17 
  8310.7529   1.97584e-17 
  8311.9551   1.61302e-17 
  8313.1582   1.55663e-17 
  8314.3604   1.70564e-17 
  8315.5625    1.5547e-17 
  8316.7656   1.54295e-17 
  8317.9678   1.66113e-17 
  8319.1709   1.70341e-17 
   8320.373   1.60957e-17 
  8321.5752    1.7536e-17 
  8322.7783   1.54488e-17 
  8323.9805   1.61198e-17 
  8325.1836   1.83584e-17 
  8326.3857   1.76901e-17 
  8327.5889   1.61458e-17 
   8328.791   1.69478e-17 
  8329.9932   1.64088e-17 
  8331.1963   1.67743e-17 
  8332.3984   1.70253e-17 
  8333.6016   1.70682e-17 
  8334.8037   1.75845e-17 
  8336.0068   1.66861e-17 
   8337.209    1.6517e-17 
  8338.4121   1.56372e-17 
  8339.6143   1.84793e-17 
  8340.8174   1.65876e-17 
  8342.0195   9.09164e-18 
  8343.2227   1.65241e-17 
  8344.4248   2.44522e-17 
  8345.6279   1.71717e-17 
  8346.8301   1.88027e-17 
  8348.0332   2.07769e-17 
  8349.2354   1.98428e-17 
  8350.4385   1.52437e-17 
  8351.6406   1.95236e-17 
  8352.8438   1.79555e-17 
  8354.0459   1.79322e-17 
   8355.249   1.83864e-17 
  8356.4512   1.34994e-17 
  8357.6543   1.66918e-17 
  8358.8574   1.96283e-17 
  8360.0596   1.61514e-17 
  8361.2627   1.37133e-17 
  8362.4648   1.66739e-17 
   8363.668   1.45964e-17 
  8364.8701   1.91136e-17 
  8366.0732   1.51083e-17 
  8367.2764   1.77701e-17 
  8368.4785   1.87251e-17 
  8369.6816    1.8684e-17 
  8370.8838   2.01526e-17 
  8372.0869   1.39279e-17 
  8373.2891   1.76598e-17 
  8374.4922   1.77101e-17 
  8375.6953    1.4826e-17 
  8376.8975   1.47899e-17 
  8378.1006    1.8136e-17 
  8379.3027   1.88196e-17 
  8380.5059   1.74646e-17 
   8381.709   1.71845e-17 
  8382.9111   1.51784e-17 
  8384.1143   1.94056e-17 
  8385.3174   1.86538e-17 
  8386.5195   1.86805e-17 
  8387.7227   1.57409e-17 
  8388.9258   1.62088e-17 
  8390.1279   1.80654e-17 
  8391.3311   1.67645e-17 
  8392.5332   1.87843e-17 
  8393.7363   2.06858e-17 
  8394.9395   1.81002e-17 
  8396.1416   1.63667e-17 
  8397.3447   1.43355e-17 
  8398.5479   2.22753e-17 
    8399.75   1.69081e-17 
  8400.9531   2.72343e-17 
  8402.1562   1.57178e-17 
  8403.3594   2.01815e-17 
  8404.5615   1.88683e-17 
  8405.7646   1.88252e-17 
  8406.9678   1.67719e-17 
  8408.1699   1.70393e-17 
   8409.373   1.81802e-17 
  8410.5762   1.87789e-17 
  8411.7783   2.02234e-17 
  8412.9814   1.70287e-17 
  8414.1846   1.63438e-17 
  8415.3867    1.7781e-17 
  8416.5898   1.96247e-17 
   8417.793   2.32622e-17 
  8418.9961   1.85594e-17 
  8420.1982   1.87946e-17 
  8421.4014   1.63989e-17 
  8422.6045   1.91063e-17 
  8423.8066   1.97066e-17 
  8425.0098   2.14214e-17 
  8426.2129   1.92837e-17 
   8427.416     2.088e-17 
  8428.6182   2.35336e-17 
  8429.8213   1.92964e-17 
  8431.0244    1.6093e-17 
  8432.2275   9.19162e-18 
  8433.4297    2.0959e-17 
  8434.6328   1.93589e-17 
  8435.8359   1.91442e-17 
  8437.0391   1.94588e-17 
  8438.2422   1.99211e-17 
  8439.4443   1.87238e-17 
  8440.6475   2.03708e-17 
  8441.8506     2.093e-17 
  8443.0537   2.02179e-17 
  8444.2559   2.15119e-17 
   8445.459   2.14742e-17 
  8446.6621   1.88129e-17 
  8447.8652   1.79854e-17 
  8449.0684   2.06044e-17 
  8450.2705   1.92187e-17 
  8451.4736   1.92332e-17 
  8452.6768   1.76018e-17 
  8453.8799    1.9181e-17 
   8455.082    2.1266e-17 
  8456.2852   2.23744e-17 
  8457.4883   2.07359e-17 
  8458.6914   1.82816e-17 
  8459.8945   2.09657e-17 
  8461.0967   1.91333e-17 
  8462.2998    2.1665e-17 
  8463.5029   2.43605e-17 
  8464.7061   2.22676e-17 
  8465.9092   2.27916e-17 
  8467.1123   2.60211e-17 
  8468.3145   1.76584e-17 
  8469.5176   2.41689e-17 
  8470.7207   1.99511e-17 
  8471.9238   1.93249e-17 
   8473.127   2.16579e-17 
  8474.3301   1.98986e-17 
  8475.5322   1.97408e-17 
  8476.7354    2.0368e-17 
  8477.9385   2.21012e-17 
  8479.1416   1.92656e-17 
  8480.3447   2.16043e-17 
  8481.5479   2.01242e-17 
    8482.75   2.05202e-17 
  8483.9531   2.01009e-17 
  8485.1562   2.10515e-17 
  8486.3594   2.12997e-17 
  8487.5625   2.39288e-17 
  8488.7656   2.08603e-17 
  8489.9678   2.14228e-17 
  8491.1709   2.33377e-17 
   8492.374   1.96621e-17 
  8493.5771   1.75912e-17 
  8494.7803   2.17863e-17 
  8495.9834   1.97195e-17 
  8497.1865   1.90578e-17 
  8498.3887   2.08154e-17 
  8499.5918   2.11611e-17 
  8500.7949   1.93545e-17 
   8501.998   2.18568e-17 
  8503.2012   2.06984e-17 
  8504.4043   1.99257e-17 
  8505.6074   2.06808e-17 
  8506.8096   1.84178e-17 
  8508.0127   1.90454e-17 
  8509.2158   2.32394e-17 
  8510.4189   2.00948e-17 
  8511.6221   2.08719e-17 
  8512.8252   2.01986e-17 
  8514.0283   2.05759e-17 
  8515.2314   2.21267e-17 
  8516.4346   2.27328e-17 
  8517.6367   2.17449e-17 
  8518.8398    2.3123e-17 
   8520.043   2.34228e-17 
  8521.2461    2.2282e-17 
  8522.4492   2.19415e-17 
  8523.6523   2.00589e-17 
  8524.8555   2.25238e-17 
  8526.0586   2.40593e-17 
  8527.2607   2.23573e-17 
  8528.4639   2.01019e-17 
   8529.667   2.20166e-17 
  8530.8701   2.04615e-17 
  8532.0732   2.27034e-17 
  8533.2764   2.23332e-17 
  8534.4795   2.14824e-17 
  8535.6826   2.22379e-17 
  8536.8857    2.4252e-17 
  8538.0889   2.36869e-17 
   8539.291   2.26075e-17 
  8540.4941   2.34265e-17 
  8541.6973   2.01199e-17 
  8542.9004    1.9835e-17 
  8544.1035   2.14039e-17 
  8545.3066   2.37681e-17 
  8546.5098   2.01664e-17 
  8547.7129   2.42729e-17 
   8548.916   2.11785e-17 
  8550.1182   2.06085e-17 
  8551.3213   2.20484e-17 
  8552.5244   2.35653e-17 
  8553.7275   2.36473e-17 
  8554.9307   2.17964e-17 
  8556.1338   2.21187e-17 
  8557.3369   2.60137e-17 
    8558.54   2.39364e-17 
  8559.7432   2.25282e-17 
  8560.9463   2.18474e-17 
  8562.1484   2.19655e-17 
  8563.3516   2.10508e-17 
  8564.5547   2.35757e-17 
  8565.7578   2.45607e-17 
  8566.9609   2.42446e-17 
  8568.1641   2.34657e-17 
  8569.3672   2.23433e-17 
  8570.5703   2.11903e-17 
  8571.7734   2.24727e-17 
  8572.9766   2.43761e-17 
  8574.1797   2.34499e-17 
  8575.3818   2.41452e-17 
   8576.585   2.14586e-17 
  8577.7881   2.27488e-17 
  8578.9912   2.04532e-17 
  8580.1943   2.17226e-17 
  8581.3975   2.44789e-17 
  8582.6006    2.1062e-17 
  8583.8037   2.23017e-17 
  8585.0068   2.23463e-17 
    8586.21   2.35975e-17 
  8587.4121   2.24362e-17 
  8588.6152   2.29253e-17 
  8589.8184   2.62689e-17 
  8591.0215   2.44676e-17 
  8592.2246   2.14012e-17 
  8593.4277   2.27518e-17 
  8594.6309   2.30696e-17 
   8595.834   2.56422e-17 
  8597.0371   1.85655e-17 
  8598.2402   2.38889e-17 
  8599.4424   2.29379e-17 
  8600.6455   2.16719e-17 
  8601.8486   2.49678e-17 
  8603.0518    2.1978e-17 
  8604.2549    2.3362e-17 
   8605.458   2.29816e-17 
  8606.6611   2.10595e-17 
  8607.8643   2.26031e-17 
  8609.0674   2.22098e-17 
  8610.2695   2.28685e-17 
  8611.4727   2.11072e-17 
  8612.6758   2.24623e-17 
  8613.8789    2.4604e-17 
   8615.082   2.36783e-17 
  8616.2852   1.88901e-17 
  8617.4883    2.4136e-17 
  8618.6914   2.48531e-17 
  8619.8945   2.25083e-17 
  8621.0977   2.17748e-17 
  8622.2998   2.23948e-17 
  8623.5029   1.89616e-17 
  8624.7061   2.18391e-17 
  8625.9092   2.28911e-17 
  8627.1123   2.18464e-17 
  8628.3154   2.74931e-17 
  8629.5186   2.34514e-17 
  8630.7217    1.9751e-17 
  8631.9238   2.24362e-17 
   8633.127    2.1709e-17 
  8634.3301   2.15319e-17 
  8635.5332   2.10524e-17 
  8636.7363   2.14863e-17 
  8637.9395   2.55001e-17 
  8639.1426   2.47364e-17 
  8640.3447   2.05696e-17 
  8641.5479   2.41899e-17 
   8642.751   1.80383e-17 
  8643.9541   1.97923e-17 
  8645.1572    2.1498e-17 
  8646.3604   1.90191e-17 
  8647.5635   2.21002e-17 
  8648.7656   2.06523e-17 
  8649.9688   2.16904e-17 
  8651.1719   2.33602e-17 
   8652.375   2.52806e-17 
  8653.5781   1.83512e-17 
  8654.7812   2.00671e-17 
  8655.9844   2.06327e-17 
  8657.1865   2.44485e-17 
  8658.3896   2.20733e-17 
  8659.5928   2.37619e-17 
  8660.7959   2.33822e-17 
   8661.999   2.44652e-17 
  8663.2021   2.34106e-17 
  8664.4053   2.30324e-17 
  8665.6074    2.4879e-17 
  8666.8105   2.28855e-17 
  8668.0137   2.12652e-17 
  8669.2168   2.51901e-17 
  8670.4199   2.24021e-17 
   8671.623   2.09954e-17 
  8672.8252   1.94232e-17 
  8674.0283   2.20737e-17 
  8675.2314   2.36286e-17 
  8676.4346    2.2356e-17 
  8677.6377   2.50341e-17 
  8678.8398   2.17979e-17 
   8680.043   2.19725e-17 
  8681.2461   1.99668e-17 
  8682.4492   2.21717e-17 
  8683.6523   2.07087e-17 
  8684.8555   2.20727e-17 
  8686.0576   2.03239e-17 
  8687.2607   2.00111e-17 
  8688.4639   2.25726e-17 
   8689.667   2.25691e-17 
  8690.8691   2.09226e-17 
  8692.0723   2.32458e-17 
  8693.2754   2.25062e-17 
  8694.4785   2.15698e-17 
  8695.6816   1.80244e-17 
  8696.8838   2.28468e-17 
  8698.0869   2.27102e-17 
    8699.29   2.14674e-17 
  8700.4932   2.19117e-17 
  8701.6953   1.95217e-17 
  8702.8984   2.04672e-17 
  8704.1016   2.22777e-17 
  8705.3047   2.34535e-17 
  8706.5078   2.10989e-17 
    8707.71   2.33769e-17 
  8708.9131   1.74506e-17 
  8710.1162   2.26755e-17 
  8711.3193   2.03714e-17 
  8712.5215   2.16864e-17 
  8713.7246   2.10429e-17 
  8714.9277    1.9451e-17 
  8716.1309   2.05016e-17 
   8717.333   2.02762e-17 
  8718.5361   2.44289e-17 
  8719.7393   2.16564e-17 
  8720.9424   2.32407e-17 
  8722.1445   2.09864e-17 
  8723.3477   2.08657e-17 
  8724.5508   2.08925e-17 
  8725.7529   2.24108e-17 
  8726.9561   2.11486e-17 
  8728.1592   2.16383e-17 
  8729.3613   2.21844e-17 
  8730.5645   2.27586e-17 
  8731.7676   1.97863e-17 
  8732.9707   2.20572e-17 
  8734.1729   2.22608e-17 
   8735.376   1.89106e-17 
  8736.5791   2.09839e-17 
  8737.7812   2.37408e-17 
  8738.9844   2.25496e-17 
  8740.1875   2.07699e-17 
  8741.3896   1.91716e-17 
  8742.5928     2.153e-17 
  8743.7959   1.97012e-17 
   8744.998   2.02376e-17 
  8746.2012   1.92418e-17 
  8747.4043   2.06902e-17 
  8748.6064   2.18358e-17 
  8749.8096   2.03541e-17 
  8751.0127   1.98148e-17 
  8752.2148   2.00953e-17 
   8753.418   2.21634e-17 
  8754.6211   2.08506e-17 
  8755.8232   2.17783e-17 
  8757.0264   1.94162e-17 
  8758.2295   1.64567e-17 
  8759.4316   1.78425e-17 
  8760.6348   1.99539e-17 
  8761.8369   1.88179e-17 
    8763.04   1.89916e-17 
  8764.2432   1.83521e-17 
  8765.4453   2.07493e-17 
  8766.6484   1.89109e-17 
  8767.8516   1.93152e-17 
  8769.0537   2.42168e-17 
  8770.2568   2.48324e-17 
   8771.459   2.50092e-17 
  8772.6621    2.2506e-17 
  8773.8643   1.85739e-17 
  8775.0674     2.051e-17 
  8776.2705   2.07271e-17 
  8777.4727   2.34925e-17 
  8778.6758   2.62603e-17 
  8779.8779   2.18861e-17 
  8781.0811   1.82601e-17 
  8782.2842   2.10874e-17 
  8783.4863   2.25493e-17 
  8784.6895   2.10629e-17 
  8785.8916   2.19349e-17 
  8787.0947   1.80449e-17 
  8788.2969   1.82735e-17 
     8789.5   2.16071e-17 
  8790.7021   2.30482e-17 
  8791.9053   2.33714e-17 
  8793.1074   2.19062e-17 
  8794.3105   2.22394e-17 
  8795.5127   2.12228e-17 
  8796.7158   2.38794e-17 
   8797.918   2.29379e-17 
  8799.1211   2.03585e-17 
  8800.3232   2.22861e-17 
  8801.5264   2.36512e-17 
  8802.7285   1.97331e-17 
  8803.9316   1.99394e-17 
  8805.1338   2.09107e-17 
  8806.3369   2.03235e-17 
  8807.5391   2.00241e-17 
  8808.7422    2.1765e-17 
  8809.9443   2.31865e-17 
  8811.1475   2.15795e-17 
  8812.3496   2.41244e-17 
  8813.5518   2.45562e-17 
  8814.7549   2.08001e-17 
   8815.957   2.18757e-17 
  8817.1602   2.21971e-17 
  8818.3623    2.2274e-17 
  8819.5654   2.49406e-17 
  8820.7676   1.98475e-17 
  8821.9697   2.13341e-17 
  8823.1729   2.16481e-17 
   8824.375   1.79726e-17 
  8825.5781    2.2616e-17 
  8826.7803   1.68238e-17 
  8827.9824   2.11661e-17 
  8829.1855   2.09043e-17 
  8830.3877   2.25546e-17 
  8831.5908   1.77176e-17 
   8832.793     2.466e-17 
  8833.9951    2.4359e-17 
  8835.1982   1.73261e-17 
  8836.4004   2.12145e-17 
  8837.6025   2.37268e-17 
  8838.8057    1.5071e-17 
  8840.0078   1.96005e-17 
    8841.21   2.07033e-17 
  8842.4131   1.96069e-17 
  8843.6152   2.17177e-17 
  8844.8174   1.96326e-17 
  8846.0205   2.05236e-17 
  8847.2227   1.90628e-17 
  8848.4248   2.14315e-17 
  8849.6279   2.43357e-17 
  8850.8301   2.14122e-17 
  8852.0322   2.04751e-17 
  8853.2354   2.08112e-17 
  8854.4375   2.31737e-17 
  8855.6396   2.32331e-17 
  8856.8418   2.04042e-17 
  8858.0449   2.03737e-17 
  8859.2471   2.14162e-17 
  8860.4492   2.38985e-17 
  8861.6514   2.08486e-17 
  8862.8545   2.08532e-17 
  8864.0566   2.25469e-17 
  8865.2588   2.05015e-17 
  8866.4609    2.0269e-17 
  8867.6641   1.79065e-17 
  8868.8662    2.2476e-17 
  8870.0684   2.76809e-17 
  8871.2705   2.03811e-17 
  8872.4727   2.12193e-17 
  8873.6758   1.99448e-17 
  8874.8779   1.98124e-17 
  8876.0801    2.2856e-17 
  8877.2822    2.1492e-17 
  8878.4844   1.87995e-17 
  8879.6865   2.02549e-17 
  8880.8896    2.1238e-17 
  8882.0918   1.95165e-17 
  8883.2939   2.37074e-17 
  8884.4961   2.01093e-17 
  8885.6982     1.997e-17 
  8886.9004   2.27286e-17 
  8888.1025   1.88798e-17 
  8889.3047    1.8454e-17 
  8890.5078   2.04363e-17 
    8891.71   2.01081e-17 
  8892.9121   2.40559e-17 
  8894.1143   2.60456e-17 
  8895.3164   2.85942e-17 
  8896.5186    3.4558e-17 
  8897.7207   4.54063e-17 
  8898.9229   5.38947e-17 
   8900.125   5.61409e-17 
  8901.3271   5.71692e-17 
  8902.5293   4.35978e-17 
  8903.7314   2.89536e-17 
  8904.9336   2.72024e-17 
  8906.1357   2.02162e-17 
  8907.3379   1.89263e-17 
    8908.54    2.2392e-17 
  8909.7422   2.16405e-17 
  8910.9443   1.96072e-17 
  8912.1465   2.11871e-17 
  8913.3486   2.08283e-17 
  8914.5508    1.9622e-17 
  8915.7529   1.69998e-17 
  8916.9551   2.12408e-17 
  8918.1572   2.02987e-17 
  8919.3594   2.45343e-17 
  8920.5615   2.01359e-17 
  8921.7637    2.4384e-17 
  8922.9658   1.57543e-17 
   8924.168   1.76307e-17 
  8925.3701   2.22067e-17 
  8926.5723   2.41657e-17 
  8927.7744   1.93983e-17 
  8928.9766   2.23401e-17 
  8930.1787   2.04595e-17 
  8931.3809   2.20061e-17 
   8932.582   2.29098e-17 
  8933.7842   2.11653e-17 
  8934.9863   1.99938e-17 
  8936.1885   2.08903e-17 
  8937.3906   1.80022e-17 
  8938.5928   1.96991e-17 
  8939.7949   1.70099e-17 
  8940.9961   2.71585e-17 
  8942.1982    1.6838e-17 
  8943.4004   2.73945e-17 
  8944.6025   2.04121e-17 
  8945.8047   1.58389e-17 
  8947.0059   2.49328e-17 
   8948.208   2.18557e-17 
  8949.4102   2.05097e-17 
  8950.6123    2.1438e-17 
  8951.8145   2.04545e-17 
  8953.0156    1.8971e-17 
  8954.2178   2.07109e-17 
  8955.4199   2.10337e-17 
  8956.6221   1.96825e-17 
  8957.8232   2.14951e-17 
  8959.0254   2.01469e-17 
  8960.2275   3.05318e-17 
  8961.4297   1.96235e-17 
  8962.6309   1.99818e-17 
   8963.833   1.98222e-17 
  8965.0352   2.21144e-17 
  8966.2363   2.20221e-17 
  8967.4385   1.97572e-17 
  8968.6406   2.07958e-17 
  8969.8418   1.78383e-17 
  8971.0439    2.2102e-17 
  8972.2461   1.98459e-17 
  8973.4473   2.20731e-17 
  8974.6494   2.20927e-17 
  8975.8516   1.90481e-17 
  8977.0527   2.14861e-17 
  8978.2549   1.88243e-17 
  8979.4561   2.06721e-17 
  8980.6582   1.78812e-17 
  8981.8604   2.26821e-17 
  8983.0615    2.1135e-17 
  8984.2637   1.95884e-17 
  8985.4648   2.08301e-17 
   8986.667   1.89702e-17 
  8987.8682   2.21856e-17 
  8989.0703   2.06604e-17 
  8990.2725    1.9873e-17 
  8991.4736   2.13203e-17 
  8992.6758    1.6532e-17 
   8993.877   1.91594e-17 
  8995.0791   1.98025e-17 
  8996.2803   2.09556e-17 
  8997.4824   2.00136e-17 
  8998.6836   2.05872e-17 
  8999.8857   2.01012e-17 
  9001.0869   1.90937e-17 
  9002.2881   2.12124e-17 
  9003.4902   1.74445e-17 
  9004.6914   1.85117e-17 
  9005.8936     1.895e-17 
  9007.0947   2.17949e-17 
  9008.2969   1.89484e-17 
   9009.498   2.02766e-17 
  9010.6992   1.95149e-17 
  9011.9014   1.93475e-17 
  9013.1025   1.93965e-17 
  9014.3047   1.96233e-17 
  9015.5059   2.24797e-17 
   9016.707   2.29639e-17 
  9017.9092   1.88219e-17 
  9019.1104     1.906e-17 
  9020.3115   1.89939e-17 
  9021.5137   2.03936e-17 
  9022.7148   2.16455e-17 
   9023.916   2.11974e-17 
  9025.1182    1.9943e-17 
  9026.3193   2.39627e-17 
  9027.5205   1.82597e-17 
  9028.7217   1.92763e-17 
  9029.9238    1.8391e-17 
   9031.125   2.27183e-17 
  9032.3262   1.90264e-17 
  9033.5273   1.66664e-17 
  9034.7295   1.99439e-17 
  9035.9307   2.08918e-17 
  9037.1318   1.50518e-17 
   9038.333   1.98891e-17 
  9039.5342   2.27516e-17 
  9040.7363   1.79349e-17 
  9041.9375   1.89045e-17 
  9043.1387    2.1301e-17 
  9044.3398   1.81641e-17 
   9045.541    1.9297e-17 
  9046.7422   2.07158e-17 
  9047.9443   1.60372e-17 
  9049.1455   2.17654e-17 
  9050.3467   1.65925e-17 
  9051.5479   1.90528e-17 
   9052.749    2.2543e-17 
  9053.9502   2.07562e-17 
  9055.1514   1.73147e-17 
  9056.3525    2.0427e-17 
  9057.5537   1.84982e-17 
  9058.7549   1.91628e-17 
  9059.9561     2.027e-17 
  9061.1572   1.88713e-17 
  9062.3594   1.80942e-17 
  9063.5605   1.82902e-17 
  9064.7617   1.96905e-17 
  9065.9619    1.9326e-17 
  9067.1641   2.03793e-17 
  9068.3643   2.00511e-17 
  9069.5654   1.82554e-17 
  9070.7666   1.83964e-17 
  9071.9678    1.8745e-17 
  9073.1689   2.12507e-17 
  9074.3701   1.81806e-17 
  9075.5713   1.89916e-17 
  9076.7725   1.70715e-17 
  9077.9736   1.92523e-17 
  9079.1748    2.0512e-17 
   9080.376   1.77008e-17 
  9081.5771   2.01532e-17 
  9082.7783   2.14515e-17 
  9083.9785   1.96141e-17 
  9085.1797   1.78879e-17 
  9086.3809   2.10149e-17 
   9087.582   1.66541e-17 
  9088.7832   1.66084e-17 
  9089.9844   2.06613e-17 
  9091.1846   1.95862e-17 
  9092.3857   2.12465e-17 
  9093.5869   1.90337e-17 
  9094.7881   2.25447e-17 
  9095.9883   1.80329e-17 
  9097.1895   1.85179e-17 
  9098.3906   1.89333e-17 
  9099.5918   1.82281e-17 
   9100.792   1.84917e-17 
  9101.9932    1.9019e-17 
  9103.1943    1.9103e-17 
  9104.3945   1.83031e-17 
  9105.5957   1.71327e-17 
  9106.7969   1.72499e-17 
   9107.998   1.76783e-17 
  9109.1982   2.13442e-17 
  9110.3994   1.93481e-17 
  9111.6006   2.00513e-17 
  9112.8008   1.91495e-17 
   9114.002   1.95589e-17 
  9115.2021   2.00091e-17 
  9116.4033   1.89808e-17 
  9117.6035    2.0941e-17 
  9118.8047    1.7853e-17 
  9120.0059   1.80096e-17 
  9121.2061   1.75063e-17 
  9122.4072   1.86963e-17 
  9123.6074   1.82915e-17 
  9124.8086   1.80588e-17 
  9126.0088   2.00958e-17 
    9127.21   2.03296e-17 
  9128.4102   1.94636e-17 
  9129.6113   1.99436e-17 
  9130.8115   1.97038e-17 
  9132.0127   1.66684e-17 
  9133.2129   2.09152e-17 
  9134.4141   1.82238e-17 
  9135.6143   1.86232e-17 
  9136.8145   1.75923e-17 
  9138.0156   1.89453e-17 
  9139.2158   1.56123e-17 
   9140.417   1.69577e-17 
  9141.6172   1.82091e-17 
  9142.8174   1.75965e-17 
  9144.0186    1.8055e-17 
  9145.2188    1.6673e-17 
  9146.4189   1.66392e-17 
  9147.6201   1.56137e-17 
  9148.8203   1.72906e-17 
  9150.0205   1.67061e-17 
  9151.2217   1.59268e-17 
  9152.4219   1.74112e-17 
  9153.6221   1.86161e-17 
  9154.8232   1.98806e-17 
  9156.0234   1.63278e-17 
  9157.2236   1.96797e-17 
  9158.4238   1.83537e-17 
   9159.624   1.99219e-17 
  9160.8252   1.63133e-17 
  9162.0254   1.82763e-17 
  9163.2256   1.68811e-17 
  9164.4258   1.73618e-17 
   9165.626   1.73474e-17 
  9166.8271   1.71269e-17 
  9168.0273   1.65943e-17 
  9169.2275   1.61263e-17 
  9170.4277   1.70095e-17 
  9171.6279   1.83964e-17 
  9172.8281   1.84333e-17 
  9174.0283   2.01966e-17 
  9175.2285   1.83264e-17 
  9176.4287   1.91637e-17 
  9177.6289   1.74466e-17 
  9178.8301    1.7002e-17 
  9180.0303   1.79597e-17 
  9181.2305   1.86746e-17 
  9182.4307    1.8517e-17 
  9183.6309   1.86388e-17 
  9184.8311   1.84945e-17 
  9186.0312   1.70181e-17 
  9187.2305   1.95821e-17 
  9188.4307    1.7195e-17 
  9189.6309   1.98514e-17 
  9190.8311   1.59405e-17 
  9192.0312   1.92705e-17 
  9193.2314   1.56805e-17 
  9194.4316   1.87679e-17 
  9195.6318   1.74705e-17 
   9196.832    1.6373e-17 
  9198.0322   1.74105e-17 
  9199.2314   1.64578e-17 
  9200.4316   1.93351e-17 
  9201.6318   2.04184e-17 
   9202.832   1.57893e-17 
  9204.0322   1.64107e-17 
  9205.2324   1.56881e-17 
  9206.4316   1.94978e-17 
  9207.6318   1.75731e-17 
   9208.832   1.67639e-17 
  9210.0322   1.77962e-17 
  9211.2314   1.62898e-17 
  9212.4316   1.95118e-17 
  9213.6318   1.94067e-17 
  9214.8311   1.99808e-17 
  9216.0312   1.67001e-17 
  9217.2314   1.52504e-17 
  9218.4316   1.61616e-17 
  9219.6309   1.61162e-17 
  9220.8311   1.68606e-17 
  9222.0303   1.67281e-17 
  9223.2305   1.66377e-17 
  9224.4307   1.91316e-17 
  9225.6299   1.97072e-17 
  9226.8301   1.91923e-17 
  9228.0293   1.69347e-17 
  9229.2295   1.73941e-17 
  9230.4297   1.54542e-17 
  9231.6289   1.62107e-17 
  9232.8291   1.72426e-17 
  9234.0283   1.69947e-17 
  9235.2285   1.70228e-17 
  9236.4277   1.52893e-17 
  9237.6279   1.71762e-17 
  9238.8271   1.71355e-17 
  9240.0264   1.55997e-17 
  9241.2266   1.71141e-17 
  9242.4258   1.63372e-17 
   9243.626    1.5872e-17 
  9244.8252    1.7076e-17 
  9246.0244   1.47411e-17 
  9247.2246   1.66423e-17 
  9248.4238   1.46572e-17 
   9249.624   1.73879e-17 
  9250.8232   1.58426e-17 
  9252.0225   1.32507e-17 
  9253.2227   1.55421e-17 
  9254.4219   1.51008e-17 
  9255.6211   1.67115e-17 
  9256.8203   1.62979e-17 
  9258.0205   1.54277e-17 
  9259.2197    1.7423e-17 
  9260.4189   1.68509e-17 
  9261.6182   1.63658e-17 
  9262.8184   1.65594e-17 
  9264.0176   1.93604e-17 
  9265.2168   1.73304e-17 
   9266.416   1.93832e-17 
  9267.6152   1.72522e-17 
  9268.8154   1.78302e-17 
  9270.0146   1.75037e-17 
  9271.2139   1.82826e-17 
  9272.4131   1.61168e-17 
  9273.6123    1.6368e-17 
  9274.8115   1.58009e-17 
  9276.0107   1.72384e-17 
    9277.21   1.67563e-17 
  9278.4092   1.61589e-17 
  9279.6084   1.75184e-17 
  9280.8076   1.50036e-17 
  9282.0068   1.75521e-17 
  9283.2061    1.9499e-17 
  9284.4053   1.88905e-17 
  9285.6045   1.67555e-17 
  9286.8037    1.8239e-17 
  9288.0029   1.75733e-17 
  9289.2021   1.57512e-17 
  9290.4014    1.8217e-17 
  9291.6006   1.77546e-17 
  9292.7998   1.78555e-17 
   9293.999   1.76349e-17 
  9295.1982    1.8008e-17 
  9296.3975   1.48463e-17 
  9297.5957   1.96381e-17 
  9298.7949   1.76542e-17 
  9299.9941    1.9429e-17 
  9301.1934   1.83998e-17 
  9302.3926   1.83973e-17 
  9303.5908   1.70212e-17 
    9304.79   2.03697e-17 
  9305.9893   1.79613e-17 
  9307.1885   1.35307e-17 
  9308.3867   1.30058e-17 
  9309.5859   6.50099e-18 
  9310.7852   1.64136e-17 
  9311.9844   1.18457e-17 
  9313.1826   1.37031e-17 
  9314.3818   3.17363e-17 
  9315.5811   2.34623e-17 
  9316.7793   1.93966e-17 
  9317.9785   1.88028e-17 
  9319.1768   2.22304e-17 
   9320.376   9.33048e-18 
  9321.5752    1.4283e-17 
  9322.7734    1.2697e-17 
  9323.9727   2.27023e-17 
  9325.1709   1.80756e-17 
  9326.3701   1.73608e-17 
  9327.5684   2.10507e-17 
  9328.7676   1.66383e-17 
  9329.9658    1.5625e-17 
   9331.165   1.63199e-17 
  9332.3633   1.95893e-17 
  9333.5625   1.39878e-17 
  9334.7607   2.26191e-17 
    9335.96   1.96235e-17 
  9337.1582   1.70103e-17 
  9338.3564   1.97905e-17 
  9339.5557   1.92938e-17 
  9340.7539   1.62526e-17 
  9341.9521   1.66364e-17 
  9343.1514   2.33161e-17 
  9344.3496   1.88689e-17 
  9345.5479   1.88414e-17 
  9346.7471   2.35372e-17 
  9347.9453   1.12217e-17 
  9349.1436   1.71523e-17 
  9350.3418   1.77242e-17 
   9351.541   2.33604e-17 
  9352.7393   2.12038e-17 
  9353.9375    2.1802e-17 
  9355.1357   1.96213e-17 
   9356.335   1.43329e-17 
  9357.5332   2.02203e-17 
  9358.7314   1.69845e-17 
  9359.9297   1.87112e-17 
  9361.1279   1.50539e-17 
  9362.3262   1.83541e-17 
  9363.5244    2.1192e-17 
  9364.7227   2.17047e-17 
  9365.9219   2.00486e-17 
  9367.1201   1.74399e-17 
  9368.3184   1.64569e-17 
  9369.5166   2.26365e-17 
  9370.7148   1.72103e-17 
  9371.9131   1.31329e-17 
  9373.1113   1.54891e-17 
  9374.3096   2.16529e-17 
  9375.5078    1.4791e-17 
  9376.7061   1.32894e-17 
  9377.9033   1.28393e-17 
  9379.1016   2.36709e-17 
  9380.2998  -2.56493e-18 
   9381.498   2.32444e-17 
  9382.6963   2.17378e-17 
  9383.8945   1.43276e-17 
  9385.0928   1.31572e-17 
   9386.291   1.80649e-17 
  9387.4883   1.70633e-17 
  9388.6865    1.4726e-17 
  9389.8848   1.51418e-17 
   9391.083   1.52562e-17 
  9392.2812   1.78843e-17 
  9393.4785    1.5353e-17 
  9394.6768   1.39272e-17 
   9395.875   1.38612e-17 
  9397.0723    1.9904e-17 
  9398.2705   1.77596e-17 
  9399.4688   1.72605e-17 
   9400.666   1.72525e-17 
  9401.8643    2.0948e-17 
  9403.0625   1.61829e-17 
  9404.2598   1.05367e-17 
   9405.458   1.60028e-17 
  9406.6562   1.58547e-17 
  9407.8535   1.76827e-17 
  9409.0518   1.81282e-17 
   9410.249   1.61163e-17 
  9411.4473   1.50039e-17 
  9412.6445   1.63548e-17 
  9413.8428   1.51536e-17 
    9415.04    1.3329e-17 
  9416.2383   1.68272e-17 
  9417.4355   1.53828e-17 
  9418.6338   2.17368e-17 
  9419.8311   1.39435e-17 
  9421.0283   2.10198e-17 
  9422.2266   1.82167e-17 
  9423.4238   1.24154e-17 
  9424.6221   1.85822e-17 
  9425.8193   1.44422e-17 
  9427.0166   2.10193e-17 
  9428.2148   2.08561e-17 
  9429.4121   1.50571e-17 
  9430.6094   1.65406e-17 
  9431.8066   1.87038e-17 
  9433.0049   1.58657e-17 
  9434.2021   1.85173e-17 
  9435.3994   1.84591e-17 
  9436.5967   1.90423e-17 
  9437.7949   2.75303e-17 
  9438.9922   1.58121e-17 
  9440.1895   1.35765e-17 
  9441.3867   3.80412e-17 
   9442.584    2.1519e-17 
  9443.7812   7.93406e-18 
  9444.9785   2.16977e-17 
  9446.1768   1.34389e-17 
   9447.374   1.59486e-17 
  9448.5713   1.26601e-17 
  9449.7686   1.78141e-17 
  9450.9658   1.24871e-17 
  9452.1631   1.59109e-17 
  9453.3604   1.67666e-17 
  9454.5576   1.70812e-17 
  9455.7549   1.52641e-17 
  9456.9521   2.50175e-17 
  9458.1494   1.34766e-17 
  9459.3467   1.12669e-17 
  9460.5439   2.01798e-17 
  9461.7402   1.82616e-17 
  9462.9375   1.41737e-17 
  9464.1348   1.76885e-17 
   9465.332   1.93477e-17 
  9466.5293    1.2733e-17 
  9467.7266   1.50899e-17 
  9468.9229   1.90642e-17 
  9470.1201   1.54316e-17 
  9471.3174    1.5734e-17 
  9472.5146   1.30238e-17 
  9473.7119   1.28075e-17 
  9474.9082   2.35954e-17 
  9476.1055    1.7588e-17 
  9477.3027   1.61927e-17 
   9478.499    1.2815e-17 
  9479.6963   1.95326e-17 
  9480.8936   1.37352e-17 
  9482.0898   1.99417e-17 
  9483.2871    1.9753e-17 
  9484.4844   1.53533e-17 
  9485.6807   1.75011e-17 
  9486.8779   1.70555e-17 
  9488.0742   1.37836e-17 
  9489.2715   1.30598e-17 
  9490.4678   1.44209e-17 
   9491.665   1.72827e-17 
  9492.8613   1.61014e-17 
  9494.0586   2.07198e-17 
  9495.2549   1.52201e-17 
  9496.4521    1.6227e-17 
  9497.6484   1.75838e-17 
  9498.8457   1.61661e-17 
   9500.042   1.50059e-17 
  9501.2383   3.01071e-17 
  9502.4355   1.68687e-17 
  9503.6318   1.91335e-17 
  9504.8281   2.21159e-17 
  9506.0254   2.29774e-17 
  9507.2217   1.54525e-17 
   9508.418   1.76025e-17 
  9509.6152   1.58834e-17 
  9510.8115   1.45195e-17 
  9512.0078   1.56908e-17 
  9513.2041   1.70632e-17 
  9514.4014   1.54684e-17 
  9515.5977    1.8506e-17 
  9516.7939   2.09751e-17 
  9517.9902   1.79053e-17 
  9519.1865   2.06489e-17 
  9520.3828   2.35602e-17 
  9521.5801   1.55693e-17 
  9522.7764   1.55591e-17 
  9523.9727   1.40596e-17 
  9525.1689   1.59576e-17 
  9526.3652   1.87867e-17 
  9527.5615   1.78267e-17 
  9528.7578   1.75037e-17 
  9529.9541   1.31504e-17 
  9531.1504   1.62599e-17 
  9532.3467   1.42247e-17 
   9533.543   1.72605e-17 
  9534.7393   1.79171e-17 
  9535.9355   1.23374e-17 
  9537.1318   1.97414e-17 
  9538.3271   1.70095e-17 
  9539.5234   1.62659e-17 
  9540.7197   1.97836e-17 
   9541.916   1.60787e-17 
  9543.1123    1.8414e-17 
  9544.3086   2.09173e-17 
  9545.5039   1.37625e-17 
  9546.7002   1.42572e-17 
  9547.8965   1.75737e-17 
  9549.0928   1.78654e-17 
  9550.2881   1.68241e-17 
  9551.4844   1.61917e-17 
  9552.6807   1.47243e-17 
   9553.877   1.13554e-17 
  9555.0723   2.35386e-17 
  9556.2686   1.63212e-17 
  9557.4639   1.53762e-17 
  9558.6602   1.88017e-17 
  9559.8564    1.9217e-17 
  9561.0518   1.55115e-17 
   9562.248   1.49699e-17 
  9563.4434   1.92166e-17 
  9564.6396   2.76846e-17 
   9565.835   2.80117e-17 
  9567.0312   1.96783e-17 
  9568.2266   1.09359e-17 
  9569.4229   1.44768e-17 
  9570.6182    1.0347e-17 
  9571.8145   1.56179e-17 
  9573.0098   1.45289e-17 
  9574.2061   1.88096e-17 
  9575.4014   1.74057e-17 
  9576.5967   1.75069e-17 
   9577.793   1.39878e-17 
  9578.9883   1.47828e-17 
  9580.1836   1.63858e-17 
  9581.3799   1.58438e-17 
  9582.5752   1.68105e-17 
  9583.7705   1.27078e-17 
  9584.9658   1.65336e-17 
  9586.1621   1.37236e-17 
  9587.3574   1.38264e-17 
  9588.5527    1.8808e-17 
   9589.748   1.43224e-17 
  9590.9434   1.39615e-17 
  9592.1396   1.52182e-17 
   9593.335   1.37023e-17 
  9594.5303   1.63337e-17 
  9595.7256    1.4343e-17 
  9596.9209   1.41484e-17 
  9598.1162    1.6691e-17 
  9599.3115     1.758e-17 
  9600.5068   1.37361e-17 
  9601.7021    1.3894e-17 
  9602.8975   1.41413e-17 
  9604.0928   1.57537e-17 
  9605.2881   1.53638e-17 
  9606.4834    1.3186e-17 
  9607.6787   2.04157e-17 
   9608.874   1.25654e-17 
  9610.0693   1.70494e-17 
  9611.2646   1.75538e-17 
    9612.46   1.28476e-17 
  9613.6543   1.37097e-17 
  9614.8496   1.71096e-17 
  9616.0449   1.40098e-17 
  9617.2402   1.51931e-17 
  9618.4355   1.93393e-17 
  9619.6299   1.64587e-17 
  9620.8252   2.04208e-17 
  9622.0205   1.07786e-17 
  9623.2148   1.94615e-17 
  9624.4102   1.22522e-17 
  9625.6055   1.51942e-17 
  9626.8008   1.65307e-17 
  9627.9951   1.58666e-17 
  9629.1904   1.44645e-17 
  9630.3848   1.54876e-17 
  9631.5801    1.7641e-17 
  9632.7754   1.74229e-17 
  9633.9697   1.74486e-17 
   9635.165   1.49155e-17 
  9636.3594   1.65599e-17 
  9637.5547   1.43372e-17 
   9638.749   1.36148e-17 
  9639.9443   1.42235e-17 
  9641.1387   1.31548e-17 
   9642.334    1.8106e-17 
  9643.5283   1.56586e-17 
  9644.7227   1.53156e-17 
   9645.918   1.55149e-17 
  9647.1123   1.63355e-17 
  9648.3066   1.23313e-17 
   9649.502   1.70925e-17 
  9650.6963   1.48161e-17 
  9651.8906   1.67499e-17 
  9653.0859   1.58443e-17 
  9654.2803   1.15733e-17 
  9655.4746   1.50985e-17 
  9656.6689   1.16116e-17 
  9657.8643    1.6887e-17 
  9659.0586   1.21921e-17 
  9660.2529   1.61042e-17 
  9661.4473   1.37211e-17 
  9662.6416   1.77425e-17 
  9663.8369   1.42876e-17 
  9665.0312   1.34279e-17 
  9666.2256    1.1368e-17 
  9667.4199   1.89699e-17 
  9668.6143   1.59886e-17 
  9669.8086   1.45966e-17 
  9671.0029     1.555e-17 
  9672.1973   1.34581e-17 
  9673.3916   1.74949e-17 
  9674.5859   1.83457e-17 
  9675.7803   1.91263e-17 
  9676.9746   2.09075e-17 
  9678.1689   1.66435e-17 
  9679.3633   1.77307e-17 
  9680.5576   1.66851e-17 
   9681.751   1.50006e-17 
  9682.9453   1.61662e-17 
  9684.1396   1.52084e-17 
   9685.334   1.46748e-17 
  9686.5283     1.483e-17 
  9687.7227    1.6333e-17 
   9688.916   1.62415e-17 
  9690.1104   1.50393e-17 
  9691.3047   1.34005e-17 
   9692.498   1.62796e-17 
  9693.6924   1.55337e-17 
  9694.8867   1.40988e-17 
  9696.0801   1.45448e-17 
  9697.2744   1.48626e-17 
  9698.4688   1.34922e-17 
  9699.6621   1.35412e-17 
  9700.8564   1.86785e-17 
  9702.0508   1.48134e-17 
  9703.2441   1.31211e-17 
  9704.4385   1.65034e-17 
  9705.6318   1.58902e-17 
  9706.8262   1.66223e-17 
  9708.0195   1.66969e-17 
  9709.2139   1.65655e-17 
  9710.4072   1.78859e-17 
  9711.6016   1.55036e-17 
  9712.7949   1.33762e-17 
  9713.9883   1.18199e-17 
  9715.1826   1.29205e-17 
   9716.376   1.57464e-17 
  9717.5693   1.88921e-17 
  9718.7637   1.44103e-17 
   9719.957   1.22308e-17 
  9721.1504   1.46513e-17 
  9722.3447   1.86723e-17 
  9723.5381   1.11422e-17 
  9724.7314   1.37624e-17 
  9725.9248   1.41913e-17 
  9727.1191   1.59915e-17 
  9728.3125   1.46569e-17 
  9729.5059   1.83516e-17 
  9730.6992   1.50775e-17 
  9731.8926   1.65841e-17 
  9733.0859   1.93135e-17 
  9734.2793   1.15954e-17 
  9735.4727   1.38349e-17 
   9736.666   1.54584e-17 
  9737.8604   1.30341e-17 
  9739.0537   1.64286e-17 
  9740.2471   1.67837e-17 
  9741.4404   1.54274e-17 
  9742.6338   1.30919e-17 
  9743.8271   1.86922e-17 
  9745.0195   1.37755e-17 
  9746.2129   1.59558e-17 
  9747.4062   1.50441e-17 
  9748.5996   1.46391e-17 
   9749.793   1.55724e-17 
  9750.9863    1.7478e-17 
  9752.1797   1.84061e-17 
   9753.373   1.39685e-17 
  9754.5654   1.79771e-17 
  9755.7588   1.51693e-17 
  9756.9521   1.34668e-17 
  9758.1455   1.53137e-17 
  9759.3379   1.32926e-17 
  9760.5312   1.52949e-17 
  9761.7246   1.58148e-17 
   9762.917   1.45741e-17 
  9764.1104   1.62685e-17 
  9765.3037   1.67221e-17 
  9766.4961   1.59692e-17 
  9767.6895   1.44742e-17 
  9768.8828   1.74883e-17 
  9770.0752   1.73405e-17 
  9771.2686   1.75507e-17 
  9772.4609   1.62115e-17 
  9773.6543   1.72497e-17 
  9774.8467   1.97817e-17 
    9776.04   1.60534e-17 
  9777.2324   1.61271e-17 
  9778.4258   1.75344e-17 
  9779.6182   1.77997e-17 
  9780.8105    1.4393e-17 
  9782.0039   1.40379e-17 
  9783.1963   1.68924e-17 
  9784.3896   1.49268e-17 
   9785.582   1.70685e-17 
  9786.7744    1.1822e-17 
  9787.9678   1.41714e-17 
  9789.1602   2.14441e-17 
  9790.3525   1.69672e-17 
  9791.5449   2.53808e-17 
  9792.7383   1.73832e-17 
  9793.9307   1.33281e-17 
   9795.123   1.94643e-17 
  9796.3154    1.6693e-17 
  9797.5078   2.26795e-17 
  9798.7002   2.31349e-17 
  9799.8936   1.59329e-17 
  9801.0859   1.38934e-17 
  9802.2783   1.75764e-17 
  9803.4707   1.84573e-17 
  9804.6631   1.80922e-17 
  9805.8555   1.65979e-17 
  9807.0479   1.56773e-17 
  9808.2402   1.85354e-17 
  9809.4326   2.08216e-17 
   9810.625   1.38947e-17 
  9811.8174   1.37974e-17 
  9813.0098   2.01159e-17 
  9814.2021   8.86074e-18 
  9815.3945   1.88506e-17 
  9816.5859   1.86939e-17 
  9817.7783   1.76642e-17 
  9818.9707    1.4279e-17 
  9820.1631   1.66158e-17 
  9821.3555    1.6166e-17 
  9822.5479    2.0572e-17 
  9823.7393   1.57268e-17 
  9824.9316   1.65414e-17 
   9826.124   1.67655e-17 
  9827.3154   1.64407e-17 
  9828.5078   1.66365e-17 
  9829.7002   1.78993e-17 
  9830.8926   1.74845e-17 
   9832.084   1.75122e-17 
  9833.2764   1.83684e-17 
  9834.4678   1.79885e-17 
  9835.6602   1.52931e-17 
  9836.8525   1.95538e-17 
  9838.0439    1.6039e-17 
  9839.2363   1.78417e-17 
  9840.4277   1.52508e-17 
  9841.6201   1.61804e-17 
  9842.8115   1.57143e-17 
  9844.0039   1.64177e-17 
  9845.1953   1.78685e-17 
  9846.3867   2.09615e-17 
  9847.5791   1.70346e-17 
  9848.7705   1.54602e-17 
  9849.9629   1.53568e-17 
  9851.1543   1.93024e-17 
  9852.3457   1.68578e-17 
  9853.5381     1.593e-17 
  9854.7295   1.88595e-17 
  9855.9209   1.83479e-17 
  9857.1133   2.07496e-17 
  9858.3047   1.70664e-17 
  9859.4961   1.76859e-17 
  9860.6875   1.68376e-17 
  9861.8789     1.598e-17 
  9863.0713   1.74975e-17 
  9864.2627    1.6991e-17 
  9865.4541   1.52469e-17 
  9866.6455   1.91981e-17 
  9867.8369   1.70535e-17 
  9869.0283   1.47628e-17 
  9870.2197   2.72815e-17 
  9871.4111   2.01674e-17 
  9872.6025   1.16475e-17 
  9873.7939   2.45748e-17 
  9874.9854   1.53388e-17 
  9876.1768   1.04858e-17 
  9877.3682   1.62884e-17 
  9878.5596   1.54492e-17 
   9879.751    1.7878e-17 
  9880.9424   1.65707e-17 
  9882.1338   1.87828e-17 
  9883.3252   1.57766e-17 
  9884.5166   1.86428e-17 
   9885.708   1.89212e-17 
  9886.8984   1.85482e-17 
  9888.0898   2.01877e-17 
  9889.2812   1.83115e-17 
  9890.4727   2.10077e-17 
  9891.6641   1.30111e-17 
  9892.8545   1.89321e-17 
  9894.0459    1.5313e-17 
  9895.2373   2.25007e-17 
  9896.4277    2.0471e-17 
  9897.6191   8.74064e-18 
  9898.8105    1.5859e-17 
   9900.001    1.6005e-17 
  9901.1924   1.52932e-17 
  9902.3838   1.61801e-17 
  9903.5742   1.63757e-17 
  9904.7656   1.64628e-17 
  9905.9561   1.70117e-17 
  9907.1475   1.67931e-17 
  9908.3379   1.85077e-17 
  9909.5293   1.64145e-17 
  9910.7197   1.45161e-17 
  9911.9111   2.08239e-17 
  9913.1016   1.21935e-17 
   9914.293   2.26232e-17 
  9915.4834   3.01807e-17 
  9916.6738   1.79754e-17 
  9917.8652   2.00993e-17 
  9919.0557   1.14508e-17 
  9920.2461   1.73758e-17 
  9921.4375   2.00281e-17 
  9922.6279   1.85605e-17 
  9923.8184   1.66326e-17 
  9925.0098   1.64343e-17 
  9926.2002   1.46514e-17 
  9927.3906   1.68293e-17 
  9928.5811   1.87646e-17 
  9929.7715   2.08299e-17 
  9930.9619   1.73561e-17 
  9932.1533   1.54335e-17 
  9933.3438   1.54038e-17 
  9934.5342   1.84505e-17 
  9935.7246   1.96915e-17 
   9936.915   1.76392e-17 
  9938.1055   1.77306e-17 
  9939.2959    1.9271e-17 
  9940.4863   1.42694e-17 
  9941.6768   1.33703e-17 
  9942.8672   1.82487e-17 
  9944.0576   1.82216e-17 
   9945.248   1.24409e-17 
  9946.4385   2.03696e-17 
  9947.6289    2.3755e-17 
  9948.8193   1.13383e-17 
  9950.0098   1.05678e-17 
  9951.2002   1.26954e-17 
  9952.3906   1.36881e-17 
  9953.5801   1.65151e-17 
  9954.7705   2.17373e-17 
  9955.9609   2.26596e-17 
  9957.1514   2.14214e-17 
  9958.3418   1.62964e-17 
  9959.5312   2.05312e-17 
  9960.7217    1.2035e-17 
  9961.9121   1.67761e-17 
  9963.1016   1.96248e-17 
   9964.292    1.8781e-17 
  9965.4824   1.61902e-17 
  9966.6719   1.71939e-17 
  9967.8623   1.86056e-17 
  9969.0527   2.12742e-17 
  9970.2422   1.91697e-17 
  9971.4326   1.09664e-17 
  9972.6221   1.92145e-17 
  9973.8125   1.51411e-17 
   9975.002   1.42714e-17 
  9976.1924   1.52919e-17 
  9977.3818   1.74858e-17 
  9978.5723   1.88199e-17 
  9979.7617   1.05624e-17 
  9980.9521   1.71717e-17 
  9982.1416   1.33275e-17 
   9983.332   1.53435e-17 
  9984.5215   1.74364e-17 
  9985.7109   1.65571e-17 
  9986.9014    1.2037e-17 
  9988.0908   2.00766e-17 
  9989.2803   1.76143e-17 
  9990.4707   1.47213e-17 
  9991.6602   1.44683e-17 
  9992.8496   1.62614e-17 
    9994.04    1.5004e-17 
  9995.2295   1.36289e-17 
  9996.4189   1.30094e-17 
  9997.6084   1.90577e-17 
  9998.7979   2.06642e-17 
  9999.9883   2.00269e-17 
  10001.177   1.47755e-17 
  10002.367   1.17219e-17 
  10003.557   2.10054e-17 
  10004.746   1.75852e-17 
  10005.936   1.50956e-17 
  10007.125   1.22403e-17 
  10008.315   6.83471e-18 
  10009.504   1.17107e-17 
  10010.694   1.64896e-17 
  10011.883   1.77614e-17 
  10013.072   1.94333e-17 
  10014.262   1.05347e-17 
  10015.451   1.95485e-17 
  10016.641    7.9575e-18 
   10017.83   1.54321e-17 
  10019.019   1.84604e-17 
  10020.209   4.48534e-18 
  10021.398   1.79004e-17 
  10022.587    1.5886e-17 
  10023.777   1.61825e-17 
  10024.966    1.9845e-17 
  10026.155   1.93309e-17 
  10027.344   9.05474e-18 
  10028.534   1.59636e-17 
  10029.723   1.12746e-17 
  10030.912   1.65621e-17 
  10032.101    1.3846e-17 
   10033.29   1.66322e-17 
  10034.479   1.63709e-17 
  10035.669   1.14056e-17 
  10036.858   1.62759e-17 
  10038.047   1.27229e-17 
  10039.236   1.28492e-17 
  10040.425   1.90575e-17 
  10041.614   1.89727e-17 
  10042.803    1.1672e-17 
  10043.992    1.0836e-17 
  10045.181   1.31792e-17 
   10046.37   1.26266e-17 
  10047.559   1.31027e-17 
  10048.748   1.33816e-17 
  10049.937   1.33351e-17 
  10051.126   1.31173e-17 
  10052.315   1.61402e-17 
  10053.503   1.53139e-17 
  10054.692   1.32542e-17 
  10055.881   1.61192e-17 
   10057.07   1.56754e-17 
  10058.259   1.67573e-17 
  10059.448   8.97092e-18 
  10060.636   1.88726e-17 
  10061.825   1.98107e-17 
  10063.014   1.78729e-17 
  10064.203    1.4402e-17 
  10065.391   1.41354e-17 
   10066.58   1.24588e-17 
  10067.769   1.63787e-17 
  10068.957   1.84001e-17 
  10070.146   9.31964e-18 
  10071.335   1.58942e-17 
  10072.523   1.69822e-17 
  10073.712   1.26744e-17 
    10074.9   1.55305e-17 
  10076.089   1.05035e-17 
  10077.278    2.0176e-17 
  10078.466   1.48566e-17 
  10079.655   1.66371e-17 
  10080.843   2.51055e-17 
  10082.032   1.87127e-17 
   10083.22    2.4355e-17 
  10084.409   1.34838e-17 
  10085.597  -1.49008e-18 
  10086.785   9.07098e-18 
  10087.974    1.7754e-17 
  10089.162   1.36066e-17 
  10090.351   1.95951e-17 
  10091.539   1.55302e-17 
  10092.727   1.53222e-17 
  10093.916   1.47888e-17 
  10095.104   1.14536e-17 
  10096.292   1.67983e-17 
  10097.481   1.56467e-17 
  10098.669   1.22168e-17 
  10099.857   1.18917e-17 
  10101.045   1.22997e-17 
  10102.234   1.84232e-17 
  10103.422   2.35816e-17 
   10104.61   2.14327e-17 
  10105.798   4.12754e-18 
  10106.986   1.06038e-17 
  10108.175   6.94198e-18 
  10109.363   1.23129e-17 
  10110.551   1.24497e-17 
  10111.739   9.05833e-18 
  10112.927   9.26317e-18 
  10114.115   1.34602e-17 
  10115.303   1.47546e-17 
  10116.491   1.42024e-17 
  10117.679   1.01193e-17 
  10118.867   1.23098e-17 
  10120.055   9.68764e-18 
  10121.243   2.57374e-17 
  10122.431   1.95608e-17 
  10123.619   1.05144e-17 
  10124.807    1.5423e-17 
  10125.995   1.25988e-17 
  10127.183   1.12115e-17 
  10128.371   1.22008e-17 
  10129.559   2.21111e-17 
  10130.747   5.70372e-18 
  10131.934   6.28402e-18 
  10133.122   1.16323e-17 
   10134.31   9.97087e-18 
  10135.498   1.15976e-17 
  10136.686   1.09191e-17 
  10137.873   1.46983e-17 
  10139.061   1.25931e-17 
  10140.249    1.3943e-17 
  10141.437   8.34708e-18 
  10142.624   1.43606e-17 
  10143.812   9.00002e-18 
    10145.0   9.33879e-18 
  10146.187   1.10862e-17 
  10147.375   1.39779e-17 
  10148.563   1.11522e-17 
   10149.75   6.84595e-18 
  10150.938   1.72203e-17 
  10152.126   1.02455e-17 
  10153.313   1.04722e-17 
  10154.501   1.64343e-17 
  10155.688   1.87839e-17 
  10156.876   1.24553e-17 
  10158.063   1.36783e-17 
  10159.251   1.22478e-17 
  10160.438   1.54136e-17 
  10161.626   1.23867e-17 
  10162.813   2.06666e-17 
  10164.001    1.2677e-17 
  10165.188   1.73312e-17 
  10166.376   1.38394e-17 
  10167.563   1.29336e-17 
  10168.751   1.66888e-17 
  10169.938   1.05916e-17 
  10171.125   2.83651e-17 
  10172.313    2.6745e-17 
    10173.5   1.13236e-17 
  10174.687  -4.90847e-18 
  10175.875   1.59081e-17 
  10177.062   6.93047e-18 
  10178.249   1.40041e-17 
  10179.436    9.0424e-18 
  10180.624   1.35757e-17 
  10181.811   5.18763e-18 
  10182.998   6.25239e-18 
  10184.185   1.23662e-17 
  10185.373   1.07673e-17 
   10186.56   2.35827e-17 
  10187.747   4.39851e-18 
  10188.934   5.26817e-18 
  10190.121    1.4806e-17 
  10191.308   8.88504e-18 
  10192.496    1.5403e-17 
  10193.683   1.91253e-17 
   10194.87   1.18038e-17 
  10196.057   9.19606e-18 
  10197.244    1.2497e-17 
  10198.431   6.30842e-18 
  10199.618   1.42652e-17 
  10200.805    1.2851e-17 
  10201.992    9.9388e-18 
  10203.179   4.25699e-18 
  10204.366   1.49421e-17 
  10205.553   1.89817e-17 
   10206.74   1.27426e-17 
  10207.927   3.98356e-18 
  10209.114   8.12282e-18 
  10210.301   2.03299e-17 
  10211.488   8.67505e-18 
  10212.675    2.8101e-17 
  10213.861    1.3076e-17 
  10215.048   5.36333e-18 
  10216.235    6.1081e-18 
  10217.422   5.40513e-18 
  10218.609   1.13547e-17 
  10219.796   1.22899e-17 
  10220.982    1.7981e-17 
  10222.169   2.44671e-17 
  10223.356   2.12387e-17 
  10224.543   1.01329e-17 
  10225.729   1.26444e-17 
  10226.916   2.29038e-17 
  10228.103  -6.40544e-19 
   10229.29   9.78334e-18 
  10230.476   1.35775e-17 
  10231.663   1.46379e-17 
   10232.85   1.18016e-17 
  10234.036   3.60146e-18 
  10235.223    8.4274e-18 
   10236.41   5.55277e-18 
  10237.596   7.07769e-18 
  10238.783   1.11934e-17 
  10239.969   1.41062e-17 
  10241.156   1.96494e-17 
  10242.343   1.70842e-17 
  10243.529   8.90738e-18 
  10244.716   2.11932e-17 
  10245.902   1.09241e-17 
  10247.089   1.36821e-17 
  10248.275   1.45518e-17 
  10249.462   5.87034e-18 
  10250.648   1.20743e-17 
  10251.835   1.14206e-17 
  10253.021   7.25853e-18 
  10254.208    8.1422e-18 
  10255.394   1.76883e-17 
  10256.581   1.28183e-17 
  10257.767   7.87724e-18 
  10258.953   1.07362e-18 
   10260.14   1.49579e-17 
  10261.326   1.11825e-17 
  10262.512   1.07808e-17 
  10263.699   1.90448e-17 
  10264.885   1.32444e-17 
  10266.072   9.75742e-18 
  10267.258   6.43761e-18 
  10268.444   1.97487e-17 
   10269.63   1.24668e-17 
  10270.817   8.89181e-18 
  10272.003   1.75479e-17 
  10273.189   2.85024e-17 
  10274.375   1.77953e-17 
  10275.562   1.53094e-17 
  10276.748   2.07493e-17 
  10277.934    2.2272e-17 
   10279.12   7.94178e-18 
  10280.307   5.69955e-18 
  10281.493   8.15502e-18 
  10282.679   2.27411e-17 
  10283.865   2.40725e-17 
  10285.051   5.25983e-17 
  10286.237    5.3326e-18 
  10287.423  -3.16057e-17 
   10288.61   2.28021e-17 
  10289.796   6.45674e-18 
  10290.982  -1.71214e-17 
  10292.168   1.13107e-17 
  10293.354   1.43175e-17 
   10294.54   2.64309e-17 
  10295.726   8.98774e-18 
  10296.912   1.12934e-17 
  10298.098   9.85034e-18 
  10299.284   9.99201e-18 
   10300.47  -2.48084e-18 
  10301.656   6.15151e-18 
  10302.842   2.13034e-17 
  10304.028  -2.64778e-18 
  10305.214   2.83608e-17 
    10306.4   1.88475e-17 
