# STATUS =
# OBJECT = 2019otl
# TELESCOPE = P200
# INSTRUMENT = SEDM
# DATE-OBS = 2019-09-06 00:00:00.000
# MJD = 58732.0
# EXPTIME =
# AIRMASS =
# SLIT =
# DISPERSER =
# SOURCE = DOI 10.3847/1538-4357/aca161
# FILTER =
# RESOLUTION =
# FLUX_STANDARD =
# EXTINCTION_CORRECTED =
# PHOTOMETRY_CALIBRATED =
# TELLURIC_CORRECTED =
# FLUX_UNITS =
# WAVE_UNITS =
# QUALITY =
# MIN_WAVE = 3400.0
# MAX_WAVE = 10000.054168
# COMMENT =
   Wavelength         Flux 
  3401.532046   1.0323e-16 
  3403.064092   1.0552e-16 
  3404.596138   5.8146e-17 
  3406.128184   8.6419e-17 
   3407.66023   8.3241e-17 
  3409.192276   7.5302e-17 
  3410.724322   9.4162e-17 
  3412.256368   6.7389e-17 
  3413.788414   8.3961e-17 
   3415.32046   8.9477e-17 
  3416.852506   4.8433e-17 
  3418.384552   8.3486e-17 
  3419.916598   9.1882e-17 
  3421.448644   6.9112e-17 
   3422.98069   7.9608e-17 
  3424.512736   8.4892e-17 
  3426.044782   6.3016e-17 
  3427.576828   8.0672e-17 
  3429.108874   3.5568e-17 
   3430.64092   3.2805e-17 
  3432.172966    2.962e-17 
  3433.705012   4.1852e-17 
  3435.237058   4.2304e-17 
  3436.769104   9.0683e-17 
   3438.30115   1.1595e-16 
  3439.833196   5.2565e-17 
  3441.365242   6.0708e-17 
  3442.897288   6.3207e-17 
  3444.429334   8.5283e-17 
   3445.96138   5.1725e-17 
  3447.493426   7.2184e-17 
  3449.025472   6.1238e-17 
  3450.557518   6.1148e-17 
  3452.089564   1.0228e-16 
   3453.62161   1.0578e-16 
  3455.153656   9.5205e-17 
  3456.685702   1.1797e-16 
  3458.217748   7.7849e-17 
  3459.749794   6.2331e-17 
   3461.28184    8.039e-17 
  3462.813886   7.1693e-17 
  3464.345932   7.1371e-17 
  3465.877978   9.0256e-17 
  3467.410024   1.0431e-16 
   3468.94207   1.3356e-16 
  3470.474116   8.2053e-17 
  3472.006162   9.7926e-17 
  3473.538208   6.4334e-17 
  3475.070254   8.0453e-17 
    3476.6023    7.425e-17 
  3478.134346   1.0813e-16 
  3479.666392   1.1635e-16 
  3481.198438   7.5452e-17 
  3482.730484   9.7352e-17 
   3484.26253   3.8953e-17 
  3485.794576   5.7765e-17 
  3487.326622    5.914e-17 
  3488.858668   5.7318e-17 
  3490.390714   8.1483e-17 
   3491.92276    9.429e-17 
  3493.454806   7.0802e-17 
  3494.986852   4.3492e-17 
  3496.518898   9.5451e-17 
  3498.050944   9.3483e-17 
   3499.58299   8.2808e-17 
  3501.115036    8.986e-17 
  3502.647082   6.3385e-17 
  3504.179128    5.616e-17 
  3505.711174   6.8876e-17 
   3507.24322   6.8286e-17 
  3508.775266   8.9598e-17 
  3510.307312   7.4301e-17 
  3511.839358   1.0042e-16 
  3513.371404   9.3642e-17 
   3514.90345   8.0734e-17 
  3516.435496   6.5499e-17 
  3517.967542   5.4558e-17 
  3519.499588   6.5921e-17 
  3521.031634   7.9191e-17 
   3522.56368   5.0708e-17 
  3524.095726   9.4233e-17 
  3525.627772   1.0312e-16 
  3527.159818   9.2336e-17 
  3528.691864   8.4231e-17 
   3530.22391   1.1709e-16 
  3531.755956   1.0583e-16 
  3533.288002    9.419e-17 
  3534.820048   8.3704e-17 
  3536.352094     9.72e-17 
   3537.88414   8.3692e-17 
  3539.416186   9.6023e-17 
  3540.948232   8.1179e-17 
  3542.480278   9.4186e-17 
  3544.012324   1.3048e-16 
   3545.54437   1.1123e-16 
  3547.076416   6.1318e-17 
  3548.608462   5.6914e-17 
  3550.140508   9.7584e-17 
  3551.672554   8.9612e-17 
    3553.2046   1.1506e-16 
  3554.736646   1.0588e-16 
  3556.268692   9.7265e-17 
  3557.800738   7.4007e-17 
  3559.332784   1.2706e-16 
   3560.86483   1.0387e-16 
  3562.396876   7.3734e-17 
  3563.928922   1.0601e-16 
  3565.460968    7.951e-17 
  3566.993014   9.5939e-17 
   3568.52506   7.4429e-17 
  3570.057106   8.8877e-17 
  3571.589152   5.8549e-17 
  3573.121198   9.1814e-17 
  3574.653244   8.1662e-17 
   3576.18529   6.7772e-17 
  3577.717336    7.458e-17 
  3579.249382   8.6244e-17 
  3580.781428   9.0686e-17 
  3582.313474   8.5844e-17 
   3583.84552   7.8575e-17 
  3585.377566   6.8627e-17 
  3586.909612   8.6029e-17 
  3588.441658   9.5535e-17 
  3589.973704   9.4119e-17 
   3591.50575   1.1011e-16 
  3593.037796   9.4994e-17 
  3594.569842   8.3906e-17 
  3596.101888   8.7126e-17 
  3597.633934   1.2356e-16 
   3599.16598   1.0156e-16 
  3600.698026   1.0652e-16 
  3602.230072   1.1832e-16 
  3603.762118   9.8202e-17 
  3605.294164   9.1344e-17 
   3606.82621   1.0423e-16 
  3608.358256   8.1244e-17 
  3609.890302   1.0246e-16 
  3611.422348   9.5867e-17 
  3612.954394   1.0838e-16 
   3614.48644   9.5953e-17 
  3616.018486   1.0952e-16 
  3617.550532   1.0542e-16 
  3619.082578   9.1916e-17 
  3620.614624   9.1028e-17 
   3622.14667   7.9771e-17 
  3623.678716   9.7546e-17 
  3625.210762   7.5859e-17 
  3626.742808   6.7688e-17 
  3628.274854   1.0116e-16 
    3629.8069   9.0904e-17 
  3631.338946   6.7363e-17 
  3632.870992   7.2771e-17 
  3634.403038   9.8069e-17 
  3635.935084   7.4816e-17 
   3637.46713   7.2278e-17 
  3638.999176    7.941e-17 
  3640.531222   7.0862e-17 
  3642.063268   7.4824e-17 
  3643.595314   6.7908e-17 
   3645.12736   7.2343e-17 
  3646.659406    6.711e-17 
  3648.191452   6.3502e-17 
  3649.723498   9.7945e-17 
  3651.255544   9.6199e-17 
   3652.78759   5.7152e-17 
  3654.319636   1.0947e-16 
  3655.851682   9.8449e-17 
  3657.383728   7.0199e-17 
  3658.915774   6.5599e-17 
   3660.44782    6.318e-17 
  3661.979866   8.1647e-17 
  3663.511912   8.5811e-17 
  3665.043958   8.0841e-17 
  3666.576004   7.3571e-17 
   3668.10805    7.507e-17 
  3669.640096   8.6904e-17 
  3671.172142   7.4164e-17 
  3672.704188   8.8731e-17 
  3674.236234    8.078e-17 
   3675.76828   8.4384e-17 
  3677.300326   8.4482e-17 
  3678.832372   9.4261e-17 
  3680.364418   1.0349e-16 
  3681.896464   1.0623e-16 
   3683.42851   9.4068e-17 
  3684.960556   8.3756e-17 
  3686.492602   8.8516e-17 
  3688.024648   1.0576e-16 
  3689.556694   9.0808e-17 
   3691.08874   1.0616e-16 
  3692.620786   7.8819e-17 
  3694.152832   7.5527e-17 
  3695.684878   8.5226e-17 
  3697.216924   8.7252e-17 
   3698.74897   7.6826e-17 
  3700.281016   9.8403e-17 
  3701.813062   7.1918e-17 
  3703.345108   6.6659e-17 
  3704.877154   9.7292e-17 
    3706.4092   8.1453e-17 
  3707.941246   8.5868e-17 
  3709.473292    9.801e-17 
  3711.005338   6.9444e-17 
  3712.537384   6.2546e-17 
   3714.06943    8.772e-17 
  3715.601476   6.6216e-17 
  3717.133522    7.269e-17 
  3718.665568   7.3219e-17 
  3720.197614   7.6279e-17 
   3721.72966   8.0628e-17 
  3723.261706   7.2053e-17 
  3724.793752   6.2857e-17 
  3726.325798   8.1344e-17 
  3727.857844   8.0634e-17 
   3729.38989   7.6593e-17 
  3730.921936   7.4369e-17 
  3732.453982   6.8718e-17 
  3733.986028   7.2659e-17 
  3735.518074   7.4034e-17 
   3737.05012   7.8766e-17 
  3738.582166   7.7007e-17 
  3740.114212   8.6505e-17 
  3741.646258   7.2407e-17 
  3743.178304   7.9822e-17 
   3744.71035   7.1593e-17 
  3746.242396   6.7391e-17 
  3747.774442   7.7924e-17 
  3749.306488   6.3522e-17 
  3750.838534   7.1512e-17 
   3752.37058   6.7787e-17 
  3753.902626   8.5492e-17 
  3755.434672   6.6812e-17 
  3756.966718   5.8716e-17 
  3758.498764   9.2949e-17 
   3760.03081   8.5797e-17 
  3761.562856   8.7413e-17 
  3763.094902   8.1416e-17 
  3764.626948   6.7747e-17 
  3766.158994    9.011e-17 
   3767.69104   7.4955e-17 
  3769.223086   7.3226e-17 
  3770.755132   7.6098e-17 
  3772.287178   7.0937e-17 
  3773.819224   6.9557e-17 
   3775.35127   7.3068e-17 
  3776.883316   8.6528e-17 
  3778.415362   9.1686e-17 
  3779.947408   7.6704e-17 
  3781.479454   8.1731e-17 
    3783.0115   8.7767e-17 
  3784.543546   8.5775e-17 
  3786.075592   8.4045e-17 
  3787.607638     7.99e-17 
  3789.139684   8.7624e-17 
   3790.67173   8.4797e-17 
  3792.203776   1.0948e-16 
  3793.735822   8.0563e-17 
  3795.267868   9.1908e-17 
  3796.799914   8.4568e-17 
   3798.33196   7.2126e-17 
  3799.864006   7.6046e-17 
  3801.396052   7.9791e-17 
  3802.928098   9.0773e-17 
  3804.460144   9.1606e-17 
   3805.99219   8.0285e-17 
  3807.524236   6.6275e-17 
  3809.056282   9.2175e-17 
  3810.588328    8.654e-17 
  3812.120374   8.1966e-17 
   3813.65242   9.2868e-17 
  3815.184466   7.8468e-17 
  3816.716512   8.3508e-17 
  3818.248558   9.1604e-17 
  3819.780604   8.9675e-17 
   3821.31265    9.869e-17 
  3822.844696   1.0055e-16 
  3824.376742   6.8506e-17 
  3825.908788   7.6214e-17 
  3827.440834   7.1027e-17 
   3828.97288   9.3617e-17 
  3830.504926   8.6203e-17 
  3832.036972    8.415e-17 
  3833.569018   7.5859e-17 
  3835.101064    7.509e-17 
   3836.63311    7.798e-17 
  3838.165156   6.5693e-17 
  3839.697202   8.1201e-17 
  3841.229248     8.02e-17 
  3842.761294    8.233e-17 
   3844.29334   9.5219e-17 
  3845.825386   8.6455e-17 
  3847.357432    8.454e-17 
  3848.889478   6.9295e-17 
  3850.421524   7.1331e-17 
   3851.95357   8.3658e-17 
  3853.485616    8.189e-17 
  3855.017662   7.6237e-17 
  3856.549708   8.4131e-17 
  3858.081754   8.1438e-17 
    3859.6138   7.8689e-17 
  3861.145846   6.9436e-17 
  3862.677892    7.706e-17 
  3864.209938   8.5985e-17 
  3865.741984   7.5869e-17 
   3867.27403   8.7009e-17 
  3868.806076   8.9548e-17 
  3870.338122   6.7499e-17 
  3871.870168    7.309e-17 
  3873.402214   7.3943e-17 
   3874.93426   7.5513e-17 
  3876.466306   7.4359e-17 
  3877.998352   8.8714e-17 
  3879.530398   9.7657e-17 
  3881.062444   9.4768e-17 
   3882.59449   7.0207e-17 
  3884.126536   6.8766e-17 
  3885.658582   7.3509e-17 
  3887.190628   7.8424e-17 
  3888.722674   8.2469e-17 
   3890.25472   9.7036e-17 
  3891.786766   9.9404e-17 
  3893.318812   8.1568e-17 
  3894.850858   8.4977e-17 
  3896.382904   8.8973e-17 
   3897.91495   1.0159e-16 
  3899.446996   1.0658e-16 
  3900.979042   1.0835e-16 
  3902.511088    9.535e-17 
  3904.043134   9.5112e-17 
   3905.57518   1.0464e-16 
  3907.107226   1.0363e-16 
  3908.639272   9.6648e-17 
  3910.171318    7.825e-17 
  3911.703364   8.9053e-17 
   3913.23541   9.7426e-17 
  3914.767456   9.7541e-17 
  3916.299502   8.2895e-17 
  3917.831548   1.0008e-16 
  3919.363594   1.0848e-16 
   3920.89564   9.9578e-17 
  3922.427686   8.9854e-17 
  3923.959732   9.2621e-17 
  3925.491778   9.1544e-17 
  3927.023824   8.7311e-17 
   3928.55587    8.877e-17 
  3930.087916    9.385e-17 
  3931.619962   8.0115e-17 
  3933.152008   9.2064e-17 
  3934.684054   9.1191e-17 
    3936.2161   8.4593e-17 
  3937.748146   6.9684e-17 
  3939.280192   7.9488e-17 
  3940.812238   1.0251e-16 
  3942.344284   8.6932e-17 
   3943.87633   7.1234e-17 
  3945.408376   8.9701e-17 
  3946.940422   8.4513e-17 
  3948.472468   8.5678e-17 
  3950.004514    8.805e-17 
   3951.53656   8.6618e-17 
  3953.068606   8.9401e-17 
  3954.600652   8.3897e-17 
  3956.132698     8.06e-17 
  3957.664744   9.6941e-17 
   3959.19679   8.8675e-17 
  3960.728836   8.4835e-17 
  3962.260882   8.9114e-17 
  3963.792928    7.741e-17 
  3965.324974   7.5227e-17 
   3966.85702   7.9063e-17 
  3968.389066    8.782e-17 
  3969.921112   8.5726e-17 
  3971.453158   9.1852e-17 
  3972.985204   8.3235e-17 
   3974.51725   7.1931e-17 
  3976.049296   8.7026e-17 
  3977.581342   8.2158e-17 
  3979.113388   8.0877e-17 
  3980.645434   8.3712e-17 
   3982.17748   7.8258e-17 
  3983.709526   8.8946e-17 
  3985.241572   9.0567e-17 
  3986.773618   7.7516e-17 
  3988.305664   8.0229e-17 
   3989.83771    9.016e-17 
  3991.369756   8.9947e-17 
  3992.901802   7.7285e-17 
  3994.433848   7.2886e-17 
  3995.965894   7.9144e-17 
   3997.49794   8.1167e-17 
  3999.029986   6.1922e-17 
  4000.562032   7.6752e-17 
  4002.094078   7.4374e-17 
  4003.626124   7.6008e-17 
   4005.15817   7.5903e-17 
  4006.690216   8.3372e-17 
  4008.222262    8.034e-17 
  4009.754308   6.3441e-17 
  4011.286354   5.8904e-17 
    4012.8184   8.2103e-17 
  4014.350446   7.2845e-17 
  4015.882492    8.272e-17 
  4017.414538   6.6916e-17 
  4018.946584   7.2294e-17 
   4020.47863   8.3613e-17 
  4022.010676   8.8014e-17 
  4023.542722   7.9479e-17 
  4025.074768   8.6993e-17 
  4026.606814   8.2162e-17 
   4028.13886   7.5654e-17 
  4029.670906   7.5341e-17 
  4031.202952   7.2972e-17 
  4032.734998    8.197e-17 
  4034.267044   8.2196e-17 
   4035.79909   8.0886e-17 
  4037.331136   6.7804e-17 
  4038.863182   7.2233e-17 
  4040.395228    8.031e-17 
  4041.927274   8.5617e-17 
   4043.45932   8.5338e-17 
  4044.991366   7.6053e-17 
  4046.523412   1.0578e-16 
  4048.055458   8.6029e-17 
  4049.587504   7.9376e-17 
   4051.11955   7.5989e-17 
  4052.651596   7.3781e-17 
  4054.183642   7.6039e-17 
  4055.715688   8.1682e-17 
  4057.247734   8.8882e-17 
   4058.77978   6.8542e-17 
  4060.311826   7.2577e-17 
  4061.843872   7.6258e-17 
  4063.375918   8.1683e-17 
  4064.907964    7.918e-17 
   4066.44001   8.0164e-17 
  4067.972056   7.3311e-17 
  4069.504102   9.1971e-17 
  4071.036148   8.1155e-17 
  4072.568194   1.0571e-16 
   4074.10024   7.9372e-17 
  4075.632286   6.9161e-17 
  4077.164332    8.611e-17 
  4078.696378   9.1095e-17 
  4080.228424   8.7311e-17 
   4081.76047   7.4627e-17 
  4083.292516    7.715e-17 
  4084.824562   7.7275e-17 
  4086.356608   6.8875e-17 
  4087.888654   8.3002e-17 
    4089.4207   8.5441e-17 
  4090.952746   8.3119e-17 
  4092.484792   8.6651e-17 
  4094.016838    7.351e-17 
  4095.548884   7.3453e-17 
   4097.08093   7.6146e-17 
  4098.612976   7.6586e-17 
  4100.145022   8.2652e-17 
  4101.677068   8.9851e-17 
  4103.209114   7.8803e-17 
   4104.74116   8.0836e-17 
  4106.273206   8.8861e-17 
  4107.805252    8.712e-17 
  4109.337298   7.5461e-17 
  4110.869344   7.6668e-17 
   4112.40139   8.8081e-17 
  4113.933436   7.9366e-17 
  4115.465482   7.7948e-17 
  4116.997528     7.11e-17 
  4118.529574   8.2599e-17 
   4120.06162    9.093e-17 
  4121.593666   7.7281e-17 
  4123.125712   7.5172e-17 
  4124.657758   7.0897e-17 
  4126.189804   8.1916e-17 
   4127.72185   8.7567e-17 
  4129.253896    8.921e-17 
  4130.785942   7.5588e-17 
  4132.317988   7.7818e-17 
  4133.850034   7.7137e-17 
   4135.38208    6.456e-17 
  4136.914126   6.6923e-17 
  4138.446172   6.9415e-17 
  4139.978218   7.9619e-17 
  4141.510264   9.6458e-17 
   4143.04231   7.5208e-17 
  4144.574356   8.4955e-17 
  4146.106402    8.181e-17 
  4147.638448   7.6284e-17 
  4149.170494   8.7838e-17 
   4150.70254    8.819e-17 
  4152.234586   8.1138e-17 
  4153.766632    8.176e-17 
  4155.298678   8.6181e-17 
  4156.830724   8.0642e-17 
   4158.36277   7.9108e-17 
  4159.894816   7.4864e-17 
  4161.426862   7.6602e-17 
  4162.958908    7.631e-17 
  4164.490954   7.5351e-17 
     4166.023   7.1118e-17 
  4167.555046    6.626e-17 
  4169.087092   7.8423e-17 
  4170.619138   7.9548e-17 
  4172.151184   7.6933e-17 
   4173.68323   7.4656e-17 
  4175.215276   8.0458e-17 
  4176.747322   6.8312e-17 
  4178.279368    6.172e-17 
  4179.811414    7.254e-17 
   4181.34346   7.9871e-17 
  4182.875506   8.3607e-17 
  4184.407552   8.6372e-17 
  4185.939598   9.2627e-17 
  4187.471644   8.5896e-17 
   4189.00369    8.439e-17 
  4190.535736    5.711e-17 
  4192.067782   8.0719e-17 
  4193.599828   1.0429e-16 
  4195.131874    8.916e-17 
   4196.66392   8.2593e-17 
  4198.195966   8.3622e-17 
  4199.728012   8.5904e-17 
  4201.260058   8.6501e-17 
  4202.792104   7.3736e-17 
   4204.32415   8.8614e-17 
  4205.856196   7.4752e-17 
  4207.388242    7.149e-17 
  4208.920288   7.3042e-17 
  4210.452334   9.3122e-17 
   4211.98438   9.9575e-17 
  4213.516426   8.7242e-17 
  4215.048472    8.237e-17 
  4216.580518    8.066e-17 
  4218.112564    7.246e-17 
   4219.64461    8.142e-17 
  4221.176656   7.7831e-17 
  4222.708702   6.2929e-17 
  4224.240748   7.2692e-17 
  4225.772794   7.9246e-17 
   4227.30484   7.7533e-17 
  4228.836886   8.3102e-17 
  4230.368932   8.8963e-17 
  4231.900978    7.989e-17 
  4233.433024   8.4921e-17 
   4234.96507   8.0603e-17 
  4236.497116   7.9758e-17 
  4238.029162   8.1462e-17 
  4239.561208   8.9747e-17 
  4241.093254   9.4458e-17 
    4242.6253   9.3479e-17 
  4244.157346   8.2213e-17 
  4245.689392   7.2922e-17 
  4247.221438   5.7882e-17 
  4248.753484   8.3235e-17 
   4250.28553   7.7749e-17 
  4251.817576   6.9254e-17 
  4253.349622   7.6835e-17 
  4254.881668   7.9657e-17 
  4256.413714   9.1221e-17 
   4257.94576   9.0092e-17 
  4259.477806   7.4116e-17 
  4261.009852   7.2166e-17 
  4262.541898   8.3721e-17 
  4264.073944   8.2717e-17 
   4265.60599   8.6062e-17 
  4267.138036   8.5022e-17 
  4268.670082   8.1717e-17 
  4270.202128   8.5178e-17 
  4271.734174   7.9456e-17 
   4273.26622   7.9493e-17 
  4274.798266   9.2527e-17 
  4276.330312   8.5677e-17 
  4277.862358   8.6418e-17 
  4279.394404   8.6589e-17 
   4280.92645   8.2368e-17 
  4282.458496   7.8126e-17 
  4283.990542   9.1529e-17 
  4285.522588     9.53e-17 
  4287.054634   8.1351e-17 
   4288.58668   8.3235e-17 
  4290.118726   7.5229e-17 
  4291.650772   8.2897e-17 
  4293.182818   9.1525e-17 
  4294.714864   8.4527e-17 
   4296.24691   8.4997e-17 
  4297.778956   9.3363e-17 
  4299.311002   8.4445e-17 
  4300.843048   8.0859e-17 
  4302.375094   7.1957e-17 
   4303.90714   7.7943e-17 
  4305.439186   8.6358e-17 
  4306.971232   8.7764e-17 
  4308.503278   8.4644e-17 
  4310.035324   8.7575e-17 
   4311.56737   8.6748e-17 
  4313.099416   8.4497e-17 
  4314.631462   8.8217e-17 
  4316.163508   8.9497e-17 
  4317.695554   8.1561e-17 
    4319.2276   7.8877e-17 
  4320.759646   6.7973e-17 
  4322.291692   7.7789e-17 
  4323.823738    9.647e-17 
  4325.355784    8.302e-17 
   4326.88783   8.7765e-17 
  4328.419876   9.0835e-17 
  4329.951922   9.4443e-17 
  4331.483968   8.3593e-17 
  4333.016014   8.6828e-17 
   4334.54806   9.1562e-17 
  4336.080106    8.388e-17 
  4337.612152   7.8971e-17 
  4339.144198   7.9196e-17 
  4340.676244   8.1039e-17 
   4342.20829   7.5096e-17 
  4343.740336   7.8083e-17 
  4345.272382   8.9202e-17 
  4346.804428    8.758e-17 
  4348.336474   8.6047e-17 
   4349.86852   7.6755e-17 
  4351.400566   8.4339e-17 
  4352.932612   8.9329e-17 
  4354.464658   6.7037e-17 
  4355.996704   6.8945e-17 
   4357.52875   8.5578e-17 
  4359.060796   7.3954e-17 
  4360.592842   8.3362e-17 
  4362.124888   8.1956e-17 
  4363.656934    9.078e-17 
   4365.18898   7.3412e-17 
  4366.721026   6.5062e-17 
  4368.253072   8.6698e-17 
  4369.785118   8.3945e-17 
  4371.317164   9.3317e-17 
   4372.84921   7.9432e-17 
  4374.381256   6.6346e-17 
  4375.913302   6.5639e-17 
  4377.445348   8.2718e-17 
  4378.977394   9.5927e-17 
   4380.50944   9.3699e-17 
  4382.041486   8.8739e-17 
  4383.573532   7.9286e-17 
  4385.105578   8.1199e-17 
  4386.637624   8.4189e-17 
   4388.16967   8.8425e-17 
  4389.701716   7.0139e-17 
  4391.233762   7.1857e-17 
  4392.765808   7.9647e-17 
  4394.297854   8.1144e-17 
    4395.8299   7.8531e-17 
  4397.361946   8.4554e-17 
  4398.893992   7.7114e-17 
  4400.426038   7.3296e-17 
  4401.958084   8.8994e-17 
   4403.49013   7.3374e-17 
  4405.022176   8.2454e-17 
  4406.554222    9.003e-17 
  4408.086268   7.5725e-17 
  4409.618314   7.8695e-17 
   4411.15036   7.0271e-17 
  4412.682406   8.4283e-17 
  4414.214452    7.909e-17 
  4415.746498   9.6579e-17 
  4417.278544   8.8541e-17 
   4418.81059   8.1982e-17 
  4420.342636     7.64e-17 
  4421.874682   7.3698e-17 
  4423.406728   7.4964e-17 
  4424.938774   7.7933e-17 
   4426.47082   7.6656e-17 
  4428.002866   7.8571e-17 
  4429.534912   7.4633e-17 
  4431.066958   8.5639e-17 
  4432.599004   9.8152e-17 
   4434.13105   7.8295e-17 
  4435.663096   7.5762e-17 
  4437.195142   7.7508e-17 
  4438.727188    8.595e-17 
  4440.259234   6.5543e-17 
   4441.79128   8.0519e-17 
  4443.323326   7.3238e-17 
  4444.855372   7.4826e-17 
  4446.387418   8.4295e-17 
  4447.919464   8.4219e-17 
   4449.45151   8.9219e-17 
  4450.983556   8.7983e-17 
  4452.515602    8.984e-17 
  4454.047648   1.0583e-16 
  4455.579694   8.3951e-17 
   4457.11174   8.7515e-17 
  4458.643786   8.5861e-17 
  4460.175832   8.4999e-17 
  4461.707878   8.3907e-17 
  4463.239924   7.3499e-17 
   4464.77197   8.2847e-17 
  4466.304016   7.6771e-17 
  4467.836062   7.3955e-17 
  4469.368108   8.3491e-17 
  4470.900154    7.272e-17 
    4472.4322   8.3596e-17 
  4473.964246   8.2787e-17 
  4475.496292   7.3234e-17 
  4477.028338   8.5684e-17 
  4478.560384   8.7281e-17 
   4480.09243   7.6995e-17 
  4481.624476   8.0102e-17 
  4483.156522   7.8802e-17 
  4484.688568   8.5965e-17 
  4486.220614   7.4976e-17 
   4487.75266   7.5983e-17 
  4489.284706   9.2243e-17 
  4490.816752   7.6786e-17 
  4492.348798   6.3691e-17 
  4493.880844   9.1687e-17 
   4495.41289   9.2383e-17 
  4496.944936   7.4086e-17 
  4498.476982   8.3996e-17 
  4500.009028   7.9335e-17 
  4501.541074   7.3756e-17 
   4503.07312   9.4938e-17 
  4504.605166    8.436e-17 
  4506.137212   8.6954e-17 
  4507.669258   7.9927e-17 
  4509.201304   6.6355e-17 
   4510.73335   8.5853e-17 
  4512.265396   8.8391e-17 
  4513.797442   8.0332e-17 
  4515.329488   8.9871e-17 
  4516.861534   9.3204e-17 
   4518.39358   7.7229e-17 
  4519.925626   8.6047e-17 
  4521.457672   9.3604e-17 
  4522.989718   8.2444e-17 
  4524.521764   8.1117e-17 
   4526.05381   8.3502e-17 
  4527.585856   1.1236e-16 
  4529.117902   1.0046e-16 
  4530.649948   7.7974e-17 
  4532.181994   9.2753e-17 
   4533.71404   8.5456e-17 
  4535.246086     9.49e-17 
  4536.778132   9.4625e-17 
  4538.310178   7.1385e-17 
  4539.842224   6.3353e-17 
   4541.37427   8.1168e-17 
  4542.906316   7.0809e-17 
  4544.438362    7.426e-17 
  4545.970408   9.6212e-17 
  4547.502454   9.5157e-17 
    4549.0345   8.9885e-17 
  4550.566546   7.6714e-17 
  4552.098592   8.1312e-17 
  4553.630638   8.9333e-17 
  4555.162684   9.4306e-17 
   4556.69473   9.0189e-17 
  4558.226776   6.8243e-17 
  4559.758822   6.7228e-17 
  4561.290868   8.0476e-17 
  4562.822914   7.5235e-17 
   4564.35496   7.6581e-17 
  4565.887006   8.1037e-17 
  4567.419052   8.1498e-17 
  4568.951098   6.7443e-17 
  4570.483144   7.2986e-17 
   4572.01519   7.4925e-17 
  4573.547236   8.1844e-17 
  4575.079282   8.2569e-17 
  4576.611328   8.3039e-17 
  4578.143374   8.6833e-17 
   4579.67542   9.3028e-17 
  4581.207466   7.4661e-17 
  4582.739512   8.0497e-17 
  4584.271558   7.8741e-17 
  4585.803604   7.1701e-17 
   4587.33565   8.1038e-17 
  4588.867696   8.0493e-17 
  4590.399742   8.3772e-17 
  4591.931788   7.0048e-17 
  4593.463834   6.8267e-17 
   4594.99588   7.7913e-17 
  4596.527926   7.3866e-17 
  4598.059972    7.799e-17 
  4599.592018   7.6648e-17 
  4601.124064   7.3734e-17 
   4602.65611   6.8502e-17 
  4604.188156   7.8506e-17 
  4605.720202   8.6711e-17 
  4607.252248   8.8743e-17 
  4608.784294   8.2477e-17 
   4610.31634   8.8429e-17 
  4611.848386   8.9933e-17 
  4613.380432    7.715e-17 
  4614.912478   7.3948e-17 
  4616.444524   8.0091e-17 
   4617.97657   8.4203e-17 
  4619.508616   8.4262e-17 
  4621.040662   5.9283e-17 
  4622.572708   7.8037e-17 
  4624.104754    6.782e-17 
    4625.6368   7.1955e-17 
  4627.168846   7.3509e-17 
  4628.700892   7.5631e-17 
  4630.232938   7.6951e-17 
  4631.764984   7.9914e-17 
   4633.29703   7.9619e-17 
  4634.829076   8.2043e-17 
  4636.361122   6.5216e-17 
  4637.893168   7.3246e-17 
  4639.425214   7.6974e-17 
   4640.95726   7.1021e-17 
  4642.489306   7.5493e-17 
  4644.021352   7.0123e-17 
  4645.553398    6.935e-17 
  4647.085444   5.9528e-17 
   4648.61749   7.9818e-17 
  4650.149536   7.3779e-17 
  4651.681582   8.7258e-17 
  4653.213628    7.214e-17 
  4654.745674   6.8265e-17 
   4656.27772   5.9495e-17 
  4657.809766   6.6086e-17 
  4659.341812   6.2748e-17 
  4660.873858   7.1845e-17 
  4662.405904   7.4145e-17 
   4663.93795   8.4373e-17 
  4665.469996   8.2466e-17 
  4667.002042   8.2115e-17 
  4668.534088   8.7306e-17 
  4670.066134   8.1402e-17 
   4671.59818   8.1404e-17 
  4673.130226   7.5071e-17 
  4674.662272   7.8946e-17 
  4676.194318   7.1984e-17 
  4677.726364    6.792e-17 
   4679.25841   6.6697e-17 
  4680.790456    8.389e-17 
  4682.322502   8.0049e-17 
  4683.854548   6.3695e-17 
  4685.386594   6.8503e-17 
   4686.91864   7.5504e-17 
  4688.450686    7.615e-17 
  4689.982732   8.2705e-17 
  4691.514778   7.8869e-17 
  4693.046824   6.7926e-17 
   4694.57887   7.0533e-17 
  4696.110916   8.5856e-17 
  4697.642962   8.1272e-17 
  4699.175008   8.3689e-17 
  4700.707054   8.1656e-17 
    4702.2391   7.6234e-17 
  4703.771146   8.0667e-17 
  4705.303192   8.1811e-17 
  4706.835238   7.3626e-17 
  4708.367284   7.2291e-17 
   4709.89933   7.8134e-17 
  4711.431376   8.0523e-17 
  4712.963422   7.3689e-17 
  4714.495468   7.3202e-17 
  4716.027514   7.2244e-17 
   4717.55956   7.7777e-17 
  4719.091606   6.8419e-17 
  4720.623652   7.2523e-17 
  4722.155698   6.2549e-17 
  4723.687744   5.3129e-17 
   4725.21979   6.5704e-17 
  4726.751836    6.166e-17 
  4728.283882    7.577e-17 
  4729.815928   8.3895e-17 
  4731.347974   7.6971e-17 
   4732.88002    7.321e-17 
  4734.412066   9.0845e-17 
  4735.944112   7.2784e-17 
  4737.476158   7.5362e-17 
  4739.008204   7.8813e-17 
   4740.54025   6.5919e-17 
  4742.072296   7.7055e-17 
  4743.604342   8.1072e-17 
  4745.136388   7.7503e-17 
  4746.668434     7.12e-17 
   4748.20048    6.824e-17 
  4749.732526   8.6607e-17 
  4751.264572   8.2109e-17 
  4752.796618   7.7132e-17 
  4754.328664    8.259e-17 
   4755.86071    6.214e-17 
  4757.392756   7.1831e-17 
  4758.924802   7.4358e-17 
  4760.456848   6.8596e-17 
  4761.988894   6.7536e-17 
   4763.52094   5.9412e-17 
  4765.052986   7.1292e-17 
  4766.585032   7.5018e-17 
  4768.117078   7.5236e-17 
  4769.649124   7.3408e-17 
   4771.18117   6.5913e-17 
  4772.713216   7.7008e-17 
  4774.245262   6.6563e-17 
  4775.777308   6.6748e-17 
  4777.309354   6.8093e-17 
    4778.8414   7.2422e-17 
  4780.373446   7.6018e-17 
  4781.905492   8.1869e-17 
  4783.437538   7.7149e-17 
  4784.969584   7.5896e-17 
   4786.50163   7.0563e-17 
  4788.033676   6.4795e-17 
  4789.565722   6.5376e-17 
  4791.097768   8.2124e-17 
  4792.629814   7.8448e-17 
   4794.16186     8.43e-17 
  4795.693906   7.4068e-17 
  4797.225952   6.1488e-17 
  4798.757998   6.9957e-17 
  4800.290044   6.7293e-17 
   4801.82209   5.7146e-17 
  4803.354136   7.1712e-17 
  4804.886182   6.9366e-17 
  4806.418228   7.4114e-17 
  4807.950274     6.62e-17 
   4809.48232   6.3139e-17 
  4811.014366   7.0148e-17 
  4812.546412    7.384e-17 
  4814.078458    7.144e-17 
  4815.610504   6.7104e-17 
   4817.14255   7.5386e-17 
  4818.674596   6.6379e-17 
  4820.206642   6.5732e-17 
  4821.738688   6.8071e-17 
  4823.270734   6.6873e-17 
   4824.80278   6.4457e-17 
  4826.334826   6.2291e-17 
  4827.866872   6.3925e-17 
  4829.398918   7.0321e-17 
  4830.930964   7.3722e-17 
   4832.46301   6.8904e-17 
  4833.995056   7.1053e-17 
  4835.527102   6.5292e-17 
  4837.059148   6.1014e-17 
  4838.591194   7.2043e-17 
   4840.12324   7.9601e-17 
  4841.655286   7.8972e-17 
  4843.187332   7.5366e-17 
  4844.719378   6.2528e-17 
  4846.251424   7.8335e-17 
   4847.78347   6.5474e-17 
  4849.315516   7.7818e-17 
  4850.847562   6.7685e-17 
  4852.379608   6.6258e-17 
  4853.911654    6.864e-17 
    4855.4437   7.2827e-17 
  4856.975746   6.7622e-17 
  4858.507792   6.4754e-17 
  4860.039838   7.1144e-17 
  4861.571884    6.525e-17 
   4863.10393   6.7333e-17 
  4864.635976   6.2223e-17 
  4866.168022   7.8734e-17 
  4867.700068   8.7681e-17 
  4869.232114    7.592e-17 
   4870.76416   7.2586e-17 
  4872.296206   7.4819e-17 
  4873.828252   6.9917e-17 
  4875.360298   6.5235e-17 
  4876.892344   6.5828e-17 
   4878.42439   7.2911e-17 
  4879.956436   6.4027e-17 
  4881.488482   6.7818e-17 
  4883.020528   6.9032e-17 
  4884.552574   7.0795e-17 
   4886.08462   7.4708e-17 
  4887.616666   6.9988e-17 
  4889.148712   6.4708e-17 
  4890.680758   7.8845e-17 
  4892.212804   8.5529e-17 
   4893.74485   6.3726e-17 
  4895.276896   7.1306e-17 
  4896.808942   7.0344e-17 
  4898.340988   6.3832e-17 
  4899.873034   7.4913e-17 
   4901.40508   6.5818e-17 
  4902.937126   8.2909e-17 
  4904.469172   8.6457e-17 
  4906.001218   7.0947e-17 
  4907.533264   6.5907e-17 
   4909.06531   7.3384e-17 
  4910.597356   6.6057e-17 
  4912.129402   7.0576e-17 
  4913.661448   7.5548e-17 
  4915.193494   8.2112e-17 
   4916.72554   7.4357e-17 
  4918.257586   8.1917e-17 
  4919.789632   7.8611e-17 
  4921.321678   8.1067e-17 
  4922.853724   7.5816e-17 
   4924.38577   7.0786e-17 
  4925.917816   6.7526e-17 
  4927.449862   6.7588e-17 
  4928.981908   7.7812e-17 
  4930.513954   7.2094e-17 
     4932.046   6.9357e-17 
  4933.578046   7.6991e-17 
  4935.110092   7.2233e-17 
  4936.642138   5.6638e-17 
  4938.174184   7.2229e-17 
   4939.70623   8.2288e-17 
  4941.238276   7.3774e-17 
  4942.770322   7.3433e-17 
  4944.302368   7.7236e-17 
  4945.834414   8.4126e-17 
   4947.36646   8.2534e-17 
  4948.898506   8.2248e-17 
  4950.430552   7.7887e-17 
  4951.962598   5.8872e-17 
  4953.494644   7.9147e-17 
   4955.02669   8.2541e-17 
  4956.558736   7.6626e-17 
  4958.090782   7.3419e-17 
  4959.622828   6.8535e-17 
  4961.154874   6.7678e-17 
   4962.68692   6.6856e-17 
  4964.218966   7.2123e-17 
  4965.751012   8.0372e-17 
  4967.283058   7.4465e-17 
  4968.815104   7.8295e-17 
   4970.34715   6.9288e-17 
  4971.879196   7.0033e-17 
  4973.411242   7.8287e-17 
  4974.943288    7.679e-17 
  4976.475334   8.4067e-17 
   4978.00738   7.2543e-17 
  4979.539426   5.2521e-17 
  4981.071472   7.9278e-17 
  4982.603518   6.9606e-17 
  4984.135564   8.1218e-17 
   4985.66761   6.6858e-17 
  4987.199656   5.0867e-17 
  4988.731702   7.4187e-17 
  4990.263748    7.663e-17 
  4991.795794   7.9428e-17 
   4993.32784   7.5172e-17 
  4994.859886   7.2254e-17 
  4996.391932   7.9619e-17 
  4997.923978    7.282e-17 
  4999.456024   5.9851e-17 
   5000.98807    6.883e-17 
  5002.520116   7.7125e-17 
  5004.052162   7.2067e-17 
  5005.584208    7.765e-17 
  5007.116254   7.3986e-17 
    5008.6483   7.4802e-17 
  5010.180346   7.6114e-17 
  5011.712392   6.9748e-17 
  5013.244438   6.1981e-17 
  5014.776484   6.6507e-17 
   5016.30853   7.1016e-17 
  5017.840576   6.3128e-17 
  5019.372622   7.8799e-17 
  5020.904668   7.5663e-17 
  5022.436714   8.3608e-17 
   5023.96876   7.9876e-17 
  5025.500806   5.3771e-17 
  5027.032852   6.1275e-17 
  5028.564898    6.875e-17 
  5030.096944   7.7308e-17 
   5031.62899    7.738e-17 
  5033.161036   7.3814e-17 
  5034.693082   6.9147e-17 
  5036.225128   8.3655e-17 
  5037.757174   6.5601e-17 
   5039.28922   6.5275e-17 
  5040.821266   7.0233e-17 
  5042.353312    5.731e-17 
  5043.885358   7.1111e-17 
  5045.417404   7.0792e-17 
   5046.94945   6.0159e-17 
  5048.481496   6.2896e-17 
  5050.013542   7.6881e-17 
  5051.545588    6.273e-17 
  5053.077634   6.7716e-17 
   5054.60968   6.9465e-17 
  5056.141726   6.8556e-17 
  5057.673772   7.6116e-17 
  5059.205818   6.7723e-17 
  5060.737864   6.5794e-17 
   5062.26991   6.1317e-17 
  5063.801956   7.3298e-17 
  5065.334002   6.0854e-17 
  5066.866048   5.1207e-17 
  5068.398094   6.5791e-17 
   5069.93014   6.4247e-17 
  5071.462186   6.0159e-17 
  5072.994232   7.4102e-17 
  5074.526278   6.7142e-17 
  5076.058324   6.5916e-17 
   5077.59037   7.2228e-17 
  5079.122416    6.221e-17 
  5080.654462   6.2696e-17 
  5082.186508   8.2823e-17 
  5083.718554   7.6273e-17 
    5085.2506   7.3346e-17 
  5086.782646   7.0991e-17 
  5088.314692   7.7213e-17 
  5089.846738   7.1626e-17 
  5091.378784   7.6659e-17 
   5092.91083   7.6889e-17 
  5094.442876   7.4311e-17 
  5095.974922   7.8705e-17 
  5097.506968   7.0379e-17 
  5099.039014   5.4007e-17 
   5100.57106   5.1871e-17 
  5102.103106   7.6189e-17 
  5103.635152   7.2023e-17 
  5105.167198   6.7393e-17 
  5106.699244   7.7487e-17 
   5108.23129   6.9063e-17 
  5109.763336   6.1948e-17 
  5111.295382   6.6588e-17 
  5112.827428   6.4223e-17 
  5114.359474   6.8384e-17 
   5115.89152   7.0618e-17 
  5117.423566   6.7962e-17 
  5118.955612   7.3999e-17 
  5120.487658   6.3587e-17 
  5122.019704   5.3954e-17 
   5123.55175   5.9408e-17 
  5125.083796   6.4618e-17 
  5126.615842   7.6021e-17 
  5128.147888   6.9406e-17 
  5129.679934   6.9807e-17 
   5131.21198   6.2982e-17 
  5132.744026   5.1089e-17 
  5134.276072   8.0361e-17 
  5135.808118   7.2608e-17 
  5137.340164   7.4333e-17 
   5138.87221   7.9507e-17 
  5140.404256   7.8753e-17 
  5141.936302   6.0246e-17 
  5143.468348   6.0782e-17 
  5145.000394   7.8372e-17 
   5146.53244   8.2586e-17 
  5148.064486    8.641e-17 
  5149.596532   8.4763e-17 
  5151.128578   7.4958e-17 
  5152.660624   5.7401e-17 
   5154.19267   5.8091e-17 
  5155.724716   6.1557e-17 
  5157.256762    6.414e-17 
  5158.788808   6.7458e-17 
  5160.320854     8.02e-17 
    5161.8529   6.3552e-17 
  5163.384946   6.3137e-17 
  5164.916992   7.2137e-17 
  5166.449038   5.9214e-17 
  5167.981084   7.5978e-17 
   5169.51313   6.7942e-17 
  5171.045176    5.862e-17 
  5172.577222   6.2837e-17 
  5174.109268   6.7651e-17 
  5175.641314   5.4865e-17 
   5177.17336   6.3667e-17 
  5178.705406   6.5809e-17 
  5180.237452   7.1633e-17 
  5181.769498   7.4126e-17 
  5183.301544   7.2448e-17 
   5184.83359   6.6357e-17 
  5186.365636   6.0922e-17 
  5187.897682   5.7711e-17 
  5189.429728   6.6983e-17 
  5190.961774    6.194e-17 
   5192.49382   6.5368e-17 
  5194.025866   6.8245e-17 
  5195.557912   6.4623e-17 
  5197.089958   5.3297e-17 
  5198.622004   5.3462e-17 
   5200.15405   5.7133e-17 
  5201.686096    6.278e-17 
  5203.218142   5.8937e-17 
  5204.750188   3.8309e-17 
  5206.282234   5.4078e-17 
   5207.81428    5.851e-17 
  5209.346326   5.8874e-17 
  5210.878372   4.9274e-17 
  5212.410418   6.6796e-17 
  5213.942464   6.2123e-17 
   5215.47451   6.2274e-17 
  5217.006556   5.5124e-17 
  5218.538602   7.2291e-17 
  5220.070648   6.4752e-17 
  5221.602694   5.9335e-17 
   5223.13474   6.1893e-17 
  5224.666786   4.8423e-17 
  5226.198832   6.3614e-17 
  5227.730878   7.1204e-17 
  5229.262924   5.2168e-17 
   5230.79497    6.466e-17 
  5232.327016   5.8519e-17 
  5233.859062   6.3486e-17 
  5235.391108   8.2111e-17 
  5236.923154   6.7206e-17 
    5238.4552   6.5235e-17 
  5239.987246   6.8401e-17 
  5241.519292   5.9415e-17 
  5243.051338   7.1827e-17 
  5244.583384   7.4975e-17 
   5246.11543   7.3116e-17 
  5247.647476   6.1769e-17 
  5249.179522   6.6822e-17 
  5250.711568   5.4842e-17 
  5252.243614   5.7263e-17 
   5253.77566    6.456e-17 
  5255.307706   5.9351e-17 
  5256.839752   5.6926e-17 
  5258.371798   5.8657e-17 
  5259.903844    5.592e-17 
   5261.43589   5.9601e-17 
  5262.967936   6.0015e-17 
  5264.499982   6.7768e-17 
  5266.032028   7.2027e-17 
  5267.564074   5.5145e-17 
   5269.09612   4.7616e-17 
  5270.628166   6.0075e-17 
  5272.160212   6.6145e-17 
  5273.692258   5.9876e-17 
  5275.224304   6.2323e-17 
   5276.75635   7.1696e-17 
  5278.288396   7.3192e-17 
  5279.820442   6.7361e-17 
  5281.352488   6.4528e-17 
  5282.884534   6.9787e-17 
   5284.41658   6.7147e-17 
  5285.948626   6.4452e-17 
  5287.480672   5.4758e-17 
  5289.012718   5.6686e-17 
  5290.544764   5.8934e-17 
   5292.07681   6.1879e-17 
  5293.608856   7.1865e-17 
  5295.140902   7.9224e-17 
  5296.672948   6.8388e-17 
  5298.204994   6.4488e-17 
   5299.73704   7.5036e-17 
  5301.269086    7.366e-17 
  5302.801132   6.7912e-17 
  5304.333178   7.0659e-17 
  5305.865224   7.1403e-17 
   5307.39727   5.9871e-17 
  5308.929316   6.7101e-17 
  5310.461362   7.3312e-17 
  5311.993408   7.7928e-17 
  5313.525454   5.5002e-17 
    5315.0575   6.1025e-17 
  5316.589546   7.3987e-17 
  5318.121592   6.5716e-17 
  5319.653638   4.9145e-17 
  5321.185684   6.7966e-17 
   5322.71773   6.8045e-17 
  5324.249776   7.2061e-17 
  5325.781822   7.5936e-17 
  5327.313868   7.3116e-17 
  5328.845914   5.2911e-17 
   5330.37796   5.3899e-17 
  5331.910006   6.4523e-17 
  5333.442052   6.4677e-17 
  5334.974098   6.1451e-17 
  5336.506144   6.2415e-17 
   5338.03819   7.0618e-17 
  5339.570236   6.0865e-17 
  5341.102282   4.6808e-17 
  5342.634328   5.6737e-17 
  5344.166374    5.986e-17 
   5345.69842   6.9491e-17 
  5347.230466   6.5352e-17 
  5348.762512   7.5892e-17 
  5350.294558   6.0487e-17 
  5351.826604   6.5747e-17 
   5353.35865   7.4307e-17 
  5354.890696   5.0369e-17 
  5356.422742   6.3874e-17 
  5357.954788   6.4434e-17 
  5359.486834   6.3505e-17 
   5361.01888    7.267e-17 
  5362.550926   6.5485e-17 
  5364.082972   5.2363e-17 
  5365.615018   4.3448e-17 
  5367.147064   5.5777e-17 
   5368.67911   5.1087e-17 
  5370.211156   4.9167e-17 
  5371.743202   7.3303e-17 
  5373.275248   4.9372e-17 
  5374.807294   5.8124e-17 
   5376.33934   5.6956e-17 
  5377.871386   6.0352e-17 
  5379.403432   6.3306e-17 
  5380.935478   7.2822e-17 
  5382.467524   5.5313e-17 
   5383.99957   4.8183e-17 
  5385.531616   4.7311e-17 
  5387.063662   6.4401e-17 
  5388.595708   6.0907e-17 
  5390.127754   7.5941e-17 
    5391.6598   5.2904e-17 
  5393.191846   5.7782e-17 
  5394.723892   5.7733e-17 
  5396.255938   6.1019e-17 
  5397.787984   6.7477e-17 
   5399.32003   5.5424e-17 
  5400.852076   6.7436e-17 
  5402.384122   6.0825e-17 
  5403.916168   5.1741e-17 
  5405.448214   6.6241e-17 
   5406.98026   7.2274e-17 
  5408.512306   7.8595e-17 
  5410.044352   6.3334e-17 
  5411.576398    7.093e-17 
  5413.108444    6.917e-17 
   5414.64049    3.339e-17 
  5416.172536   4.2128e-17 
  5417.704582   6.9368e-17 
  5419.236628   4.7934e-17 
  5420.768674   6.4324e-17 
   5422.30072   5.2291e-17 
  5423.832766   7.6545e-17 
  5425.364812   6.1183e-17 
  5426.896858   6.4116e-17 
  5428.428904    6.228e-17 
   5429.96095   4.0729e-17 
  5431.492996   6.4853e-17 
  5433.025042   5.8607e-17 
  5434.557088   5.9382e-17 
  5436.089134   5.7592e-17 
   5437.62118   5.9082e-17 
  5439.153226   8.0121e-17 
  5440.685272   6.1156e-17 
  5442.217318   6.3669e-17 
  5443.749364   6.4837e-17 
   5445.28141   6.2879e-17 
  5446.813456   4.5919e-17 
  5448.345502     3.16e-17 
  5449.877548   5.2091e-17 
  5451.409594   7.2036e-17 
   5452.94164   4.9676e-17 
  5454.473686    5.805e-17 
  5456.005732     6.78e-17 
  5457.537778   6.2306e-17 
  5459.069824   7.7782e-17 
   5460.60187   8.4012e-17 
  5462.133916   1.0399e-16 
  5463.665962   6.8981e-17 
  5465.198008   5.5308e-17 
  5466.730054   3.5656e-17 
    5468.2621   5.4078e-17 
  5469.794146   5.2872e-17 
  5471.326192   4.9637e-17 
  5472.858238   8.5278e-17 
  5474.390284   6.2454e-17 
   5475.92233   7.7693e-17 
  5477.454376    5.079e-17 
  5478.986422   5.8235e-17 
  5480.518468   9.7015e-17 
  5482.050514   7.7351e-17 
   5483.58256   7.4413e-17 
  5485.114606   7.6758e-17 
  5486.646652   6.9295e-17 
  5488.178698   7.2654e-17 
  5489.710744   4.5316e-17 
   5491.24279   4.6857e-17 
  5492.774836   7.3019e-17 
  5494.306882   8.0344e-17 
  5495.838928   5.5019e-17 
  5497.370974   4.7197e-17 
   5498.90302   6.0042e-17 
  5500.435066   6.1001e-17 
  5501.967112   5.0285e-17 
  5503.499158   4.9745e-17 
  5505.031204   4.3844e-17 
   5506.56325   5.4326e-17 
  5508.095296   6.0493e-17 
  5509.627342    5.787e-17 
  5511.159388   5.1743e-17 
  5512.691434   5.5825e-17 
   5514.22348   5.3827e-17 
  5515.755526   5.1642e-17 
  5517.287572   6.2532e-17 
  5518.819618   5.8956e-17 
  5520.351664   5.6844e-17 
   5521.88371    5.698e-17 
  5523.415756   6.6835e-17 
  5524.947802   7.1717e-17 
  5526.479848   6.1812e-17 
  5528.011894   6.2204e-17 
   5529.54394   5.8168e-17 
  5531.075986   6.8106e-17 
  5532.608032   6.3106e-17 
  5534.140078   5.1884e-17 
  5535.672124   4.6849e-17 
   5537.20417   5.3542e-17 
  5538.736216    6.427e-17 
  5540.268262   5.2419e-17 
  5541.800308   5.6999e-17 
  5543.332354   5.5472e-17 
    5544.8644   5.4018e-17 
  5546.396446   4.7218e-17 
  5547.928492   5.0464e-17 
  5549.460538   6.3354e-17 
  5550.992584   6.4776e-17 
   5552.52463   5.7623e-17 
  5554.056676   4.9205e-17 
  5555.588722   5.4601e-17 
  5557.120768    5.881e-17 
  5558.652814   5.9936e-17 
   5560.18486   6.9368e-17 
  5561.716906   6.4481e-17 
  5563.248952   6.3333e-17 
  5564.780998   7.0394e-17 
  5566.313044   6.0574e-17 
   5567.84509   5.5466e-17 
  5569.377136   6.8412e-17 
  5570.909182    6.387e-17 
  5572.441228   5.6976e-17 
  5573.973274   5.5353e-17 
   5575.50532   6.2063e-17 
  5577.037366   5.5179e-17 
  5578.569412   6.2111e-17 
  5580.101458   5.6489e-17 
  5581.633504   5.8021e-17 
   5583.16555   5.7955e-17 
  5584.697596   7.3546e-17 
  5586.229642   7.2394e-17 
  5587.761688   5.8259e-17 
  5589.293734   5.6704e-17 
   5590.82578   5.4219e-17 
  5592.357826   5.4514e-17 
  5593.889872   5.6339e-17 
  5595.421918   6.3448e-17 
  5596.953964   6.6641e-17 
   5598.48601   6.0978e-17 
  5600.018056   4.6525e-17 
  5601.550102   5.1411e-17 
  5603.082148   6.6655e-17 
  5604.614194   6.9645e-17 
   5606.14624   6.6057e-17 
  5607.678286   5.9627e-17 
  5609.210332   5.9519e-17 
  5610.742378   6.1177e-17 
  5612.274424   5.3555e-17 
   5613.80647   5.6256e-17 
  5615.338516   5.7935e-17 
  5616.870562   5.8863e-17 
  5618.402608   5.5733e-17 
  5619.934654   5.9931e-17 
    5621.4667   6.2321e-17 
  5622.998746   5.7674e-17 
  5624.530792   5.2854e-17 
  5626.062838   4.9427e-17 
  5627.594884   5.7504e-17 
   5629.12693   5.9471e-17 
  5630.658976   4.8044e-17 
  5632.191022   5.3954e-17 
  5633.723068   5.5764e-17 
  5635.255114    5.517e-17 
   5636.78716   6.0067e-17 
  5638.319206   6.0108e-17 
  5639.851252   5.6883e-17 
  5641.383298   5.6648e-17 
  5642.915344    6.157e-17 
   5644.44739   6.6229e-17 
  5645.979436   6.7073e-17 
  5647.511482   6.3579e-17 
  5649.043528   5.9785e-17 
  5650.575574    4.962e-17 
   5652.10762   4.5272e-17 
  5653.639666    6.082e-17 
  5655.171712   6.0404e-17 
  5656.703758   5.5736e-17 
  5658.235804   5.7127e-17 
   5659.76785   5.7051e-17 
  5661.299896   5.9966e-17 
  5662.831942   5.7737e-17 
  5664.363988   5.7384e-17 
  5665.896034   7.2214e-17 
   5667.42808    6.406e-17 
  5668.960126   5.2219e-17 
  5670.492172   5.4238e-17 
  5672.024218   5.5873e-17 
  5673.556264   5.0131e-17 
   5675.08831   5.3436e-17 
  5676.620356   5.1905e-17 
  5678.152402   5.8604e-17 
  5679.684448   5.9325e-17 
  5681.216494   5.8564e-17 
   5682.74854   5.1881e-17 
  5684.280586   6.4902e-17 
  5685.812632   6.5261e-17 
  5687.344678   5.5245e-17 
  5688.876724   4.5881e-17 
   5690.40877   4.1383e-17 
  5691.940816   5.2264e-17 
  5693.472862    5.697e-17 
  5695.004908   5.1719e-17 
  5696.536954   5.0526e-17 
     5698.069   5.5178e-17 
  5699.601046   6.1267e-17 
  5701.133092   5.7677e-17 
  5702.665138   4.4635e-17 
  5704.197184    3.712e-17 
   5705.72923   4.5294e-17 
  5707.261276   5.1503e-17 
  5708.793322   5.2248e-17 
  5710.325368   5.4812e-17 
  5711.857414   5.4277e-17 
   5713.38946   5.2292e-17 
  5714.921506   5.7528e-17 
  5716.453552   6.1069e-17 
  5717.985598   5.4949e-17 
  5719.517644   5.4157e-17 
   5721.04969   5.5626e-17 
  5722.581736   5.1783e-17 
  5724.113782   4.8675e-17 
  5725.645828   5.1488e-17 
  5727.177874   5.8358e-17 
   5728.70992   5.6163e-17 
  5730.241966   5.3129e-17 
  5731.774012   5.8208e-17 
  5733.306058   5.3209e-17 
  5734.838104   4.2725e-17 
   5736.37015   4.7677e-17 
  5737.902196   6.0233e-17 
  5739.434242   6.2023e-17 
  5740.966288   5.5316e-17 
  5742.498334   5.1737e-17 
   5744.03038   5.4851e-17 
  5745.562426   5.2978e-17 
  5747.094472   5.4921e-17 
  5748.626518   5.4914e-17 
  5750.158564   5.1515e-17 
   5751.69061   5.0691e-17 
  5753.222656   5.6781e-17 
  5754.754702   5.8985e-17 
  5756.286748   5.4464e-17 
  5757.818794   5.1028e-17 
   5759.35084   5.6452e-17 
  5760.882886   5.9652e-17 
  5762.414932   5.4733e-17 
  5763.946978   5.4002e-17 
  5765.479024   5.0723e-17 
   5767.01107   3.9023e-17 
  5768.543116   4.4501e-17 
  5770.075162   5.1827e-17 
  5771.607208   5.3033e-17 
  5773.139254   5.1365e-17 
    5774.6713   4.6844e-17 
  5776.203346   5.3844e-17 
  5777.735392   5.8371e-17 
  5779.267438   5.3641e-17 
  5780.799484   4.9526e-17 
   5782.33153   5.4359e-17 
  5783.863576   5.6967e-17 
  5785.395622   5.7466e-17 
  5786.927668   5.7347e-17 
  5788.459714   5.8116e-17 
   5789.99176   5.3124e-17 
  5791.523806   4.8692e-17 
  5793.055852   5.1216e-17 
  5794.587898   5.7341e-17 
  5796.119944   5.7146e-17 
   5797.65199   5.4529e-17 
  5799.184036   5.2566e-17 
  5800.716082    5.369e-17 
  5802.248128   4.5198e-17 
  5803.780174   4.4789e-17 
   5805.31222   5.1744e-17 
  5806.844266   4.9728e-17 
  5808.376312   4.7444e-17 
  5809.908358    4.902e-17 
  5811.440404   5.2851e-17 
   5812.97245   4.9915e-17 
  5814.504496   5.4401e-17 
  5816.036542   5.9497e-17 
  5817.568588   5.6249e-17 
  5819.100634   5.6919e-17 
   5820.63268   5.5678e-17 
  5822.164726    5.491e-17 
  5823.696772   5.5208e-17 
  5825.228818   5.0559e-17 
  5826.760864   4.7424e-17 
   5828.29291   4.6147e-17 
  5829.824956   4.8267e-17 
  5831.357002   5.0665e-17 
  5832.889048   5.2044e-17 
  5834.421094   5.0782e-17 
   5835.95314   4.9367e-17 
  5837.485186   5.1815e-17 
  5839.017232   5.2363e-17 
  5840.549278   5.1623e-17 
  5842.081324   5.6668e-17 
   5843.61337   5.5419e-17 
  5845.145416   4.8823e-17 
  5846.677462   4.7754e-17 
  5848.209508   4.5422e-17 
  5849.741554   4.7469e-17 
    5851.2736   5.3215e-17 
  5852.805646   5.7197e-17 
  5854.337692    4.925e-17 
  5855.869738   4.7562e-17 
  5857.401784   5.0576e-17 
   5858.93383   5.0725e-17 
  5860.465876   5.4872e-17 
  5861.997922   5.6915e-17 
  5863.529968   4.7426e-17 
  5865.062014   4.0712e-17 
   5866.59406   3.9963e-17 
  5868.126106   4.2781e-17 
  5869.658152   4.7091e-17 
  5871.190198   4.8119e-17 
  5872.722244   4.9576e-17 
   5874.25429   4.7697e-17 
  5875.786336   4.7518e-17 
  5877.318382   5.0002e-17 
  5878.850428    4.542e-17 
  5880.382474   4.3343e-17 
   5881.91452   4.3607e-17 
  5883.446566   4.3134e-17 
  5884.978612   5.2237e-17 
  5886.510658   5.6483e-17 
  5888.042704      4.8e-17 
   5889.57475   5.4912e-17 
  5891.106796   5.9858e-17 
  5892.638842   6.4447e-17 
  5894.170888    7.519e-17 
  5895.702934   6.9005e-17 
   5897.23498   5.2184e-17 
  5898.767026   5.4674e-17 
  5900.299072   6.8159e-17 
  5901.831118   6.8512e-17 
  5903.363164    6.422e-17 
   5904.89521   5.8976e-17 
  5906.427256     5.11e-17 
  5907.959302   4.6339e-17 
  5909.491348   3.9205e-17 
  5911.023394   4.3963e-17 
   5912.55544   5.5648e-17 
  5914.087486   6.0041e-17 
  5915.619532   5.4193e-17 
  5917.151578   4.8802e-17 
  5918.683624   5.7922e-17 
   5920.21567   5.8744e-17 
  5921.747716   5.1497e-17 
  5923.279762    5.334e-17 
  5924.811808   5.4733e-17 
  5926.343854   5.1761e-17 
    5927.8759   5.3414e-17 
  5929.407946   5.6787e-17 
  5930.939992   5.0923e-17 
  5932.472038   4.7565e-17 
  5934.004084   4.0157e-17 
   5935.53613    3.901e-17 
  5937.068176   4.5056e-17 
  5938.600222   5.1039e-17 
  5940.132268   5.1792e-17 
  5941.664314   5.3477e-17 
   5943.19636   5.3852e-17 
  5944.728406   5.1672e-17 
  5946.260452   5.0209e-17 
  5947.792498   4.8634e-17 
  5949.324544   4.7519e-17 
   5950.85659   4.9359e-17 
  5952.388636    5.083e-17 
  5953.920682   5.5531e-17 
  5955.452728    5.558e-17 
  5956.984774   5.2384e-17 
   5958.51682   4.9646e-17 
  5960.048866   4.9744e-17 
  5961.580912   4.7246e-17 
  5963.112958   4.6729e-17 
  5964.645004   4.6483e-17 
   5966.17705   5.2745e-17 
  5967.709096   5.5692e-17 
  5969.241142   4.4399e-17 
  5970.773188   3.5778e-17 
  5972.305234   3.7245e-17 
   5973.83728   3.9538e-17 
  5975.369326   4.8746e-17 
  5976.901372   4.9563e-17 
  5978.433418   3.8513e-17 
  5979.965464   3.7603e-17 
   5981.49751   4.1617e-17 
  5983.029556   4.3008e-17 
  5984.561602    4.899e-17 
  5986.093648   5.2188e-17 
  5987.625694   5.1207e-17 
   5989.15774   5.3839e-17 
  5990.689786   5.3811e-17 
  5992.221832    5.059e-17 
  5993.753878   4.2696e-17 
  5995.285924   4.5473e-17 
   5996.81797   4.8568e-17 
  5998.350016   4.1977e-17 
  5999.882062   4.0899e-17 
  6001.414108   4.7509e-17 
  6002.946154   5.0173e-17 
    6004.4782   4.8027e-17 
  6006.010246   4.7644e-17 
  6007.542292   5.0025e-17 
  6009.074338   4.9487e-17 
  6010.606384   4.0914e-17 
   6012.13843   4.3537e-17 
  6013.670476   4.4749e-17 
  6015.202522   4.2573e-17 
  6016.734568   4.8573e-17 
  6018.266614   5.1597e-17 
   6019.79866   5.3642e-17 
  6021.330706   5.6367e-17 
  6022.862752   5.2767e-17 
  6024.394798    5.922e-17 
  6025.926844   5.5151e-17 
   6027.45889   4.2474e-17 
  6028.990936   4.5678e-17 
  6030.522982    4.391e-17 
  6032.055028   4.0913e-17 
  6033.587074   4.3619e-17 
   6035.11912   4.6183e-17 
  6036.651166   4.5569e-17 
  6038.183212    4.489e-17 
  6039.715258   4.4937e-17 
  6041.247304   4.1963e-17 
   6042.77935    4.428e-17 
  6044.311396   4.6291e-17 
  6045.843442   4.6932e-17 
  6047.375488   4.7484e-17 
  6048.907534   4.7595e-17 
   6050.43958   5.5388e-17 
  6051.971626   4.6958e-17 
  6053.503672    3.776e-17 
  6055.035718   4.4007e-17 
  6056.567764   5.2254e-17 
   6058.09981   4.8312e-17 
  6059.631856   4.2597e-17 
  6061.163902   4.7955e-17 
  6062.695948   4.6232e-17 
  6064.227994   4.3744e-17 
   6065.76004   4.9661e-17 
  6067.292086   5.0807e-17 
  6068.824132   4.8206e-17 
  6070.356178   4.8707e-17 
  6071.888224   4.9888e-17 
   6073.42027   4.7063e-17 
  6074.952316   4.2884e-17 
  6076.484362   4.8393e-17 
  6078.016408   4.9714e-17 
  6079.548454   4.7644e-17 
    6081.0805   4.2943e-17 
  6082.612546   4.4342e-17 
  6084.144592    5.003e-17 
  6085.676638   5.1372e-17 
  6087.208684   4.8476e-17 
   6088.74073   4.8771e-17 
  6090.272776    4.929e-17 
  6091.804822   4.5426e-17 
  6093.336868   4.2066e-17 
  6094.868914   4.3667e-17 
   6096.40096   4.5465e-17 
  6097.933006   4.9065e-17 
  6099.465052   5.0088e-17 
  6100.997098   4.4932e-17 
  6102.529144   4.9228e-17 
   6104.06119   5.5858e-17 
  6105.593236   5.4088e-17 
  6107.125282   4.6078e-17 
  6108.657328   4.3603e-17 
  6110.189374    5.099e-17 
   6111.72142   4.8693e-17 
  6113.253466   4.7579e-17 
  6114.785512   5.5289e-17 
  6116.317558   5.3294e-17 
  6117.849604   5.1792e-17 
   6119.38165   5.8947e-17 
  6120.913696    5.461e-17 
  6122.445742   5.0057e-17 
  6123.977788   5.1156e-17 
  6125.509834    5.109e-17 
   6127.04188   5.1005e-17 
  6128.573926   5.3912e-17 
  6130.105972   5.1399e-17 
  6131.638018   4.6815e-17 
  6133.170064   5.2502e-17 
   6134.70211   5.2482e-17 
  6136.234156    4.521e-17 
  6137.766202   4.3307e-17 
  6139.298248   3.9637e-17 
  6140.830294   4.1445e-17 
   6142.36234   4.8311e-17 
  6143.894386    4.949e-17 
  6145.426432   5.2894e-17 
  6146.958478   5.0962e-17 
  6148.490524   4.6935e-17 
   6150.02257   4.6955e-17 
  6151.554616   4.7633e-17 
  6153.086662   4.4945e-17 
  6154.618708    3.901e-17 
  6156.150754   3.8841e-17 
    6157.6828    4.303e-17 
  6159.214846   5.1352e-17 
  6160.746892   4.9908e-17 
  6162.278938   4.4935e-17 
  6163.810984   4.6244e-17 
   6165.34303   4.6327e-17 
  6166.875076   4.5334e-17 
  6168.407122   4.7787e-17 
  6169.939168   4.8385e-17 
  6171.471214   5.3802e-17 
   6173.00326   5.2933e-17 
  6174.535306   4.5741e-17 
  6176.067352   4.8401e-17 
  6177.599398   5.3183e-17 
  6179.131444   5.2624e-17 
   6180.66349   4.6399e-17 
  6182.195536    3.934e-17 
  6183.727582   4.3669e-17 
  6185.259628   5.1151e-17 
  6186.791674    5.273e-17 
   6188.32372   4.9057e-17 
  6189.855766   4.8615e-17 
  6191.387812   4.7479e-17 
  6192.919858   4.4073e-17 
  6194.451904   4.1686e-17 
   6195.98395   3.6095e-17 
  6197.515996    3.502e-17 
  6199.048042   4.1207e-17 
  6200.580088    4.128e-17 
  6202.112134   4.4032e-17 
   6203.64418   4.7641e-17 
  6205.176226    4.168e-17 
  6206.708272   4.6252e-17 
  6208.240318   5.5441e-17 
  6209.772364    5.088e-17 
   6211.30441   4.1546e-17 
  6212.836456   4.3238e-17 
  6214.368502   4.5649e-17 
  6215.900548   3.8476e-17 
  6217.432594   3.9088e-17 
   6218.96464   4.2096e-17 
  6220.496686   4.6687e-17 
  6222.028732   5.0645e-17 
  6223.560778   3.8098e-17 
  6225.092824   3.8032e-17 
   6226.62487   4.8157e-17 
  6228.156916   5.3295e-17 
  6229.688962   5.0621e-17 
  6231.221008   4.3329e-17 
  6232.753054   4.2047e-17 
    6234.2851   4.1971e-17 
  6235.817146   3.8796e-17 
  6237.349192   3.9733e-17 
  6238.881238   4.5014e-17 
  6240.413284   4.5867e-17 
   6241.94533   3.8215e-17 
  6243.477376   3.7799e-17 
  6245.009422   4.3477e-17 
  6246.541468     4.56e-17 
  6248.073514     4.78e-17 
   6249.60556   4.9159e-17 
  6251.137606   4.7576e-17 
  6252.669652   4.3169e-17 
  6254.201698   4.1986e-17 
  6255.733744   4.3005e-17 
   6257.26579   3.9759e-17 
  6258.797836   4.0468e-17 
  6260.329882   4.6181e-17 
  6261.861928    4.534e-17 
  6263.393974   4.4859e-17 
   6264.92602   4.5183e-17 
  6266.458066   3.9868e-17 
  6267.990112    3.466e-17 
  6269.522158   3.6213e-17 
  6271.054204   4.2034e-17 
   6272.58625   4.7868e-17 
  6274.118296   4.9526e-17 
  6275.650342   4.2753e-17 
  6277.182388   4.1387e-17 
  6278.714434   4.5344e-17 
   6280.24648   4.2508e-17 
  6281.778526   4.3179e-17 
  6283.310572   4.3671e-17 
  6284.842618   4.2864e-17 
  6286.374664   3.9389e-17 
   6287.90671    4.139e-17 
  6289.438756   3.8135e-17 
  6290.970802   4.2424e-17 
  6292.502848   5.1312e-17 
  6294.034894   5.4609e-17 
   6295.56694   4.9851e-17 
  6297.098986   4.2636e-17 
  6298.631032   5.1717e-17 
  6300.163078   4.7704e-17 
  6301.695124   3.6766e-17 
   6303.22717   3.9193e-17 
  6304.759216   4.0249e-17 
  6306.291262   4.5272e-17 
  6307.823308    5.176e-17 
  6309.355354   4.2342e-17 
    6310.8874    3.946e-17 
  6312.419446   4.4955e-17 
  6313.951492   4.6816e-17 
  6315.483538    4.255e-17 
  6317.015584   3.8182e-17 
   6318.54763   4.1651e-17 
  6320.079676   5.1043e-17 
  6321.611722   4.9413e-17 
  6323.143768   4.1473e-17 
  6324.675814   4.0067e-17 
   6326.20786   4.0813e-17 
  6327.739906   4.4221e-17 
  6329.271952   4.2237e-17 
  6330.803998   4.0902e-17 
  6332.336044   4.3285e-17 
   6333.86809   3.9798e-17 
  6335.400136   3.9186e-17 
  6336.932182   4.3582e-17 
  6338.464228   4.3106e-17 
  6339.996274   4.0997e-17 
   6341.52832   4.1587e-17 
  6343.060366   4.5659e-17 
  6344.592412   4.3351e-17 
  6346.124458    4.094e-17 
  6347.656504   3.8408e-17 
   6349.18855   3.8075e-17 
  6350.720596   3.9188e-17 
  6352.252642   4.0368e-17 
  6353.784688   4.0039e-17 
  6355.316734    3.825e-17 
   6356.84878   3.8196e-17 
  6358.380826   4.6367e-17 
  6359.912872    5.076e-17 
  6361.444918   4.6168e-17 
  6362.976964   4.3167e-17 
   6364.50901   3.9107e-17 
  6366.041056   4.1307e-17 
  6367.573102   4.8955e-17 
  6369.105148   4.8722e-17 
  6370.637194   4.4334e-17 
   6372.16924   4.1598e-17 
  6373.701286   3.9934e-17 
  6375.233332   4.3896e-17 
  6376.765378   4.5518e-17 
  6378.297424   4.0132e-17 
   6379.82947   3.8682e-17 
  6381.361516   4.1954e-17 
  6382.893562   4.2922e-17 
  6384.425608   4.2538e-17 
  6385.957654   3.7627e-17 
    6387.4897   3.9886e-17 
  6389.021746   4.2527e-17 
  6390.553792   3.6379e-17 
  6392.085838   3.4204e-17 
  6393.617884   4.0891e-17 
   6395.14993   4.7142e-17 
  6396.681976   4.7225e-17 
  6398.214022    4.349e-17 
  6399.746068   4.0572e-17 
  6401.278114   4.0713e-17 
   6402.81016   4.2778e-17 
  6404.342206   4.5386e-17 
  6405.874252   4.9227e-17 
  6407.406298   4.8746e-17 
  6408.938344   4.3905e-17 
   6410.47039   3.9514e-17 
  6412.002436   3.8649e-17 
  6413.534482   3.8429e-17 
  6415.066528   4.3673e-17 
  6416.598574   4.7135e-17 
   6418.13062   4.5242e-17 
  6419.662666   4.5973e-17 
  6421.194712   4.7128e-17 
  6422.726758   4.7155e-17 
  6424.258804   4.5811e-17 
   6425.79085   4.4295e-17 
  6427.322896   4.4699e-17 
  6428.854942   3.9199e-17 
  6430.386988   3.4912e-17 
  6431.919034   3.9351e-17 
   6433.45108    4.116e-17 
  6434.983126   3.8355e-17 
  6436.515172   3.8841e-17 
  6438.047218   4.1086e-17 
  6439.579264   4.5881e-17 
   6441.11131   4.2563e-17 
  6442.643356   3.6611e-17 
  6444.175402   4.1775e-17 
  6445.707448    4.352e-17 
  6447.239494   4.2637e-17 
   6448.77154   4.5461e-17 
  6450.303586   4.4622e-17 
  6451.835632   4.5755e-17 
  6453.367678     4.58e-17 
  6454.899724   4.6737e-17 
   6456.43177   4.0587e-17 
  6457.963816   3.6804e-17 
  6459.495862   4.0453e-17 
  6461.027908   4.4154e-17 
  6462.559954   4.4605e-17 
     6464.092    4.162e-17 
  6465.624046   4.3572e-17 
  6467.156092   4.8075e-17 
  6468.688138   4.8901e-17 
  6470.220184   4.5393e-17 
   6471.75223   4.1759e-17 
  6473.284276   4.0591e-17 
  6474.816322   3.8611e-17 
  6476.348368   3.8299e-17 
  6477.880414   4.0287e-17 
   6479.41246   4.2237e-17 
  6480.944506   4.4444e-17 
  6482.476552   4.6177e-17 
  6484.008598   4.0643e-17 
  6485.540644   3.7656e-17 
   6487.07269   4.5406e-17 
  6488.604736   4.9958e-17 
  6490.136782   4.3053e-17 
  6491.668828   3.8112e-17 
  6493.200874   4.1773e-17 
   6494.73292   4.2154e-17 
  6496.264966   4.2071e-17 
  6497.797012   4.4612e-17 
  6499.329058   3.8479e-17 
  6500.861104   3.5848e-17 
   6502.39315    4.247e-17 
  6503.925196   4.5615e-17 
  6505.457242   4.3059e-17 
  6506.989288    4.168e-17 
  6508.521334    4.207e-17 
   6510.05338   4.3669e-17 
  6511.585426   4.4543e-17 
  6513.117472   4.1446e-17 
  6514.649518   4.0317e-17 
  6516.181564   4.4407e-17 
   6517.71361    4.808e-17 
  6519.245656   4.5838e-17 
  6520.777702   4.1629e-17 
  6522.309748   4.2429e-17 
  6523.841794   4.4087e-17 
   6525.37384   4.4472e-17 
  6526.905886   4.6114e-17 
  6528.437932   4.6733e-17 
  6529.969978   4.4801e-17 
  6531.502024   4.1118e-17 
   6533.03407   3.9518e-17 
  6534.566116   4.0152e-17 
  6536.098162   3.9665e-17 
  6537.630208   4.0043e-17 
  6539.162254   4.0975e-17 
    6540.6943    4.254e-17 
  6542.226346   4.4073e-17 
  6543.758392   4.6134e-17 
  6545.290438   4.8601e-17 
  6546.822484    4.621e-17 
   6548.35453   4.1591e-17 
  6549.886576   4.8022e-17 
  6551.418622   5.4967e-17 
  6552.950668   5.1997e-17 
  6554.482714   5.2352e-17 
   6556.01476   5.6789e-17 
  6557.546806   5.5483e-17 
  6559.078852    4.997e-17 
  6560.610898   4.7143e-17 
  6562.142944   4.7618e-17 
   6563.67499   5.4348e-17 
  6565.207036   5.8748e-17 
  6566.739082   5.1743e-17 
  6568.271128   4.4054e-17 
  6569.803174   4.3003e-17 
   6571.33522   4.7872e-17 
  6572.867266   4.5287e-17 
  6574.399312   4.4281e-17 
  6575.931358   4.6392e-17 
  6577.463404   4.2328e-17 
   6578.99545   4.2174e-17 
  6580.527496   4.4904e-17 
  6582.059542   4.3831e-17 
  6583.591588   3.8624e-17 
  6585.123634   3.6511e-17 
   6586.65568   3.8752e-17 
  6588.187726   4.0451e-17 
  6589.719772   4.0972e-17 
  6591.251818   4.1311e-17 
  6592.783864   4.2044e-17 
   6594.31591   4.2666e-17 
  6595.847956   3.9834e-17 
  6597.380002   3.7455e-17 
  6598.912048   3.8182e-17 
  6600.444094   4.0491e-17 
   6601.97614   3.9093e-17 
  6603.508186   3.6125e-17 
  6605.040232   3.7186e-17 
  6606.572278   3.6491e-17 
  6608.104324   3.6677e-17 
   6609.63637   4.0554e-17 
  6611.168416   4.0089e-17 
  6612.700462   3.7755e-17 
  6614.232508   3.8209e-17 
  6615.764554   3.9309e-17 
    6617.2966   4.0414e-17 
  6618.828646   4.0545e-17 
  6620.360692   3.8791e-17 
  6621.892738   3.8458e-17 
  6623.424784   3.8874e-17 
   6624.95683    3.722e-17 
  6626.488876   3.9657e-17 
  6628.020922   4.0217e-17 
  6629.552968   3.8377e-17 
  6631.085014   3.7404e-17 
   6632.61706    3.851e-17 
  6634.149106   4.1432e-17 
  6635.681152   4.0052e-17 
  6637.213198   3.5918e-17 
  6638.745244   3.4766e-17 
   6640.27729   3.7791e-17 
  6641.809336   4.0526e-17 
  6643.341382   3.9317e-17 
  6644.873428   3.6126e-17 
  6646.405474   3.6589e-17 
   6647.93752   3.7721e-17 
  6649.469566   4.0563e-17 
  6651.001612   4.0149e-17 
  6652.533658     3.77e-17 
  6654.065704   3.7659e-17 
   6655.59775   3.6398e-17 
  6657.129796   3.6946e-17 
  6658.661842   3.7671e-17 
  6660.193888   3.7055e-17 
  6661.725934   3.9434e-17 
   6663.25798   4.0976e-17 
  6664.790026   4.2125e-17 
  6666.322072   4.3127e-17 
  6667.854118   4.1586e-17 
  6669.386164   4.0294e-17 
   6670.91821   3.9444e-17 
  6672.450256    4.116e-17 
  6673.982302   4.1964e-17 
  6675.514348   3.8211e-17 
  6677.046394   3.5529e-17 
   6678.57844   3.9396e-17 
  6680.110486   4.0838e-17 
  6681.642532   3.7076e-17 
  6683.174578   3.5883e-17 
  6684.706624    3.504e-17 
   6686.23867   3.7132e-17 
  6687.770716   3.8238e-17 
  6689.302762   3.4886e-17 
  6690.834808   3.4506e-17 
  6692.366854   3.4833e-17 
    6693.8989   3.3417e-17 
  6695.430946   3.4641e-17 
  6696.962992   3.8367e-17 
  6698.495038   3.9101e-17 
  6700.027084    3.827e-17 
   6701.55913   3.8033e-17 
  6703.091176    3.682e-17 
  6704.623222   3.7079e-17 
  6706.155268    3.808e-17 
  6707.687314   3.6998e-17 
   6709.21936   3.3947e-17 
  6710.751406   3.1768e-17 
  6712.283452   3.7004e-17 
  6713.815498   4.1461e-17 
  6715.347544   3.9989e-17 
   6716.87959   3.8841e-17 
  6718.411636   3.6243e-17 
  6719.943682    3.795e-17 
  6721.475728   4.1412e-17 
  6723.007774   4.1904e-17 
   6724.53982   4.2898e-17 
  6726.071866   4.1307e-17 
  6727.603912   3.8909e-17 
  6729.135958   3.8383e-17 
  6730.668004    3.798e-17 
   6732.20005   3.6281e-17 
  6733.732096   3.6345e-17 
  6735.264142    3.873e-17 
  6736.796188   3.9316e-17 
  6738.328234    3.691e-17 
   6739.86028   3.6329e-17 
  6741.392326   3.8323e-17 
  6742.924372   3.7495e-17 
  6744.456418   3.8037e-17 
  6745.988464   4.2762e-17 
   6747.52051   4.2496e-17 
  6749.052556   3.5419e-17 
  6750.584602   3.4848e-17 
  6752.116648   3.7812e-17 
  6753.648694   3.8099e-17 
   6755.18074   3.9429e-17 
  6756.712786   3.9609e-17 
  6758.244832   3.7869e-17 
  6759.776878   4.0737e-17 
  6761.308924   4.0944e-17 
   6762.84097   3.4528e-17 
  6764.373016    3.358e-17 
  6765.905062   3.6599e-17 
  6767.437108   3.5825e-17 
  6768.969154   3.4699e-17 
    6770.5012   3.5821e-17 
  6772.033246   3.7697e-17 
  6773.565292   3.8088e-17 
  6775.097338    3.918e-17 
  6776.629384   4.3337e-17 
   6778.16143   4.3517e-17 
  6779.693476   3.9132e-17 
  6781.225522   3.7624e-17 
  6782.757568   3.9108e-17 
  6784.289614   4.1081e-17 
   6785.82166   4.1214e-17 
  6787.353706   3.9654e-17 
  6788.885752   3.8839e-17 
  6790.417798   3.8371e-17 
  6791.949844   3.7569e-17 
   6793.48189   4.2683e-17 
  6795.013936   4.4395e-17 
  6796.545982   3.8229e-17 
  6798.078028   3.7083e-17 
  6799.610074   3.9497e-17 
   6801.14212   4.0144e-17 
  6802.674166   3.8825e-17 
  6804.206212   4.0292e-17 
  6805.738258   4.5207e-17 
  6807.270304   4.1562e-17 
   6808.80235   3.4856e-17 
  6810.334396   3.6536e-17 
  6811.866442   3.9332e-17 
  6813.398488   3.7969e-17 
  6814.930534   3.6491e-17 
   6816.46258   3.6163e-17 
  6817.994626   3.7369e-17 
  6819.526672   4.0188e-17 
  6821.058718   3.8062e-17 
  6822.590764   3.9481e-17 
   6824.12281   4.6458e-17 
  6825.654856    4.529e-17 
  6827.186902   4.1214e-17 
  6828.718948   4.0214e-17 
  6830.250994   3.7701e-17 
   6831.78304   3.7435e-17 
  6833.315086   4.0861e-17 
  6834.847132   4.3584e-17 
  6836.379178    4.123e-17 
  6837.911224   3.6528e-17 
   6839.44327   3.7189e-17 
  6840.975316   3.6661e-17 
  6842.507362   3.3691e-17 
  6844.039408   3.5169e-17 
  6845.571454   3.8251e-17 
    6847.1035   4.1685e-17 
  6848.635546   3.9501e-17 
  6850.167592   3.7095e-17 
  6851.699638   3.7605e-17 
  6853.231684   3.5223e-17 
   6854.76373   3.3733e-17 
  6856.295776   3.3835e-17 
  6857.827822   3.3752e-17 
  6859.359868   3.8859e-17 
  6860.891914   4.7762e-17 
   6862.42396   4.9126e-17 
  6863.956006     4.13e-17 
  6865.488052   3.8613e-17 
  6867.020098   3.8388e-17 
  6868.552144   3.8836e-17 
   6870.08419   4.0239e-17 
  6871.616236   3.6687e-17 
  6873.148282   3.4107e-17 
  6874.680328   3.4077e-17 
  6876.212374   3.6166e-17 
   6877.74442    3.546e-17 
  6879.276466   3.2214e-17 
  6880.808512   3.3172e-17 
  6882.340558   3.8347e-17 
  6883.872604   4.2201e-17 
   6885.40465   4.3079e-17 
  6886.936696   3.9731e-17 
  6888.468742   3.1206e-17 
  6890.000788   3.0033e-17 
  6891.532834   3.4866e-17 
   6893.06488   3.8854e-17 
  6894.596926   3.8902e-17 
  6896.128972   3.7706e-17 
  6897.661018   3.6427e-17 
  6899.193064   3.4647e-17 
   6900.72511   3.4777e-17 
  6902.257156   3.5015e-17 
  6903.789202   3.5554e-17 
  6905.321248   3.5342e-17 
  6906.853294   3.2439e-17 
   6908.38534   2.8662e-17 
  6909.917386   2.5986e-17 
  6911.449432   2.7534e-17 
  6912.981478   3.2258e-17 
  6914.513524   3.4022e-17 
   6916.04557   3.3401e-17 
  6917.577616   3.2609e-17 
  6919.109662   3.3252e-17 
  6920.641708   3.5089e-17 
  6922.173754   3.6627e-17 
    6923.7058   3.4128e-17 
  6925.237846   3.2092e-17 
  6926.769892    3.321e-17 
  6928.301938   3.1924e-17 
  6929.833984   3.2815e-17 
   6931.36603   3.4983e-17 
  6932.898076   3.6026e-17 
  6934.430122    3.745e-17 
  6935.962168   3.6127e-17 
  6937.494214    3.597e-17 
   6939.02626   3.6169e-17 
  6940.558306   3.4307e-17 
  6942.090352   3.4786e-17 
  6943.622398   3.6232e-17 
  6945.154444   3.6881e-17 
   6946.68649   3.4158e-17 
  6948.218536   3.2871e-17 
  6949.750582   3.3577e-17 
  6951.282628   3.3198e-17 
  6952.814674   3.3954e-17 
   6954.34672   3.4852e-17 
  6955.878766   3.2143e-17 
  6957.410812   3.3146e-17 
  6958.942858   4.2145e-17 
  6960.474904   4.3701e-17 
   6962.00695   3.8606e-17 
  6963.538996   3.4033e-17 
  6965.071042   3.2864e-17 
  6966.603088   3.3047e-17 
  6968.135134   3.3539e-17 
   6969.66718   3.4057e-17 
  6971.199226   3.1991e-17 
  6972.731272   3.4952e-17 
  6974.263318    4.363e-17 
  6975.795364   4.6066e-17 
   6977.32741   4.0673e-17 
  6978.859456   3.8317e-17 
  6980.391502   3.5996e-17 
  6981.923548     3.26e-17 
  6983.455594   2.9315e-17 
   6984.98764   2.8228e-17 
  6986.519686   3.2336e-17 
  6988.051732   3.0438e-17 
  6989.583778   2.9543e-17 
  6991.115824   3.2616e-17 
   6992.64787   3.4626e-17 
  6994.179916   3.6516e-17 
  6995.711962   3.8801e-17 
  6997.244008   4.1956e-17 
  6998.776054   4.1515e-17 
    7000.3081   3.5524e-17 
  7001.840146   3.1283e-17 
  7003.372192   3.2948e-17 
  7004.904238   3.4344e-17 
  7006.436284   3.3414e-17 
   7007.96833   3.5153e-17 
  7009.500376   3.6939e-17 
  7011.032422   3.5321e-17 
  7012.564468   3.3884e-17 
  7014.096514   3.3767e-17 
   7015.62856   3.2883e-17 
  7017.160606   3.2194e-17 
  7018.692652   3.0572e-17 
  7020.224698   3.1917e-17 
  7021.756744   3.1848e-17 
   7023.28879   2.9852e-17 
  7024.820836   3.2348e-17 
  7026.352882   3.5494e-17 
  7027.884928   3.2053e-17 
  7029.416974   2.9439e-17 
   7030.94902   3.1711e-17 
  7032.481066   3.5901e-17 
  7034.013112    3.559e-17 
  7035.545158    3.022e-17 
  7037.077204   2.9124e-17 
   7038.60925   3.3389e-17 
  7040.141296   3.8459e-17 
  7041.673342   3.9899e-17 
  7043.205388   3.5992e-17 
  7044.737434   3.6227e-17 
   7046.26948   3.9681e-17 
  7047.801526   4.2057e-17 
  7049.333572   4.2162e-17 
  7050.865618   4.3435e-17 
  7052.397664   3.8944e-17 
   7053.92971    3.363e-17 
  7055.461756   3.4494e-17 
  7056.993802   3.4279e-17 
  7058.525848   3.1978e-17 
  7060.057894   3.0215e-17 
   7061.58994   3.1115e-17 
  7063.121986   3.4307e-17 
  7064.654032   3.4338e-17 
  7066.186078   3.0784e-17 
  7067.718124   3.2976e-17 
   7069.25017    3.668e-17 
  7070.782216   3.6651e-17 
  7072.314262   3.4785e-17 
  7073.846308   3.3779e-17 
  7075.378354   3.0641e-17 
    7076.9104   2.9449e-17 
  7078.442446   2.8759e-17 
  7079.974492   2.8354e-17 
  7081.506538   2.9667e-17 
  7083.038584   2.9897e-17 
   7084.57063   3.0296e-17 
  7086.102676   2.9232e-17 
  7087.634722    3.006e-17 
  7089.166768   3.0065e-17 
  7090.698814   3.0333e-17 
   7092.23086   3.3102e-17 
  7093.762906   3.1712e-17 
  7095.294952   3.0596e-17 
  7096.826998   3.1068e-17 
  7098.359044   2.9343e-17 
   7099.89109   2.9764e-17 
  7101.423136   3.3443e-17 
  7102.955182   3.4889e-17 
  7104.487228   3.4174e-17 
  7106.019274   2.8195e-17 
   7107.55132   2.8702e-17 
  7109.083366   3.4529e-17 
  7110.615412    3.458e-17 
  7112.147458   3.0737e-17 
  7113.679504   3.1254e-17 
   7115.21155   3.2701e-17 
  7116.743596   3.1539e-17 
  7118.275642   3.0464e-17 
  7119.807688    3.285e-17 
  7121.339734   3.1439e-17 
   7122.87178   2.9731e-17 
  7124.403826   3.3498e-17 
  7125.935872   3.4476e-17 
  7127.467918   3.4209e-17 
  7128.999964   3.1878e-17 
   7130.53201   3.0422e-17 
  7132.064056   3.2436e-17 
  7133.596102   3.1454e-17 
  7135.128148   2.8919e-17 
  7136.660194   2.7377e-17 
   7138.19224    3.265e-17 
  7139.724286   3.2607e-17 
  7141.256332   3.0403e-17 
  7142.788378   3.3539e-17 
  7144.320424   3.3371e-17 
   7145.85247   2.9891e-17 
  7147.384516   2.8742e-17 
  7148.916562   3.0336e-17 
  7150.448608   3.1148e-17 
  7151.980654   2.8828e-17 
    7153.5127   2.6784e-17 
  7155.044746   2.7203e-17 
  7156.576792   2.8535e-17 
  7158.108838   2.9322e-17 
  7159.640884   3.0313e-17 
   7161.17293   3.0611e-17 
  7162.704976   3.1073e-17 
  7164.237022   3.2694e-17 
  7165.769068   3.1048e-17 
  7167.301114   3.3354e-17 
   7168.83316   3.5888e-17 
  7170.365206    3.287e-17 
  7171.897252   3.0671e-17 
  7173.429298   3.0761e-17 
  7174.961344   2.9918e-17 
   7176.49339   3.0636e-17 
  7178.025436   2.9235e-17 
  7179.557482   2.6886e-17 
  7181.089528   2.7878e-17 
  7182.621574   3.0629e-17 
   7184.15362   2.8609e-17 
  7185.685666   3.0751e-17 
  7187.217712   3.0116e-17 
  7188.749758   2.7742e-17 
  7190.281804   3.0054e-17 
   7191.81385   2.9001e-17 
  7193.345896   2.7693e-17 
  7194.877942   3.0387e-17 
  7196.409988    3.099e-17 
  7197.942034   3.1112e-17 
   7199.47408   3.0231e-17 
  7201.006126   3.0333e-17 
  7202.538172   2.8164e-17 
  7204.070218   2.8365e-17 
  7205.602264   2.8146e-17 
   7207.13431   2.5934e-17 
  7208.666356   2.7486e-17 
  7210.198402   2.8416e-17 
  7211.730448   2.9832e-17 
  7213.262494   3.1806e-17 
   7214.79454   3.0327e-17 
  7216.326586   3.2048e-17 
  7217.858632   2.9692e-17 
  7219.390678    2.791e-17 
  7220.922724   2.9361e-17 
   7222.45477   2.8669e-17 
  7223.986816   2.7805e-17 
  7225.518862   2.8669e-17 
  7227.050908   3.0935e-17 
  7228.582954    3.089e-17 
     7230.115    2.709e-17 
  7231.647046    2.698e-17 
  7233.179092    3.324e-17 
  7234.711138   3.5516e-17 
  7236.243184   3.0449e-17 
   7237.77523   3.1697e-17 
  7239.307276   3.3367e-17 
  7240.839322   3.2684e-17 
  7242.371368   3.5242e-17 
  7243.903414   3.9386e-17 
   7245.43546   4.0116e-17 
  7246.967506   3.7621e-17 
  7248.499552   3.4555e-17 
  7250.031598   3.8714e-17 
  7251.563644   3.6748e-17 
   7253.09569    2.904e-17 
  7254.627736   2.7187e-17 
  7256.159782   2.7714e-17 
  7257.691828   2.9773e-17 
  7259.223874   3.2733e-17 
   7260.75592   2.9083e-17 
  7262.287966   2.9983e-17 
  7263.820012   3.3072e-17 
  7265.352058   3.3429e-17 
  7266.884104   3.2786e-17 
   7268.41615   3.2174e-17 
  7269.948196   3.4645e-17 
  7271.480242    3.507e-17 
  7273.012288   2.9197e-17 
  7274.544334   2.8384e-17 
   7276.07638   2.9051e-17 
  7277.608426    2.379e-17 
  7279.140472   2.8403e-17 
  7280.672518   2.9668e-17 
  7282.204564   2.8052e-17 
   7283.73661   2.6072e-17 
  7285.268656   3.2769e-17 
  7286.800702   3.2275e-17 
  7288.332748   2.5937e-17 
  7289.864794   2.7243e-17 
   7291.39684   3.3493e-17 
  7292.928886   3.2074e-17 
  7294.460932   2.9647e-17 
  7295.992978   3.0053e-17 
  7297.525024   3.0161e-17 
   7299.05707   3.0327e-17 
  7300.589116   3.3734e-17 
  7302.121162   3.5931e-17 
  7303.653208    3.474e-17 
  7305.185254   2.8445e-17 
    7306.7173    2.972e-17 
  7308.249346   3.1075e-17 
  7309.781392   3.1541e-17 
  7311.313438   3.0234e-17 
  7312.845484   2.6924e-17 
   7314.37753   2.7997e-17 
  7315.909576   3.3529e-17 
  7317.441622   3.2857e-17 
  7318.973668   3.2456e-17 
  7320.505714   3.2344e-17 
   7322.03776   3.0149e-17 
  7323.569806   3.1762e-17 
  7325.101852   3.5549e-17 
  7326.633898   3.3367e-17 
  7328.165944   2.7284e-17 
   7329.69799   2.5883e-17 
  7331.230036    2.905e-17 
  7332.762082    3.371e-17 
  7334.294128    3.318e-17 
  7335.826174   3.0278e-17 
   7337.35822   2.4368e-17 
  7338.890266   2.7622e-17 
  7340.422312   3.4064e-17 
  7341.954358    3.297e-17 
  7343.486404   3.1735e-17 
   7345.01845   3.0663e-17 
  7346.550496   3.0079e-17 
  7348.082542   3.0169e-17 
  7349.614588   2.8588e-17 
  7351.146634   2.6277e-17 
   7352.67868   2.5513e-17 
  7354.210726    2.533e-17 
  7355.742772   2.3431e-17 
  7357.274818   2.7499e-17 
  7358.806864   3.1837e-17 
   7360.33891   2.9503e-17 
  7361.870956   2.9047e-17 
  7363.403002   2.9682e-17 
  7364.935048   2.4515e-17 
  7366.467094   2.2653e-17 
   7367.99914   2.5641e-17 
  7369.531186   2.5404e-17 
  7371.063232   2.5972e-17 
  7372.595278   2.9862e-17 
  7374.127324   2.9554e-17 
   7375.65937   2.9144e-17 
  7377.191416   2.9721e-17 
  7378.723462   2.8675e-17 
  7380.255508   2.9747e-17 
  7381.787554   3.0538e-17 
    7383.3196   2.7846e-17 
  7384.851646   2.6582e-17 
  7386.383692   3.3212e-17 
  7387.915738   4.0123e-17 
  7389.447784    3.739e-17 
   7390.97983   3.1035e-17 
  7392.511876   2.8938e-17 
  7394.043922   2.9368e-17 
  7395.575968   3.0597e-17 
  7397.108014   3.3531e-17 
   7398.64006    3.291e-17 
  7400.172106   3.3559e-17 
  7401.704152   3.5927e-17 
  7403.236198   3.1192e-17 
  7404.768244   2.5759e-17 
   7406.30029   2.6953e-17 
  7407.832336   2.9776e-17 
  7409.364382    3.071e-17 
  7410.896428   2.8279e-17 
  7412.428474   2.6141e-17 
   7413.96052   2.8748e-17 
  7415.492566   3.1038e-17 
  7417.024612   3.1957e-17 
  7418.556658    3.012e-17 
  7420.088704   2.7238e-17 
   7421.62075   2.9311e-17 
  7423.152796   3.2089e-17 
  7424.684842   2.9877e-17 
  7426.216888   2.8687e-17 
  7427.748934   3.0218e-17 
   7429.28098   2.9422e-17 
  7430.813026   2.9299e-17 
  7432.345072    2.978e-17 
  7433.877118   2.7758e-17 
  7435.409164   3.0829e-17 
   7436.94121   3.4439e-17 
  7438.473256   3.1213e-17 
  7440.005302   3.0791e-17 
  7441.537348   3.0967e-17 
  7443.069394   2.9794e-17 
   7444.60144   2.9609e-17 
  7446.133486   2.9531e-17 
  7447.665532    2.914e-17 
  7449.197578   3.2424e-17 
  7450.729624   3.3444e-17 
   7452.26167   3.2694e-17 
  7453.793716   3.2466e-17 
  7455.325762   3.1927e-17 
  7456.857808   3.2427e-17 
  7458.389854   3.1475e-17 
    7459.9219   2.9695e-17 
  7461.453946   3.0092e-17 
  7462.985992   3.3365e-17 
  7464.518038   3.1667e-17 
  7466.050084   2.7612e-17 
   7467.58213   2.9769e-17 
  7469.114176   3.3685e-17 
  7470.646222    3.434e-17 
  7472.178268   2.9671e-17 
  7473.710314   2.8483e-17 
   7475.24236   3.1814e-17 
  7476.774406   3.5864e-17 
  7478.306452   3.3748e-17 
  7479.838498   3.0964e-17 
  7481.370544   2.8106e-17 
   7482.90259   2.8601e-17 
  7484.434636    3.179e-17 
  7485.966682   3.0768e-17 
  7487.498728   3.2408e-17 
  7489.030774   3.2279e-17 
   7490.56282   3.6127e-17 
  7492.094866   3.9696e-17 
  7493.626912   4.1303e-17 
  7495.158958   4.9025e-17 
  7496.691004   4.2513e-17 
   7498.22305   3.3407e-17 
  7499.755096   4.2979e-17 
  7501.287142   4.3221e-17 
  7502.819188    3.336e-17 
  7504.351234   2.6755e-17 
   7505.88328   3.3342e-17 
  7507.415326    4.149e-17 
  7508.947372   3.8183e-17 
  7510.479418   4.5256e-17 
  7512.011464   5.1429e-17 
   7513.54351    4.201e-17 
  7515.075556   3.5611e-17 
  7516.607602   4.7975e-17 
  7518.139648   5.3639e-17 
  7519.671694   4.3657e-17 
   7521.20374   3.9944e-17 
  7522.735786   4.0686e-17 
  7524.267832   3.6342e-17 
  7525.799878   3.1539e-17 
  7527.331924   3.2508e-17 
   7528.86397   3.4276e-17 
  7530.396016    3.742e-17 
  7531.928062   4.5504e-17 
  7533.460108   5.2835e-17 
  7534.992154   4.2988e-17 
    7536.5242   2.8706e-17 
  7538.056246   2.7627e-17 
  7539.588292   2.7013e-17 
  7541.120338    3.202e-17 
  7542.652384   3.6566e-17 
   7544.18443   3.2293e-17 
  7545.716476   2.8285e-17 
  7547.248522    3.023e-17 
  7548.780568   2.9153e-17 
  7550.312614   3.0447e-17 
   7551.84466    3.219e-17 
  7553.376706    2.968e-17 
  7554.908752   2.8803e-17 
  7556.440798    3.005e-17 
  7557.972844   3.0887e-17 
   7559.50489   3.0037e-17 
  7561.036936   2.9162e-17 
  7562.568982   2.8722e-17 
  7564.101028   2.9274e-17 
  7565.633074   3.0579e-17 
   7567.16512   2.7046e-17 
  7568.697166   2.5649e-17 
  7570.229212   2.7596e-17 
  7571.761258   3.1434e-17 
  7573.293304   3.0382e-17 
   7574.82535   3.0405e-17 
  7576.357396    3.167e-17 
  7577.889442   3.1607e-17 
  7579.421488   3.5561e-17 
  7580.953534    4.037e-17 
   7582.48558   3.6182e-17 
  7584.017626   3.1509e-17 
  7585.549672   3.0481e-17 
  7587.081718   3.0118e-17 
  7588.613764   3.0856e-17 
   7590.14581   3.0125e-17 
  7591.677856   2.9028e-17 
  7593.209902   3.4088e-17 
  7594.741948   4.0386e-17 
  7596.273994   4.9068e-17 
   7597.80604   5.5365e-17 
  7599.338086   6.0268e-17 
  7600.870132   6.6356e-17 
  7602.402178   5.6812e-17 
  7603.934224   5.4689e-17 
   7605.46627   4.4691e-17 
  7606.998316    3.364e-17 
  7608.530362    3.514e-17 
  7610.062408   3.1122e-17 
  7611.594454   2.9997e-17 
    7613.1265   2.6441e-17 
  7614.658546   2.6406e-17 
  7616.190592   2.7418e-17 
  7617.722638   2.7349e-17 
  7619.254684   3.6419e-17 
   7620.78673   3.9688e-17 
  7622.318776   3.3294e-17 
  7623.850822   3.3221e-17 
  7625.382868    3.454e-17 
  7626.914914   3.1127e-17 
   7628.44696   2.5234e-17 
  7629.979006   3.2509e-17 
  7631.511052    3.431e-17 
  7633.043098   2.9921e-17 
  7634.575144   2.2903e-17 
   7636.10719   2.5014e-17 
  7637.639236   3.1628e-17 
  7639.171282   3.3783e-17 
  7640.703328   3.1038e-17 
  7642.235374    3.002e-17 
   7643.76742   3.1702e-17 
  7645.299466   2.8096e-17 
  7646.831512   2.2711e-17 
  7648.363558   2.1557e-17 
  7649.895604   2.6733e-17 
   7651.42765   3.1767e-17 
  7652.959696   3.2081e-17 
  7654.491742     2.92e-17 
  7656.023788   2.8301e-17 
  7657.555834   3.2612e-17 
   7659.08788    3.313e-17 
  7660.619926   3.1365e-17 
  7662.151972   3.1422e-17 
  7663.684018   2.8912e-17 
  7665.216064   2.6338e-17 
   7666.74811   2.7381e-17 
  7668.280156   2.7485e-17 
  7669.812202   2.7184e-17 
  7671.344248   2.6952e-17 
  7672.876294   2.4776e-17 
   7674.40834   2.6586e-17 
  7675.940386   3.1915e-17 
  7677.472432   3.3596e-17 
  7679.004478   3.0717e-17 
  7680.536524    2.859e-17 
   7682.06857   2.7056e-17 
  7683.600616   2.6392e-17 
  7685.132662   2.9112e-17 
  7686.664708   2.9866e-17 
  7688.196754   2.7258e-17 
    7689.7288   2.7414e-17 
  7691.260846    3.232e-17 
  7692.792892   3.2587e-17 
  7694.324938   2.8833e-17 
  7695.856984     3.06e-17 
   7697.38903   3.1986e-17 
  7698.921076   3.2445e-17 
  7700.453122   3.2968e-17 
  7701.985168   3.0035e-17 
  7703.517214   2.8404e-17 
   7705.04926   2.6653e-17 
  7706.581306   2.8853e-17 
  7708.113352   3.2404e-17 
  7709.645398   3.0906e-17 
  7711.177444   3.2568e-17 
   7712.70949   2.8859e-17 
  7714.241536   2.2624e-17 
  7715.773582   2.8168e-17 
  7717.305628   3.5541e-17 
  7718.837674   3.4404e-17 
   7720.36972   2.9064e-17 
  7721.901766   3.0425e-17 
  7723.433812   3.2269e-17 
  7724.965858   3.1311e-17 
  7726.497904   2.9182e-17 
   7728.02995   2.9538e-17 
  7729.561996   3.1116e-17 
  7731.094042   3.1422e-17 
  7732.626088   2.7815e-17 
  7734.158134   2.5765e-17 
   7735.69018   2.8203e-17 
  7737.222226   2.7996e-17 
  7738.754272   2.9484e-17 
  7740.286318   2.8388e-17 
  7741.818364   2.4561e-17 
   7743.35041   2.6479e-17 
  7744.882456   2.5431e-17 
  7746.414502   2.3756e-17 
  7747.946548   2.2851e-17 
  7749.478594   2.6064e-17 
   7751.01064   2.9045e-17 
  7752.542686   2.4708e-17 
  7754.074732    2.566e-17 
  7755.606778   3.0149e-17 
  7757.138824   2.9875e-17 
   7758.67087   2.6595e-17 
  7760.202916   2.8567e-17 
  7761.734962   2.9593e-17 
  7763.267008    2.505e-17 
  7764.799054   2.4413e-17 
    7766.3311   2.8596e-17 
  7767.863146   3.2432e-17 
  7769.395192   3.4048e-17 
  7770.927238   3.1157e-17 
  7772.459284   2.7834e-17 
   7773.99133   2.9587e-17 
  7775.523376   3.0032e-17 
  7777.055422   2.7678e-17 
  7778.587468   2.4676e-17 
  7780.119514   2.7173e-17 
   7781.65156   3.0096e-17 
  7783.183606   2.6608e-17 
  7784.715652   2.5364e-17 
  7786.247698   2.7204e-17 
  7787.779744   2.8712e-17 
   7789.31179   3.2849e-17 
  7790.843836   3.2894e-17 
  7792.375882   2.8707e-17 
  7793.907928   2.7217e-17 
  7795.439974   3.2379e-17 
   7796.97202   3.0991e-17 
  7798.504066   2.8048e-17 
  7800.036112   2.7121e-17 
  7801.568158   2.7868e-17 
  7803.100204   2.9503e-17 
   7804.63225   2.9085e-17 
  7806.164296   2.7024e-17 
  7807.696342   2.8955e-17 
  7809.228388   2.9884e-17 
  7810.760434   2.7251e-17 
   7812.29248   2.5774e-17 
  7813.824526   2.8591e-17 
  7815.356572   3.1864e-17 
  7816.888618   3.3795e-17 
  7818.420664   2.8815e-17 
   7819.95271    2.409e-17 
  7821.484756   2.1373e-17 
  7823.016802   2.2748e-17 
  7824.548848   2.5205e-17 
  7826.080894   2.6902e-17 
   7827.61294   2.5081e-17 
  7829.144986   2.5256e-17 
  7830.677032   2.6968e-17 
  7832.209078   2.7113e-17 
  7833.741124   2.8054e-17 
   7835.27317   2.7257e-17 
  7836.805216   2.7595e-17 
  7838.337262   2.6593e-17 
  7839.869308   2.7023e-17 
  7841.401354   2.7974e-17 
    7842.9334   2.6871e-17 
  7844.465446   2.5909e-17 
  7845.997492   3.0819e-17 
  7847.529538   3.6402e-17 
  7849.061584   3.2865e-17 
   7850.59363   2.3395e-17 
  7852.125676   2.1129e-17 
  7853.657722   2.5365e-17 
  7855.189768   3.2473e-17 
  7856.721814   4.0408e-17 
   7858.25386   3.6783e-17 
  7859.785906   3.0493e-17 
  7861.317952    2.947e-17 
  7862.849998   3.0432e-17 
  7864.382044   2.9286e-17 
   7865.91409   2.6361e-17 
  7867.446136   2.4831e-17 
  7868.978182   2.5545e-17 
  7870.510228    2.791e-17 
  7872.042274   2.7846e-17 
   7873.57432   2.7443e-17 
  7875.106366   3.0946e-17 
  7876.638412   3.0915e-17 
  7878.170458   2.7791e-17 
  7879.702504   3.1219e-17 
   7881.23455    3.213e-17 
  7882.766596   2.6731e-17 
  7884.298642   2.4883e-17 
  7885.830688   2.7192e-17 
  7887.362734   2.2856e-17 
   7888.89478   1.8757e-17 
  7890.426826   2.4178e-17 
  7891.958872   2.9997e-17 
  7893.490918   3.0812e-17 
  7895.022964   3.0746e-17 
   7896.55501   3.0695e-17 
  7898.087056   2.8207e-17 
  7899.619102   2.4827e-17 
  7901.151148   2.5236e-17 
  7902.683194   2.3965e-17 
   7904.21524   2.3419e-17 
  7905.747286    2.699e-17 
  7907.279332   2.7095e-17 
  7908.811378   2.6931e-17 
  7910.343424   2.9841e-17 
   7911.87547   2.8217e-17 
  7913.407516   2.3063e-17 
  7914.939562   2.4062e-17 
  7916.471608   2.7397e-17 
  7918.003654   2.4635e-17 
    7919.5357   2.6428e-17 
  7921.067746   3.0863e-17 
  7922.599792   2.8931e-17 
  7924.131838   2.6721e-17 
  7925.663884   2.6804e-17 
   7927.19593   3.2059e-17 
  7928.727976   3.4984e-17 
  7930.260022   3.4613e-17 
  7931.792068   3.2996e-17 
  7933.324114   2.6649e-17 
   7934.85616   2.3588e-17 
  7936.388206    2.608e-17 
  7937.920252   2.7556e-17 
  7939.452298    2.369e-17 
  7940.984344   2.2158e-17 
   7942.51639   2.3889e-17 
  7944.048436   2.2981e-17 
  7945.580482    2.341e-17 
  7947.112528    2.317e-17 
  7948.644574   2.3441e-17 
   7950.17662   2.4268e-17 
  7951.708666   2.5209e-17 
  7953.240712   2.9269e-17 
  7954.772758    2.957e-17 
  7956.304804   2.3659e-17 
   7957.83685   2.4726e-17 
  7959.368896   3.5501e-17 
  7960.900942   4.0834e-17 
  7962.432988   3.7386e-17 
  7963.965034   3.5795e-17 
   7965.49708   3.4099e-17 
  7967.029126    2.758e-17 
  7968.561172   2.6588e-17 
  7970.093218   2.6649e-17 
  7971.625264    3.002e-17 
   7973.15731   2.7977e-17 
  7974.689356   2.3346e-17 
  7976.221402   2.6195e-17 
  7977.753448    2.854e-17 
  7979.285494   2.7234e-17 
   7980.81754   2.8301e-17 
  7982.349586    2.591e-17 
  7983.881632   2.5692e-17 
  7985.413678   2.7802e-17 
  7986.945724   3.2927e-17 
   7988.47777   3.2486e-17 
  7990.009816   2.7037e-17 
  7991.541862   2.6523e-17 
  7993.073908   2.7738e-17 
  7994.605954   3.4443e-17 
     7996.138   3.4903e-17 
  7997.670046   2.8948e-17 
  7999.202092   2.6406e-17 
  8000.734138   2.5064e-17 
  8002.266184   2.3504e-17 
   8003.79823   2.7341e-17 
  8005.330276   2.7351e-17 
  8006.862322    2.434e-17 
  8008.394368   2.3316e-17 
  8009.926414   2.5916e-17 
   8011.45846   2.5911e-17 
  8012.990506    2.303e-17 
  8014.522552   2.4185e-17 
  8016.054598   2.6508e-17 
  8017.586644   2.8389e-17 
   8019.11869   3.0263e-17 
  8020.650736    3.153e-17 
  8022.182782   3.0044e-17 
  8023.714828   2.8954e-17 
  8025.246874   2.8919e-17 
   8026.77892   2.8645e-17 
  8028.310966   2.8689e-17 
  8029.843012   2.8606e-17 
  8031.375058   2.7811e-17 
  8032.907104   2.4285e-17 
   8034.43915   2.4288e-17 
  8035.971196   2.4222e-17 
  8037.503242   2.2687e-17 
  8039.035288   2.2527e-17 
  8040.567334   2.3625e-17 
   8042.09938    2.038e-17 
  8043.631426   2.0761e-17 
  8045.163472   2.6075e-17 
  8046.695518   2.6551e-17 
  8048.227564   2.5066e-17 
   8049.75961   2.4131e-17 
  8051.291656   2.3647e-17 
  8052.823702   2.2672e-17 
  8054.355748   2.2674e-17 
  8055.887794   2.5381e-17 
   8057.41984   2.7769e-17 
  8058.951886    2.547e-17 
  8060.483932   2.7378e-17 
  8062.015978   3.1027e-17 
  8063.548024   2.5371e-17 
   8065.08007   2.3518e-17 
  8066.612116    2.467e-17 
  8068.144162   2.2446e-17 
  8069.676208   2.4068e-17 
  8071.208254   2.3605e-17 
    8072.7403   2.5296e-17 
  8074.272346   3.0063e-17 
  8075.804392    2.695e-17 
  8077.336438   2.3307e-17 
  8078.868484   2.5274e-17 
   8080.40053   2.8637e-17 
  8081.932576   2.8329e-17 
  8083.464622   2.4594e-17 
  8084.996668   2.3864e-17 
  8086.528714   2.6048e-17 
   8088.06076   2.7993e-17 
  8089.592806   2.8331e-17 
  8091.124852   2.6294e-17 
  8092.656898   2.5829e-17 
  8094.188944   2.4541e-17 
   8095.72099   2.1805e-17 
  8097.253036   2.0347e-17 
  8098.785082   2.2273e-17 
  8100.317128   2.1505e-17 
  8101.849174   1.7944e-17 
   8103.38122   2.0823e-17 
  8104.913266   2.4127e-17 
  8106.445312   2.6047e-17 
  8107.977358   2.6746e-17 
  8109.509404   2.4551e-17 
   8111.04145   2.4914e-17 
  8112.573496   2.7256e-17 
  8114.105542   2.5946e-17 
  8115.637588   2.3429e-17 
  8117.169634   2.3158e-17 
   8118.70168   2.3939e-17 
  8120.233726   2.4422e-17 
  8121.765772   2.2736e-17 
  8123.297818   2.0876e-17 
  8124.829864   2.1376e-17 
   8126.36191   2.3952e-17 
  8127.893956   2.8022e-17 
  8129.426002   2.6126e-17 
  8130.958048   2.1231e-17 
  8132.490094   2.3509e-17 
   8134.02214    2.518e-17 
  8135.554186   2.1552e-17 
  8137.086232   1.8621e-17 
  8138.618278   2.3016e-17 
  8140.150324    2.909e-17 
   8141.68237   2.8835e-17 
  8143.214416   2.6829e-17 
  8144.746462   2.4186e-17 
  8146.278508   2.2334e-17 
  8147.810554   2.4659e-17 
    8149.3426   2.4998e-17 
  8150.874646   2.6476e-17 
  8152.406692   2.6487e-17 
  8153.938738   2.3351e-17 
  8155.470784   2.5074e-17 
   8157.00283   2.6722e-17 
  8158.534876   2.3783e-17 
  8160.066922   2.6259e-17 
  8161.598968   2.6914e-17 
  8163.131014   2.4787e-17 
   8164.66306    2.729e-17 
  8166.195106   2.6533e-17 
  8167.727152   2.3884e-17 
  8169.259198   2.3999e-17 
  8170.791244   2.3401e-17 
   8172.32329   2.4793e-17 
  8173.855336   2.3785e-17 
  8175.387382   2.2793e-17 
  8176.919428   2.5052e-17 
  8178.451474   2.9579e-17 
   8179.98352   2.9335e-17 
  8181.515566   2.9269e-17 
  8183.047612   2.8237e-17 
  8184.579658   2.4688e-17 
  8186.111704   1.9787e-17 
   8187.64375   2.2279e-17 
  8189.175796   2.5436e-17 
  8190.707842   2.0781e-17 
  8192.239888   1.8125e-17 
  8193.771934   1.9354e-17 
   8195.30398   2.0691e-17 
  8196.836026   2.1427e-17 
  8198.368072   2.1882e-17 
  8199.900118   2.0618e-17 
  8201.432164    2.419e-17 
   8202.96421   2.3983e-17 
  8204.496256   2.1312e-17 
  8206.028302   2.0896e-17 
  8207.560348   2.1094e-17 
  8209.092394   2.0826e-17 
   8210.62444   2.0028e-17 
  8212.156486   2.2563e-17 
  8213.688532   2.5402e-17 
  8215.220578    2.515e-17 
  8216.752624   2.4908e-17 
   8218.28467   2.5378e-17 
  8219.816716    2.175e-17 
  8221.348762   2.0855e-17 
  8222.880808   2.1041e-17 
  8224.412854   2.4017e-17 
    8225.9449   2.6536e-17 
  8227.476946   2.7591e-17 
  8229.008992   2.5423e-17 
  8230.541038   2.1589e-17 
  8232.073084   2.1034e-17 
   8233.60513   2.3633e-17 
  8235.137176   2.2913e-17 
  8236.669222   2.2135e-17 
  8238.201268   2.3451e-17 
  8239.733314   2.2534e-17 
   8241.26536   2.4336e-17 
  8242.797406   2.6709e-17 
  8244.329452   2.3869e-17 
  8245.861498   2.4352e-17 
  8247.393544   2.4941e-17 
   8248.92559   2.1363e-17 
  8250.457636   1.9672e-17 
  8251.989682   2.2667e-17 
  8253.521728   2.7045e-17 
  8255.053774   2.5318e-17 
   8256.58582   2.4216e-17 
  8258.117866   2.6308e-17 
  8259.649912   2.4825e-17 
  8261.181958   2.3397e-17 
  8262.714004   2.3145e-17 
   8264.24605    2.224e-17 
  8265.778096   2.3281e-17 
  8267.310142   2.5261e-17 
  8268.842188   2.4774e-17 
  8270.374234   2.3924e-17 
   8271.90628   2.4479e-17 
  8273.438326    2.539e-17 
  8274.970372   2.8826e-17 
  8276.502418    2.907e-17 
  8278.034464   3.0605e-17 
   8279.56651   3.0359e-17 
  8281.098556   2.6536e-17 
  8282.630602   2.2204e-17 
  8284.162648   1.9246e-17 
  8285.694694   1.4944e-17 
   8287.22674   1.9431e-17 
  8288.758786   2.5733e-17 
  8290.290832   2.0389e-17 
  8291.822878   2.0349e-17 
  8293.354924   2.9425e-17 
   8294.88697   3.4679e-17 
  8296.419016   2.9847e-17 
  8297.951062    2.493e-17 
  8299.483108   2.7204e-17 
  8301.015154   2.7902e-17 
    8302.5472   2.3195e-17 
  8304.079246   2.2626e-17 
  8305.611292   2.6453e-17 
  8307.143338   2.6069e-17 
  8308.675384   2.2132e-17 
   8310.20743    1.759e-17 
  8311.739476   1.8639e-17 
  8313.271522   2.4852e-17 
  8314.803568   2.7298e-17 
  8316.335614    2.381e-17 
   8317.86766   1.7548e-17 
  8319.399706   1.6306e-17 
  8320.931752   1.7392e-17 
  8322.463798   1.6821e-17 
  8323.995844   1.8593e-17 
   8325.52789   2.1159e-17 
  8327.059936   2.4746e-17 
  8328.591982   2.5453e-17 
  8330.124028   2.1602e-17 
  8331.656074   2.1036e-17 
   8333.18812   2.2812e-17 
  8334.720166   2.0969e-17 
  8336.252212    1.879e-17 
  8337.784258   2.0387e-17 
  8339.316304   2.0918e-17 
   8340.84835   1.5594e-17 
  8342.380396   1.7918e-17 
  8343.912442   2.4666e-17 
  8345.444488   2.1897e-17 
  8346.976534   1.9544e-17 
   8348.50858    2.061e-17 
  8350.040626   2.0283e-17 
  8351.572672   2.5527e-17 
  8353.104718   2.6814e-17 
  8354.636764   2.2829e-17 
   8356.16881    2.011e-17 
  8357.700856   2.0501e-17 
  8359.232902   1.9655e-17 
  8360.764948   1.6617e-17 
  8362.296994   1.6274e-17 
   8363.82904   2.1844e-17 
  8365.361086   2.5162e-17 
  8366.893132   2.4735e-17 
  8368.425178   2.2746e-17 
  8369.957224   2.3947e-17 
   8371.48927   2.5788e-17 
  8373.021316   2.5779e-17 
  8374.553362    2.475e-17 
  8376.085408    2.371e-17 
  8377.617454   2.1694e-17 
    8379.1495   1.8545e-17 
  8380.681546   2.2659e-17 
  8382.213592   2.8325e-17 
  8383.745638   2.6919e-17 
  8385.277684   2.3681e-17 
   8386.80973   2.1648e-17 
  8388.341776   2.0302e-17 
  8389.873822   1.9643e-17 
  8391.405868   1.7673e-17 
  8392.937914    2.673e-17 
   8394.46996   3.8481e-17 
  8396.002006   2.8702e-17 
  8397.534052   2.0349e-17 
  8399.066098   2.1911e-17 
  8400.598144   2.3993e-17 
   8402.13019   2.5126e-17 
  8403.662236   2.3774e-17 
  8405.194282   2.4662e-17 
  8406.726328   2.7992e-17 
  8408.258374   2.6551e-17 
   8409.79042   2.7458e-17 
  8411.322466   2.5802e-17 
  8412.854512   2.1212e-17 
  8414.386558   1.7959e-17 
  8415.918604   1.9339e-17 
   8417.45065   2.2895e-17 
  8418.982696   2.2777e-17 
  8420.514742   2.6274e-17 
  8422.046788   2.6145e-17 
  8423.578834    2.237e-17 
   8425.11088   2.1145e-17 
  8426.642926   2.5273e-17 
  8428.174972   1.6014e-17 
  8429.707018   8.7978e-18 
  8431.239064   1.6412e-17 
   8432.77111   2.6572e-17 
  8434.303156    2.472e-17 
  8435.835202   1.9378e-17 
  8437.367248   1.8684e-17 
  8438.899294   2.1491e-17 
   8440.43134   2.3692e-17 
  8441.963386   2.0199e-17 
  8443.495432   1.9929e-17 
  8445.027478   2.4067e-17 
  8446.559524   2.7385e-17 
   8448.09157   2.2227e-17 
  8449.623616   1.9126e-17 
  8451.155662   2.6825e-17 
  8452.687708   2.6724e-17 
  8454.219754   1.9486e-17 
    8455.7518   2.1417e-17 
  8457.283846   2.3091e-17 
  8458.815892   2.5831e-17 
  8460.347938   2.6996e-17 
  8461.879984   1.5336e-17 
   8463.41203   1.9085e-17 
  8464.944076    2.394e-17 
  8466.476122   1.8538e-17 
  8468.008168   1.9333e-17 
  8469.540214   2.3208e-17 
   8471.07226   2.3645e-17 
  8472.604306    2.322e-17 
  8474.136352   2.4777e-17 
  8475.668398   2.4226e-17 
  8477.200444   2.1501e-17 
   8478.73249   1.8688e-17 
  8480.264536   1.8986e-17 
  8481.796582   2.3592e-17 
  8483.328628   2.6681e-17 
  8484.860674   2.4443e-17 
   8486.39272   2.2978e-17 
  8487.924766   2.2404e-17 
  8489.456812    2.105e-17 
  8490.988858   2.1808e-17 
  8492.520904   2.1154e-17 
   8494.05295   2.2038e-17 
  8495.584996   2.4427e-17 
  8497.117042   2.0999e-17 
  8498.649088   1.6553e-17 
  8500.181134   1.6446e-17 
   8501.71318   2.2378e-17 
  8503.245226   3.0887e-17 
  8504.777272     2.94e-17 
  8506.309318   2.1858e-17 
  8507.841364   2.1941e-17 
   8509.37341   2.4267e-17 
  8510.905456     2.19e-17 
  8512.437502   2.0666e-17 
  8513.969548    2.233e-17 
  8515.501594   2.2469e-17 
   8517.03364   1.9786e-17 
  8518.565686   2.1362e-17 
  8520.097732   2.4165e-17 
  8521.629778   2.2246e-17 
  8523.161824   2.1491e-17 
   8524.69387   2.3014e-17 
  8526.225916   2.0433e-17 
  8527.757962   1.8969e-17 
  8529.290008   1.8272e-17 
  8530.822054   2.1318e-17 
    8532.3541   2.5695e-17 
  8533.886146   2.3689e-17 
  8535.418192   1.9854e-17 
  8536.950238   2.0963e-17 
  8538.482284   2.2913e-17 
   8540.01433   2.2879e-17 
  8541.546376   2.2306e-17 
  8543.078422   2.1454e-17 
  8544.610468    2.166e-17 
  8546.142514   2.4263e-17 
   8547.67456   2.5362e-17 
  8549.206606   2.5044e-17 
  8550.738652   2.2279e-17 
  8552.270698   2.0223e-17 
  8553.802744   1.9702e-17 
   8555.33479   2.0984e-17 
  8556.866836   2.1691e-17 
  8558.398882   1.9324e-17 
  8559.930928   1.8481e-17 
  8561.462974   1.8832e-17 
   8562.99502   1.6855e-17 
  8564.527066   1.5479e-17 
  8566.059112   1.8069e-17 
  8567.591158   1.9918e-17 
  8569.123204   2.5437e-17 
   8570.65525   2.6183e-17 
  8572.187296   1.9722e-17 
  8573.719342   2.1155e-17 
  8575.251388   2.4568e-17 
  8576.783434   2.6936e-17 
   8578.31548    2.381e-17 
  8579.847526   2.0911e-17 
  8581.379572   2.3716e-17 
  8582.911618   2.2707e-17 
  8584.443664   2.1702e-17 
   8585.97571    2.062e-17 
  8587.507756    2.411e-17 
  8589.039802   2.3723e-17 
  8590.571848   2.1572e-17 
  8592.103894   2.3021e-17 
   8593.63594   2.3672e-17 
  8595.167986   2.2906e-17 
  8596.700032    1.862e-17 
  8598.232078   1.9803e-17 
  8599.764124   2.2602e-17 
   8601.29617   2.3619e-17 
  8602.828216   2.3556e-17 
  8604.360262   2.4968e-17 
  8605.892308   2.3507e-17 
  8607.424354     2.29e-17 
    8608.9564   2.3438e-17 
  8610.488446   2.5277e-17 
  8612.020492   2.4176e-17 
  8613.552538   2.1871e-17 
  8615.084584   1.9755e-17 
   8616.61663   2.3275e-17 
  8618.148676   2.7297e-17 
  8619.680722   2.6518e-17 
  8621.212768   2.5247e-17 
  8622.744814   1.9941e-17 
   8624.27686   2.0465e-17 
  8625.808906   2.4152e-17 
  8627.340952   2.2221e-17 
  8628.872998   2.4311e-17 
  8630.405044   2.7637e-17 
   8631.93709   2.6597e-17 
  8633.469136   2.6881e-17 
  8635.001182   3.0355e-17 
  8636.533228   2.6872e-17 
  8638.065274   2.1784e-17 
   8639.59732   2.3845e-17 
  8641.129366   2.4272e-17 
  8642.661412   2.3877e-17 
  8644.193458   2.5365e-17 
  8645.725504   2.3862e-17 
   8647.25755   2.0452e-17 
  8648.789596   1.7015e-17 
  8650.321642   1.7986e-17 
  8651.853688   1.8835e-17 
  8653.385734   1.7967e-17 
   8654.91778   1.8405e-17 
  8656.449826   2.5367e-17 
  8657.981872   3.0726e-17 
  8659.513918   1.9487e-17 
  8661.045964   1.1853e-17 
   8662.57801   1.9477e-17 
  8664.110056   2.5646e-17 
  8665.642102   2.3223e-17 
  8667.174148   2.1543e-17 
  8668.706194   2.4627e-17 
   8670.23824   2.5897e-17 
  8671.770286   2.3783e-17 
  8673.302332   2.1499e-17 
  8674.834378   1.8423e-17 
  8676.366424   1.6575e-17 
   8677.89847   1.8625e-17 
  8679.430516   2.0279e-17 
  8680.962562     2.04e-17 
  8682.494608   2.1796e-17 
  8684.026654   2.3546e-17 
    8685.5587   1.9545e-17 
  8687.090746   1.8392e-17 
  8688.622792   2.0176e-17 
  8690.154838   2.2104e-17 
  8691.686884   2.3324e-17 
   8693.21893   1.9412e-17 
  8694.750976   2.0919e-17 
  8696.283022   2.7651e-17 
  8697.815068   2.5858e-17 
  8699.347114   2.1012e-17 
   8700.87916   2.2331e-17 
  8702.411206   2.4945e-17 
  8703.943252   2.1566e-17 
  8705.475298   1.8478e-17 
  8707.007344   2.4745e-17 
   8708.53939   2.5036e-17 
  8710.071436   2.0117e-17 
  8711.603482   1.9808e-17 
  8713.135528   2.2334e-17 
  8714.667574   2.2331e-17 
   8716.19962   2.1116e-17 
  8717.731666   2.2205e-17 
  8719.263712   2.3463e-17 
  8720.795758   2.0795e-17 
  8722.327804   2.0153e-17 
   8723.85985   2.3474e-17 
  8725.391896   2.6373e-17 
  8726.923942   2.1684e-17 
  8728.455988   2.0087e-17 
  8729.988034   2.1169e-17 
   8731.52008   1.9421e-17 
  8733.052126   2.1025e-17 
  8734.584172   2.2657e-17 
  8736.116218    1.953e-17 
  8737.648264   2.0508e-17 
   8739.18031    2.356e-17 
  8740.712356   2.3183e-17 
  8742.244402   2.1054e-17 
  8743.776448   1.8941e-17 
  8745.308494   1.8055e-17 
   8746.84054   1.9407e-17 
  8748.372586   2.3795e-17 
  8749.904632   2.5278e-17 
  8751.436678   2.2618e-17 
  8752.968724   2.1759e-17 
   8754.50077   2.3754e-17 
  8756.032816   2.5068e-17 
  8757.564862   1.9881e-17 
  8759.096908   1.3237e-17 
  8760.628954   2.1137e-17 
     8762.161   3.3106e-17 
  8763.693046   2.9912e-17 
  8765.225092   2.9086e-17 
  8766.757138   2.4784e-17 
  8768.289184   2.0568e-17 
   8769.82123   1.5131e-17 
  8771.353276   2.0218e-17 
  8772.885322   2.5887e-17 
  8774.417368   1.5957e-17 
  8775.949414   9.7941e-18 
   8777.48146   8.3351e-18 
  8779.013506   1.2507e-17 
  8780.545552   1.9292e-17 
  8782.077598   2.1795e-17 
  8783.609644   2.2587e-17 
   8785.14169   2.5297e-17 
  8786.673736   2.8463e-17 
  8788.205782   2.5378e-17 
  8789.737828   2.0907e-17 
  8791.269874   1.8188e-17 
   8792.80192   2.4119e-17 
  8794.333966   2.4891e-17 
  8795.866012   2.0821e-17 
  8797.398058   2.0176e-17 
  8798.930104   2.3654e-17 
   8800.46215   2.3901e-17 
  8801.994196    2.169e-17 
  8803.526242   2.1888e-17 
  8805.058288   2.3475e-17 
  8806.590334   2.2523e-17 
   8808.12238   1.9894e-17 
  8809.654426   1.8289e-17 
  8811.186472   2.0852e-17 
  8812.718518   2.4547e-17 
  8814.250564   2.4321e-17 
   8815.78261   2.2241e-17 
  8817.314656   2.4317e-17 
  8818.846702   2.5371e-17 
  8820.378748   2.5766e-17 
  8821.910794   2.4632e-17 
   8823.44284   2.2374e-17 
  8824.974886   3.5003e-17 
  8826.506932   4.7015e-17 
  8828.038978   3.4665e-17 
  8829.571024   1.8638e-17 
   8831.10307   1.8417e-17 
  8832.635116    2.629e-17 
  8834.167162   2.9889e-17 
  8835.699208   2.7202e-17 
  8837.231254   2.8682e-17 
    8838.7633   2.7712e-17 
  8840.295346    1.882e-17 
  8841.827392    1.572e-17 
  8843.359438   2.0474e-17 
  8844.891484   2.5265e-17 
   8846.42353   2.3398e-17 
  8847.955576   2.0878e-17 
  8849.487622   2.3034e-17 
  8851.019668   2.1368e-17 
  8852.551714   1.9251e-17 
   8854.08376   2.2112e-17 
  8855.615806   2.2581e-17 
  8857.147852   2.0577e-17 
  8858.679898   1.9658e-17 
  8860.211944   1.9919e-17 
   8861.74399   1.9548e-17 
  8863.276036   2.1376e-17 
  8864.808082    2.275e-17 
  8866.340128   1.7951e-17 
  8867.872174   1.3888e-17 
   8869.40422   1.7754e-17 
  8870.936266   2.1611e-17 
  8872.468312   2.0671e-17 
  8874.000358    1.998e-17 
  8875.532404   1.8553e-17 
   8877.06445   1.9495e-17 
  8878.596496    2.153e-17 
  8880.128542   2.4476e-17 
  8881.660588   2.4262e-17 
  8883.192634   1.3497e-17 
   8884.72468   1.7592e-17 
  8886.256726   2.4327e-17 
  8887.788772   1.6106e-17 
  8889.320818   1.8501e-17 
  8890.852864   2.7481e-17 
   8892.38491   2.5961e-17 
  8893.916956   1.9913e-17 
  8895.449002   1.9337e-17 
  8896.981048   2.0339e-17 
  8898.513094   2.1143e-17 
   8900.04514    1.982e-17 
  8901.577186   1.9207e-17 
  8903.109232   1.7556e-17 
  8904.641278   1.9871e-17 
  8906.173324   1.9979e-17 
   8907.70537   1.7081e-17 
  8909.237416   1.9131e-17 
  8910.769462   2.0402e-17 
  8912.301508   1.9157e-17 
  8913.833554   1.4359e-17 
    8915.3656   1.6483e-17 
  8916.897646   1.8052e-17 
  8918.429692   2.1642e-17 
  8919.961738   2.3532e-17 
  8921.493784   1.5214e-17 
   8923.02583   2.0194e-17 
  8924.557876   2.2328e-17 
  8926.089922   2.0073e-17 
  8927.621968   1.9263e-17 
  8929.154014   1.8969e-17 
   8930.68606   1.5671e-17 
  8932.218106   1.5602e-17 
  8933.750152   2.0649e-17 
  8935.282198   2.2808e-17 
  8936.814244     2.55e-17 
   8938.34629   2.6594e-17 
  8939.878336   2.5653e-17 
  8941.410382     2.53e-17 
  8942.942428   2.0453e-17 
  8944.474474   2.0925e-17 
   8946.00652   2.4768e-17 
  8947.538566   1.9001e-17 
  8949.070612    1.343e-17 
  8950.602658    1.654e-17 
  8952.134704   1.8474e-17 
   8953.66675    2.069e-17 
  8955.198796   1.9699e-17 
  8956.730842   2.1654e-17 
  8958.262888   1.8833e-17 
  8959.794934   1.5509e-17 
   8961.32698   1.8613e-17 
  8962.859026   1.9284e-17 
  8964.391072   1.7108e-17 
  8965.923118    1.962e-17 
  8967.455164   1.9204e-17 
   8968.98721   1.7324e-17 
  8970.519256   1.5409e-17 
  8972.051302   1.5271e-17 
  8973.583348   1.5151e-17 
  8975.115394   1.5114e-17 
   8976.64744   1.7398e-17 
  8978.179486   2.0494e-17 
  8979.711532   1.8573e-17 
  8981.243578   1.9363e-17 
  8982.775624   1.9115e-17 
   8984.30767   1.7253e-17 
  8985.839716   1.9462e-17 
  8987.371762   1.7655e-17 
  8988.903808   1.9692e-17 
  8990.435854   2.3128e-17 
    8991.9679   1.7766e-17 
  8993.499946   1.4495e-17 
  8995.031992    1.591e-17 
  8996.564038   1.3876e-17 
  8998.096084   9.4787e-18 
   8999.62813   1.2419e-17 
  9001.160176   2.0797e-17 
  9002.692222   2.5586e-17 
  9004.224268   2.6667e-17 
  9005.756314   2.3269e-17 
   9007.28836   1.7968e-17 
  9008.820406   1.5604e-17 
  9010.352452   1.5166e-17 
  9011.884498   1.5403e-17 
  9013.416544   1.7453e-17 
   9014.94859    2.052e-17 
  9016.480636   1.9007e-17 
  9018.012682    1.474e-17 
  9019.544728   1.4597e-17 
  9021.076774   1.8397e-17 
   9022.60882   1.9894e-17 
  9024.140866   1.8281e-17 
  9025.672912    1.738e-17 
  9027.204958   1.6557e-17 
  9028.737004   1.5206e-17 
   9030.26905   1.4435e-17 
  9031.801096   1.6265e-17 
  9033.333142   1.6523e-17 
  9034.865188   1.3171e-17 
  9036.397234   1.0299e-17 
   9037.92928   1.3534e-17 
  9039.461326   1.6356e-17 
  9040.993372   1.4413e-17 
  9042.525418   1.5045e-17 
  9044.057464   1.7681e-17 
   9045.58951   1.4751e-17 
  9047.121556    1.184e-17 
  9048.653602     1.64e-17 
  9050.185648   1.8521e-17 
  9051.717694   1.4717e-17 
   9053.24974   1.3413e-17 
  9054.781786   1.5539e-17 
  9056.313832   1.5927e-17 
  9057.845878   1.8429e-17 
  9059.377924   1.7978e-17 
   9060.90997   1.6634e-17 
  9062.442016   1.7942e-17 
  9063.974062   1.9602e-17 
  9065.506108   1.8575e-17 
  9067.038154   1.7002e-17 
    9068.5702   1.7255e-17 
  9070.102246   1.8719e-17 
  9071.634292   1.9646e-17 
  9073.166338    1.742e-17 
  9074.698384   1.7414e-17 
   9076.23043   1.7563e-17 
  9077.762476   1.6456e-17 
  9079.294522   1.4239e-17 
  9080.826568   1.1418e-17 
  9082.358614   1.1491e-17 
   9083.89066   1.3082e-17 
  9085.422706   1.4531e-17 
  9086.954752   1.7303e-17 
  9088.486798   1.8629e-17 
  9090.018844   1.2697e-17 
   9091.55089    1.245e-17 
  9093.082936   1.5769e-17 
  9094.614982   1.2741e-17 
  9096.147028   1.5909e-17 
  9097.679074   2.1298e-17 
   9099.21112   1.8685e-17 
  9100.743166   1.6378e-17 
  9102.275212   1.6076e-17 
  9103.807258   1.1504e-17 
  9105.339304   1.5271e-17 
   9106.87135   1.5829e-17 
  9108.403396    1.415e-17 
  9109.935442   1.3408e-17 
  9111.467488   1.2177e-17 
  9112.999534   1.0272e-17 
   9114.53158   1.1135e-17 
  9116.063626   1.2954e-17 
  9117.595672   1.6815e-17 
  9119.127718   1.7624e-17 
  9120.659764   1.3909e-17 
   9122.19181   1.3463e-17 
  9123.723856   1.7196e-17 
  9125.255902   1.8084e-17 
  9126.787948   1.4365e-17 
  9128.319994    1.456e-17 
   9129.85204   1.7288e-17 
  9131.384086   1.5762e-17 
  9132.916132   1.5294e-17 
  9134.448178     1.52e-17 
  9135.980224   1.4676e-17 
   9137.51227   1.5777e-17 
  9139.044316   1.8888e-17 
  9140.576362   1.7166e-17 
  9142.108408   1.3114e-17 
  9143.640454   1.1279e-17 
    9145.1725   1.2521e-17 
  9146.704546   1.5193e-17 
  9148.236592   1.6522e-17 
  9149.768638   1.7315e-17 
  9151.300684   2.1997e-17 
   9152.83273   2.1553e-17 
  9154.364776   1.5228e-17 
  9155.896822   1.1765e-17 
  9157.428868    9.768e-18 
  9158.960914   1.1822e-17 
   9160.49296   1.3369e-17 
  9162.025006   1.3463e-17 
  9163.557052   1.3429e-17 
  9165.089098   1.3274e-17 
  9166.621144   1.2355e-17 
   9168.15319   1.3152e-17 
  9169.685236   1.5806e-17 
  9171.217282   1.7342e-17 
  9172.749328   1.7697e-17 
  9174.281374   1.4746e-17 
   9175.81342   1.1011e-17 
  9177.345466   1.1837e-17 
  9178.877512   1.6136e-17 
  9180.409558   1.7244e-17 
  9181.941604   1.6277e-17 
   9183.47365   1.6742e-17 
  9185.005696   1.5426e-17 
  9186.537742   1.4502e-17 
  9188.069788   1.4083e-17 
  9189.601834   1.2555e-17 
   9191.13388   1.3568e-17 
  9192.665926   1.6148e-17 
  9194.197972   1.6906e-17 
  9195.730018   1.5597e-17 
  9197.262064   1.5236e-17 
   9198.79411   1.6652e-17 
  9200.326156   1.6748e-17 
  9201.858202   1.7911e-17 
  9203.390248   2.0839e-17 
  9204.922294   1.8067e-17 
   9206.45434   1.1946e-17 
  9207.986386   1.0338e-17 
  9209.518432   1.3755e-17 
  9211.050478   1.6236e-17 
  9212.582524   1.4865e-17 
   9214.11457   1.6852e-17 
  9215.646616   1.6765e-17 
  9217.178662   1.3572e-17 
  9218.710708   1.3739e-17 
  9220.242754   1.7021e-17 
    9221.7748   1.6945e-17 
  9223.306846   1.7971e-17 
  9224.838892   1.7487e-17 
  9226.370938    1.391e-17 
  9227.902984    1.484e-17 
   9229.43503   1.7403e-17 
  9230.967076    1.813e-17 
  9232.499122    1.119e-17 
  9234.031168   9.7595e-18 
  9235.563214   1.3148e-17 
   9237.09526   1.6789e-17 
  9238.627306   1.4578e-17 
  9240.159352   1.3362e-17 
  9241.691398     1.36e-17 
  9243.223444   1.1926e-17 
   9244.75549   1.2751e-17 
  9246.287536   1.5699e-17 
  9247.819582   1.7452e-17 
  9249.351628   1.6286e-17 
  9250.883674   1.3156e-17 
   9252.41572   1.2133e-17 
  9253.947766   1.4843e-17 
  9255.479812   1.6383e-17 
  9257.011858   1.5422e-17 
  9258.543904   1.5145e-17 
   9260.07595   1.2991e-17 
  9261.607996    1.029e-17 
  9263.140042   1.3185e-17 
  9264.672088   1.5301e-17 
  9266.204134   1.5007e-17 
   9267.73618   1.2801e-17 
  9269.268226   1.4109e-17 
  9270.800272   1.5222e-17 
  9272.332318   1.3586e-17 
  9273.864364   1.5067e-17 
   9275.39641   1.8685e-17 
  9276.928456   1.8575e-17 
  9278.460502   1.4708e-17 
  9279.992548   1.0255e-17 
  9281.524594   1.3931e-17 
   9283.05664   1.7457e-17 
  9284.588686   1.7907e-17 
  9286.120732   1.4787e-17 
  9287.652778   1.5386e-17 
  9289.184824   1.7024e-17 
   9290.71687   2.1427e-17 
  9292.248916   1.8721e-17 
  9293.780962   1.5381e-17 
  9295.313008   1.7584e-17 
  9296.845054   1.3966e-17 
    9298.3771   1.7106e-17 
  9299.909146   2.3157e-17 
  9301.441192   1.9541e-17 
  9302.973238   1.4136e-17 
  9304.505284   1.8333e-17 
   9306.03733   3.6942e-17 
  9307.569376   3.7669e-17 
  9309.101422   1.7802e-17 
  9310.633468   4.6886e-19 
  9312.165514   4.7029e-18 
   9313.69756   1.0293e-17 
  9315.229606   1.5841e-17 
  9316.761652   1.8672e-17 
  9318.293698   1.3501e-17 
  9319.825744   3.0431e-17 
   9321.35779   4.0681e-17 
  9322.889836     2.69e-17 
  9324.421882   5.6519e-18 
  9325.953928  -1.8832e-18 
  9327.485974   2.9222e-18 
   9329.01802   2.0281e-17 
  9330.550066   3.5963e-17 
  9332.082112    2.924e-17 
  9333.614158   1.4392e-17 
  9335.146204   2.0813e-17 
   9336.67825   2.7363e-17 
  9338.210296   2.0083e-17 
  9339.742342   1.6189e-17 
  9341.274388   2.5794e-17 
  9342.806434   3.7664e-17 
   9344.33848   3.1485e-17 
  9345.870526   1.5737e-17 
  9347.402572   1.1565e-17 
  9348.934618   1.4957e-17 
  9350.466664   1.4958e-17 
   9351.99871   1.2235e-17 
  9353.530756   1.9138e-17 
  9355.062802   2.2464e-17 
  9356.594848   1.1376e-17 
  9358.126894   4.7697e-18 
   9359.65894   4.0805e-18 
  9361.190986  -2.7635e-19 
  9362.723032   -4.494e-18 
  9364.255078   5.8361e-18 
  9365.787124   3.3292e-17 
   9367.31917   4.5333e-17 
  9368.851216   3.6351e-17 
  9370.383262   4.8078e-17 
  9371.915308   6.3794e-17 
  9373.447354   3.4326e-17 
    9374.9794  -5.2159e-18 
  9376.511446  -1.4734e-17 
  9378.043492  -1.6609e-17 
  9379.575538  -2.1352e-19 
  9381.107584   1.9131e-17 
   9382.63963   9.9625e-18 
  9384.171676   9.2743e-18 
  9385.703722   1.7597e-17 
  9387.235768   1.6361e-17 
  9388.767814   1.0159e-17 
   9390.29986   9.8138e-18 
  9391.831906   1.1679e-17 
  9393.363952   7.8838e-18 
  9394.895998    5.661e-18 
  9396.428044   7.3716e-18 
   9397.96009   1.2709e-17 
  9399.492136    9.045e-18 
  9401.024182   7.5194e-18 
  9402.556228   1.0889e-17 
  9404.088274   1.2992e-17 
   9405.62032   1.1349e-17 
  9407.152366   1.1871e-17 
  9408.684412   1.1244e-17 
  9410.216458   7.1972e-18 
  9411.748504   1.1092e-17 
   9413.28055   1.1088e-17 
  9414.812596   7.4092e-18 
  9416.344642   1.3238e-17 
  9417.876688   1.6268e-17 
  9419.408734   1.8173e-17 
   9420.94078   1.2259e-17 
  9422.472826   6.0232e-18 
  9424.004872   9.2217e-18 
  9425.536918   1.6649e-17 
  9427.068964   1.5021e-17 
   9428.60101    6.929e-18 
  9430.133056   8.2551e-18 
  9431.665102   9.7208e-18 
  9433.197148   1.4065e-17 
  9434.729194   7.0281e-18 
   9436.26124  -3.7115e-18 
  9437.793286   -7.289e-18 
  9439.325332  -7.3533e-18 
  9440.857378   4.8766e-18 
  9442.389424   1.5667e-17 
   9443.92147   1.5505e-17 
  9445.453516   1.1118e-17 
  9446.985562   1.1366e-17 
  9448.517608   1.0353e-17 
  9450.049654   9.6115e-18 
    9451.5817   1.1336e-17 
  9453.113746   2.3201e-17 
  9454.645792   3.3527e-17 
  9456.177838   2.7682e-17 
  9457.709884   2.5132e-17 
   9459.24193    2.364e-17 
  9460.773976   1.9468e-17 
  9462.306022   1.6986e-17 
  9463.838068   1.0835e-17 
  9465.370114   8.8071e-18 
   9466.90216   1.0158e-17 
  9468.434206   1.0194e-17 
  9469.966252   9.2377e-18 
  9471.498298    1.762e-17 
  9473.030344   2.0379e-17 
   9474.56239   1.2557e-17 
  9476.094436   8.1545e-18 
  9477.626482   7.1151e-18 
  9479.158528   9.9309e-18 
  9480.690574   1.5284e-17 
   9482.22262   1.5782e-17 
  9483.754666   1.1682e-17 
  9485.286712   1.0261e-17 
  9486.818758   8.3097e-18 
  9488.350804   8.1616e-18 
   9489.88285   7.4353e-18 
  9491.414896   1.0108e-17 
  9492.946942   1.4203e-17 
  9494.478988   1.5906e-17 
  9496.011034   1.5822e-17 
   9497.54308   2.1817e-17 
  9499.075126   3.2741e-17 
  9500.607172   2.8915e-17 
  9502.139218   1.5065e-17 
  9503.671264   1.3399e-17 
   9505.20331   1.2643e-17 
  9506.735356   8.0439e-18 
  9508.267402   6.9478e-18 
  9509.799448   8.8569e-18 
  9511.331494   8.7375e-18 
   9512.86354   9.7506e-18 
  9514.395586   1.1486e-17 
  9515.927632   6.1836e-18 
  9517.459678   8.6759e-18 
  9518.991724   1.5502e-17 
   9520.52377    1.102e-17 
  9522.055816   1.1411e-17 
  9523.587862    1.341e-17 
  9525.119908   1.2047e-17 
  9526.651954   9.1253e-18 
     9528.184   7.1663e-18 
  9529.716046   7.4089e-18 
  9531.248092   9.3663e-18 
  9532.780138   1.4498e-17 
  9534.312184    1.446e-17 
   9535.84423   9.0796e-18 
  9537.376276    4.459e-18 
  9538.908322   2.4809e-18 
  9540.440368   7.7272e-18 
  9541.972414   1.4405e-17 
   9543.50446   1.4187e-17 
  9545.036506   9.7055e-18 
  9546.568552   6.3216e-18 
  9548.100598   6.8536e-18 
  9549.632644   1.1357e-17 
   9551.16469   7.6384e-18 
  9552.696736   2.1813e-18 
  9554.228782   3.7649e-18 
  9555.760828   4.8754e-18 
  9557.292874   8.3905e-18 
   9558.82492   9.0293e-18 
  9560.356966   1.6169e-17 
  9561.889012   2.8028e-17 
  9563.421058    2.318e-17 
  9564.953104   1.2385e-17 
   9566.48515   1.8334e-17 
  9568.017196   2.0203e-17 
  9569.549242   1.3173e-17 
  9571.081288   1.1569e-17 
  9572.613334   1.4081e-17 
   9574.14538   1.0353e-17 
  9575.677426   8.1196e-18 
  9577.209472   7.8369e-18 
  9578.741518   9.2096e-18 
  9580.273564   1.0069e-17 
   9581.80561   9.2984e-18 
  9583.337656   8.2647e-18 
  9584.869702   7.4044e-18 
  9586.401748   1.1093e-17 
  9587.933794   1.6629e-17 
   9589.46584   1.5144e-17 
  9590.997886   1.4858e-17 
  9592.529932   1.3431e-17 
  9594.061978   9.6411e-18 
  9595.594024   1.1584e-17 
   9597.12607    1.193e-17 
  9598.658116    1.135e-17 
  9600.190162   1.4251e-17 
  9601.722208   1.2853e-17 
  9603.254254   1.6218e-17 
    9604.7863   2.1106e-17 
  9606.318346   1.3099e-17 
  9607.850392   1.1418e-17 
  9609.382438   8.2636e-18 
  9610.914484   1.4565e-17 
   9612.44653   1.6109e-17 
  9613.978576   1.2287e-17 
  9615.510622   1.2437e-17 
  9617.042668   2.1792e-17 
  9618.574714   1.7668e-17 
   9620.10676   1.1358e-17 
  9621.638806   1.7595e-17 
  9623.170852   1.6478e-17 
  9624.702898   1.4381e-17 
  9626.234944   1.1649e-17 
   9627.76699   1.2385e-17 
  9629.299036   1.3797e-17 
  9630.831082   1.5144e-17 
  9632.363128    1.121e-17 
  9633.895174   9.4942e-18 
   9635.42722   1.3847e-17 
  9636.959266   1.5935e-17 
  9638.491312   1.5338e-17 
  9640.023358   1.5093e-17 
  9641.555404   1.4906e-17 
   9643.08745   1.9033e-17 
  9644.619496   1.5943e-17 
  9646.151542    1.459e-17 
  9647.683588   1.4204e-17 
  9649.215634   1.3924e-17 
   9650.74768   1.1246e-17 
  9652.279726   1.5781e-17 
  9653.811772   2.0668e-17 
  9655.343818   2.3415e-17 
  9656.875864   2.0355e-17 
   9658.40791   2.0794e-17 
  9659.939956   2.4972e-17 
  9661.472002   2.8773e-17 
  9663.004048   2.0142e-17 
  9664.536094   1.1776e-17 
   9666.06814   1.1755e-17 
  9667.600186   1.4688e-17 
  9669.132232   1.2504e-17 
  9670.664278   1.1525e-17 
  9672.196324   1.4894e-17 
   9673.72837   1.5814e-17 
  9675.260416   1.7868e-17 
  9676.792462   1.9699e-17 
  9678.324508   1.7978e-17 
  9679.856554   1.3779e-17 
    9681.3886   1.8255e-17 
  9682.920646   1.6679e-17 
  9684.452692   1.6479e-17 
  9685.984738    2.227e-17 
  9687.516784    2.226e-17 
   9689.04883   2.2632e-17 
  9690.580876   1.4032e-17 
  9692.112922   7.5441e-18 
  9693.644968   9.8391e-18 
  9695.177014   1.7581e-17 
   9696.70906   3.4751e-17 
  9698.241106   2.4706e-17 
  9699.773152    9.012e-18 
  9701.305198   1.6245e-17 
  9702.837244   2.2465e-17 
   9704.36929   2.1733e-17 
  9705.901336   1.8183e-17 
  9707.433382   1.9671e-17 
  9708.965428   2.3032e-17 
  9710.497474   2.1042e-17 
   9712.02952   1.6918e-17 
  9713.561566   2.1688e-17 
  9715.093612   3.4745e-17 
  9716.625658   3.1351e-17 
  9718.157704   1.5087e-17 
   9719.68975   1.1441e-17 
  9721.221796   1.3339e-17 
  9722.753842   1.7385e-17 
  9724.285888   2.7783e-17 
  9725.817934   2.4176e-17 
   9727.34998   1.5183e-17 
  9728.882026   2.1568e-17 
  9730.414072   2.3496e-17 
  9731.946118   1.3912e-17 
  9733.478164   1.4284e-17 
   9735.01021   1.8743e-17 
  9736.542256   8.9923e-18 
  9738.074302   5.7493e-18 
  9739.606348   2.1832e-17 
  9741.138394   2.9734e-17 
   9742.67044   2.2494e-17 
  9744.202486   1.0081e-17 
  9745.734532   1.1857e-17 
  9747.266578    1.913e-17 
  9748.798624   1.6037e-17 
   9750.33067   1.7894e-17 
  9751.862716   2.4583e-17 
  9753.394762   2.2417e-17 
  9754.926808   1.7234e-17 
  9756.458854   2.1068e-17 
    9757.9909   2.8064e-17 
  9759.522946   3.3122e-17 
  9761.054992   3.3226e-17 
  9762.587038   2.9019e-17 
  9764.119084   2.2356e-17 
   9765.65113   1.4614e-17 
  9767.183176   1.8046e-17 
  9768.715222   2.3134e-17 
  9770.247268   1.9823e-17 
  9771.779314   1.7186e-17 
   9773.31136    1.849e-17 
  9774.843406    2.151e-17 
  9776.375452   1.8725e-17 
  9777.907498   1.5171e-17 
  9779.439544   2.0046e-17 
   9780.97159   2.4386e-17 
  9782.503636   1.5995e-17 
  9784.035682   9.3709e-18 
  9785.567728   1.3438e-17 
  9787.099774   2.3693e-17 
   9788.63182   2.4842e-17 
  9790.163866   5.6262e-18 
  9791.695912   4.5726e-18 
  9793.227958   1.9558e-17 
  9794.760004   2.7374e-17 
   9796.29205    3.323e-17 
  9797.824096   3.0271e-17 
  9799.356142   1.8269e-17 
  9800.888188   9.8572e-18 
  9802.420234   2.0939e-17 
   9803.95228   2.3573e-17 
  9805.484326   2.1397e-17 
  9807.016372   1.5556e-17 
  9808.548418   7.5428e-18 
  9810.080464   1.2671e-17 
   9811.61251   1.5789e-17 
  9813.144556   1.6577e-17 
  9814.676602   1.6653e-17 
  9816.208648   1.5484e-17 
  9817.740694   1.7397e-17 
   9819.27274    1.665e-17 
  9820.804786    1.604e-17 
  9822.336832   1.6261e-17 
  9823.868878   3.0717e-17 
  9825.400924   3.1668e-17 
   9826.93297   2.2436e-17 
  9828.465016   3.3062e-17 
  9829.997062   3.9221e-17 
  9831.529108   3.0758e-17 
  9833.061154   2.2439e-17 
    9834.5932   2.6771e-17 
  9836.125246   2.1768e-17 
  9837.657292    1.499e-17 
  9839.189338   1.3223e-17 
  9840.721384   1.0812e-17 
   9842.25343   1.8432e-17 
  9843.785476   3.0557e-17 
  9845.317522   2.9148e-17 
  9846.849568     1.22e-17 
  9848.381614   7.4612e-18 
   9849.91366   8.8324e-18 
  9851.445706    1.172e-17 
  9852.977752   1.1725e-17 
  9854.509798   1.3998e-17 
  9856.041844   2.4088e-17 
   9857.57389   2.1959e-17 
  9859.105936   1.4821e-17 
  9860.637982    1.162e-17 
  9862.170028   1.3795e-17 
  9863.702074   2.0274e-17 
   9865.23412   2.0767e-17 
  9866.766166   2.8717e-17 
  9868.298212   1.4124e-17 
  9869.830258  -1.0402e-17 
  9871.362304   5.4573e-18 
   9872.89435   1.6344e-17 
  9874.426396   2.2314e-17 
  9875.958442   2.1341e-17 
  9877.490488   2.1588e-17 
  9879.022534    1.842e-17 
   9880.55458   1.1556e-17 
  9882.086626   9.1109e-18 
  9883.618672   1.3703e-17 
  9885.150718   1.7973e-17 
  9886.682764   2.2802e-17 
   9888.21481   2.3385e-17 
  9889.746856   2.2691e-17 
  9891.278902   2.6849e-17 
  9892.810948   3.1377e-17 
  9894.342994   2.5653e-17 
   9895.87504   2.0728e-17 
  9897.407086   2.1152e-17 
  9898.939132   2.2384e-17 
  9900.471178   2.2328e-17 
  9902.003224   1.8818e-17 
   9903.53527   1.9773e-17 
  9905.067316   2.1608e-17 
  9906.599362    1.716e-17 
  9908.131408   2.4362e-17 
  9909.663454   2.4632e-17 
    9911.1955   1.6711e-17 
  9912.727546   2.2406e-17 
  9914.259592    1.527e-17 
  9915.791638   1.3687e-17 
  9917.323684   2.7415e-17 
   9918.85573   2.3537e-17 
  9920.387776   1.6801e-17 
  9921.919822   2.1039e-17 
  9923.451868   2.2202e-17 
  9924.983914    1.964e-17 
   9926.51596   2.0036e-17 
  9928.048006   2.0882e-17 
  9929.580052    2.175e-17 
  9931.112098   2.1577e-17 
  9932.644144   2.2126e-17 
   9934.17619   2.1319e-17 
  9935.708236   1.1235e-17 
  9937.240282   4.8114e-18 
  9938.772328   2.1216e-18 
  9940.304374   7.9324e-18 
   9941.83642   1.7469e-17 
  9943.368466   1.6517e-17 
  9944.900512   2.5471e-17 
  9946.432558   1.5532e-17 
  9947.964604   3.7253e-18 
   9949.49665   1.8804e-17 
  9951.028696   1.8363e-17 
  9952.560742     9.55e-19 
  9954.092788   5.3679e-18 
  9955.624834   1.3242e-17 
   9957.15688   8.9382e-18 
  9958.688926   1.5736e-17 
  9960.220972   2.7773e-17 
  9961.753018   1.6765e-17 
  9963.285064   9.9604e-18 
   9964.81711   1.2001e-17 
  9966.349156   1.0629e-17 
  9967.881202   1.0355e-17 
  9969.413248   1.4252e-17 
  9970.945294   2.1509e-17 
   9972.47734   2.4417e-17 
  9974.009386   1.7428e-17 
  9975.541432   1.2129e-17 
  9977.073478   2.0085e-17 
  9978.605524   1.9068e-17 
   9980.13757   1.3605e-17 
  9981.669616   1.2384e-17 
  9983.201662   8.7443e-18 
  9984.733708    1.012e-17 
  9986.265754   1.2965e-17 
    9987.7978   1.3873e-17 
  9989.329846   1.4441e-17 
  9990.861892   1.3639e-17 
  9992.393938   1.4563e-17 
  9993.925984   1.5124e-17 
   9995.45803   1.4515e-17 
  9996.990076   1.2582e-17 
  9998.522122   1.3859e-17 
 10000.054168   1.8225e-17 
