# STATUS =
# OBJECT = 2018kyt
# TELESCOPE = P200
# INSTRUMENT = SEDM
# DATE-OBS = 2019-03-15 00:00:00.000
# MJD = 58557.0
# EXPTIME =
# AIRMASS =
# SLIT =
# DISPERSER =
# SOURCE = DOI 10.3847/1538-4357/aca161
# FILTER =
# RESOLUTION =
# FLUX_STANDARD =
# EXTINCTION_CORRECTED =
# PHOTOMETRY_CALIBRATED =
# TELLURIC_CORRECTED =
# FLUX_UNITS =
# WAVE_UNITS =
# QUALITY =
# MIN_WAVE = 3299.8
# MAX_WAVE = 9199.8
# COMMENT =
 Wavelength         Flux 
     3300.8   4.0775e-17 
     3301.8   4.8993e-17 
     3302.8   6.8161e-17 
     3303.8   5.5014e-17 
     3304.8   4.2805e-17 
     3305.8   4.0639e-17 
     3306.8   1.9979e-17 
     3307.8   1.0016e-17 
     3308.8    7.473e-17 
     3309.8   1.2975e-16 
     3310.8   5.2465e-17 
     3311.8   1.0136e-17 
     3312.8   1.7639e-19 
     3313.8  -3.7428e-18 
     3314.8   2.0107e-18 
     3315.8   7.3141e-17 
     3316.8   7.2108e-17 
     3317.8  -4.8955e-18 
     3318.8   2.6454e-18 
     3319.8   3.7519e-17 
     3320.8   7.7526e-17 
     3321.8   1.0216e-16 
     3322.8   9.4578e-17 
     3323.8   5.3386e-17 
     3324.8   5.0633e-17 
     3325.8   1.0202e-16 
     3326.8   8.8616e-17 
     3327.8   5.7649e-17 
     3328.8   6.7192e-17 
     3329.8   7.3652e-17 
     3330.8   5.3876e-17 
     3331.8  -7.4156e-19 
     3332.8   3.7886e-17 
     3333.8   8.7191e-17 
     3334.8   8.4669e-17 
     3335.8   6.2049e-17 
     3336.8   5.5734e-17 
     3337.8   7.7195e-17 
     3338.8   1.0042e-16 
     3339.8   7.5147e-17 
     3340.8   5.5186e-17 
     3341.8   2.9217e-17 
     3342.8   3.5541e-17 
     3343.8   6.8799e-17 
     3344.8   4.9192e-17 
     3345.8   3.6315e-17 
     3346.8  -2.3223e-17 
     3347.8   -1.004e-17 
     3348.8   4.9699e-17 
     3349.8   8.0151e-17 
     3350.8   7.1348e-17 
     3351.8   4.6984e-17 
     3352.8   4.1177e-17 
     3353.8   5.9857e-17 
     3354.8   1.0164e-16 
     3355.8   8.0904e-17 
     3356.8   4.1638e-17 
     3357.8   5.6149e-17 
     3358.8   1.2475e-17 
     3359.8   1.5893e-17 
     3360.8   5.8263e-17 
     3361.8   5.3427e-17 
     3362.8   1.1668e-17 
     3363.8  -1.6972e-17 
     3364.8   2.3812e-17 
     3365.8   4.4437e-17 
     3366.8   3.7323e-17 
     3367.8   3.5538e-17 
     3368.8   9.3162e-18 
     3369.8   -2.758e-17 
     3370.8    4.472e-17 
     3371.8   7.1716e-17 
     3372.8   5.0386e-17 
     3373.8    9.332e-17 
     3374.8   8.3415e-17 
     3375.8    5.002e-17 
     3376.8   2.9866e-17 
     3377.8   6.2333e-17 
     3378.8   7.9054e-17 
     3379.8   8.1196e-17 
     3380.8   5.6057e-17 
     3381.8   3.8845e-17 
     3382.8   5.5626e-17 
     3383.8   4.0004e-17 
     3384.8    6.071e-18 
     3385.8   3.9428e-17 
     3386.8   2.5329e-17 
     3387.8   1.6752e-17 
     3388.8   5.5067e-17 
     3389.8   6.0814e-17 
     3390.8   5.3199e-17 
     3391.8   2.7654e-17 
     3392.8   2.2759e-17 
     3393.8   3.5309e-17 
     3394.8    5.581e-17 
     3395.8   5.9179e-17 
     3396.8   5.6748e-17 
     3397.8   5.8854e-17 
     3398.8    7.284e-17 
     3399.8   7.5703e-17 
     3400.8   6.8386e-17 
     3401.8   5.7365e-17 
     3402.8    5.416e-17 
     3403.8  -5.2848e-18 
     3404.8   2.0011e-17 
     3405.8   5.9092e-17 
     3406.8   6.3533e-17 
     3407.8   6.1365e-17 
     3408.8   5.6897e-17 
     3409.8   5.6662e-17 
     3410.8   5.7996e-17 
     3411.8    7.466e-17 
     3412.8   1.1011e-16 
     3413.8   1.0206e-16 
     3414.8   5.3553e-17 
     3415.8   4.6049e-17 
     3416.8   5.0213e-17 
     3417.8   5.1258e-17 
     3418.8   4.5546e-17 
     3419.8   7.8024e-17 
     3420.8   7.9364e-17 
     3421.8   3.9713e-17 
     3422.8   6.0547e-18 
     3423.8  -2.9716e-19 
     3424.8   3.9634e-18 
     3425.8   3.1155e-17 
     3426.8   7.4584e-17 
     3427.8   8.5381e-17 
     3428.8   3.1383e-17 
     3429.8   1.0276e-17 
     3430.8   4.2373e-17 
     3431.8   5.3768e-17 
     3432.8    1.585e-17 
     3433.8   4.4362e-17 
     3434.8   2.0045e-17 
     3435.8    1.723e-17 
     3436.8   2.7366e-17 
     3437.8      2.8e-17 
     3438.8   3.6393e-17 
     3439.8   5.0549e-17 
     3440.8   4.9362e-17 
     3441.8   2.7009e-17 
     3442.8  -2.7628e-18 
     3443.8  -4.5657e-18 
     3444.8   5.3555e-17 
     3445.8   4.3665e-17 
     3446.8   2.8951e-17 
     3447.8   6.0327e-17 
     3448.8   6.3672e-17 
     3449.8   1.6243e-17 
     3450.8   4.4087e-17 
     3451.8    4.252e-17 
     3452.8   4.9398e-17 
     3453.8   4.9651e-17 
     3454.8   1.9366e-17 
     3455.8   1.2648e-17 
     3456.8    4.432e-17 
     3457.8   4.7796e-17 
     3458.8   4.5058e-17 
     3459.8   7.7028e-17 
     3460.8   7.8331e-17 
     3461.8   7.4028e-17 
     3462.8   8.5144e-17 
     3463.8   6.5591e-17 
     3464.8   3.7552e-17 
     3465.8   5.8083e-17 
     3466.8     5.39e-17 
     3467.8   6.4618e-17 
     3468.8   6.0031e-17 
     3469.8   3.7808e-17 
     3470.8   3.8625e-17 
     3471.8   4.3903e-17 
     3472.8   4.2804e-17 
     3473.8   8.4065e-17 
     3474.8   5.7233e-17 
     3475.8   5.2919e-17 
     3476.8   1.0751e-17 
     3477.8   4.1883e-17 
     3478.8    4.454e-17 
     3479.8   3.7395e-17 
     3480.8   3.7256e-17 
     3481.8   7.5821e-17 
     3482.8   4.8301e-17 
     3483.8   1.6417e-17 
     3484.8   5.2424e-17 
     3485.8   6.1608e-17 
     3486.8   9.4457e-18 
     3487.8   1.3586e-17 
     3488.8   2.0235e-17 
     3489.8   1.7907e-17 
     3490.8   5.1915e-17 
     3491.8   4.4117e-17 
     3492.8   3.9332e-17 
     3493.8    3.416e-17 
     3494.8   2.1655e-17 
     3495.8    3.384e-17 
     3496.8   3.6301e-17 
     3497.8   6.4141e-17 
     3498.8    8.095e-17 
     3499.8   5.0224e-17 
     3500.8   4.4743e-17 
     3501.8   7.3867e-17 
     3502.8   9.8793e-17 
     3503.8   9.9008e-17 
     3504.8   3.1036e-17 
     3505.8   2.3557e-17 
     3506.8   6.2634e-17 
     3507.8   2.9746e-17 
     3508.8   3.9853e-17 
     3509.8   5.4841e-17 
     3510.8   3.5443e-17 
     3511.8   4.3532e-17 
     3512.8   5.2138e-17 
     3513.8   4.4747e-17 
     3514.8    3.196e-17 
     3515.8   3.3052e-18 
     3516.8  -5.1182e-18 
     3517.8   -1.066e-17 
     3518.8   2.7342e-17 
     3519.8   3.5565e-17 
     3520.8   3.0404e-17 
     3521.8     1.19e-17 
     3522.8   1.5379e-17 
     3523.8   6.4721e-17 
     3524.8   7.1762e-17 
     3525.8   3.5847e-17 
     3526.8   4.1515e-18 
     3527.8   3.0928e-17 
     3528.8   6.2513e-17 
     3529.8   5.2378e-17 
     3530.8   5.4063e-17 
     3531.8   6.3725e-17 
     3532.8    4.588e-17 
     3533.8   3.9862e-17 
     3534.8   1.3696e-17 
     3535.8   3.1847e-17 
     3536.8   8.0337e-17 
     3537.8   6.1643e-17 
     3538.8   7.1291e-17 
     3539.8   5.9567e-17 
     3540.8   6.5724e-17 
     3541.8   6.5773e-17 
     3542.8   3.8336e-17 
     3543.8   3.7472e-17 
     3544.8   6.0031e-17 
     3545.8   4.7815e-17 
     3546.8   5.9335e-17 
     3547.8   4.9851e-17 
     3548.8   4.4048e-17 
     3549.8   3.3727e-17 
     3550.8   3.2182e-17 
     3551.8   4.5323e-17 
     3552.8   7.3715e-17 
     3553.8    8.312e-17 
     3554.8   7.8981e-17 
     3555.8   5.4512e-17 
     3556.8   4.3464e-17 
     3557.8   4.4358e-17 
     3558.8   3.2741e-17 
     3559.8   3.0015e-18 
     3560.8   3.4529e-17 
     3561.8   7.1883e-17 
     3562.8    4.611e-17 
     3563.8   3.3063e-17 
     3564.8   6.1747e-17 
     3565.8   5.2192e-17 
     3566.8   6.4332e-17 
     3567.8   8.3363e-17 
     3568.8   6.6344e-17 
     3569.8    7.683e-17 
     3570.8   8.0598e-17 
     3571.8   4.8439e-17 
     3572.8   3.1217e-17 
     3573.8   5.9892e-17 
     3574.8   7.9237e-17 
     3575.8   4.3617e-17 
     3576.8    4.461e-17 
     3577.8   1.0128e-17 
     3578.8   1.6645e-17 
     3579.8    3.081e-17 
     3580.8   3.0873e-17 
     3581.8   4.7946e-17 
     3582.8    4.644e-17 
     3583.8   3.0195e-17 
     3584.8   3.4429e-17 
     3585.8    6.162e-17 
     3586.8   5.5013e-17 
     3587.8   2.3565e-17 
     3588.8   2.8746e-17 
     3589.8   5.7267e-17 
     3590.8   5.3517e-17 
     3591.8   6.6471e-17 
     3592.8   7.5159e-17 
     3593.8   3.9281e-17 
     3594.8   3.3758e-17 
     3595.8   8.1759e-17 
     3596.8   8.1199e-17 
     3597.8   6.2814e-17 
     3598.8   5.9028e-17 
     3599.8   6.1817e-17 
     3600.8   5.4393e-17 
     3601.8   2.2509e-17 
     3602.8    1.759e-17 
     3603.8   5.4317e-17 
     3604.8     6.22e-17 
     3605.8   5.4748e-17 
     3606.8   7.9398e-17 
     3607.8   3.1256e-17 
     3608.8   5.3585e-17 
     3609.8   7.5472e-17 
     3610.8   6.2026e-17 
     3611.8   5.7548e-17 
     3612.8   9.1029e-17 
     3613.8    9.449e-17 
     3614.8   6.5824e-17 
     3615.8   6.0814e-17 
     3616.8   6.3666e-17 
     3617.8   5.6681e-17 
     3618.8   5.6005e-17 
     3619.8   3.0009e-17 
     3620.8   4.6419e-17 
     3621.8   5.4799e-17 
     3622.8    6.776e-17 
     3623.8   2.6445e-17 
     3624.8   1.7286e-17 
     3625.8   5.4686e-17 
     3626.8   4.5252e-17 
     3627.8   4.5231e-17 
     3628.8   6.2275e-17 
     3629.8   8.9358e-17 
     3630.8   8.2278e-17 
     3631.8   4.5156e-17 
     3632.8   3.8964e-17 
     3633.8   4.5312e-17 
     3634.8   3.9057e-17 
     3635.8   7.6271e-17 
     3636.8   6.3498e-17 
     3637.8   5.4318e-17 
     3638.8   4.2739e-17 
     3639.8   5.6433e-17 
     3640.8   7.5836e-17 
     3641.8   6.0906e-17 
     3642.8   4.5593e-17 
     3643.8   3.2854e-17 
     3644.8   4.7417e-17 
     3645.8   6.3301e-17 
     3646.8   5.9932e-17 
     3647.8   6.0066e-17 
     3648.8   5.0129e-17 
     3649.8   7.2758e-17 
     3650.8   7.6575e-17 
     3651.8   8.9312e-17 
     3652.8   7.0695e-17 
     3653.8   6.4454e-17 
     3654.8   6.2907e-17 
     3655.8   1.1363e-16 
     3656.8   1.0798e-16 
     3657.8   5.0171e-17 
     3658.8   3.3523e-17 
     3659.8   3.7972e-17 
     3660.8    5.765e-17 
     3661.8   7.8036e-17 
     3662.8   7.5134e-17 
     3663.8   8.1078e-17 
     3664.8   6.1457e-17 
     3665.8   7.4743e-17 
     3666.8   3.8618e-17 
     3667.8   4.3744e-17 
     3668.8   9.0762e-17 
     3669.8   7.0653e-17 
     3670.8   6.0042e-17 
     3671.8   2.8084e-17 
     3672.8    3.284e-17 
     3673.8   3.7834e-17 
     3674.8    3.498e-17 
     3675.8   3.7919e-17 
     3676.8   5.3851e-17 
     3677.8   6.9568e-17 
     3678.8   5.3706e-17 
     3679.8   5.1019e-17 
     3680.8   6.3725e-17 
     3681.8   3.0183e-17 
     3682.8   5.7163e-17 
     3683.8   4.5405e-17 
     3684.8   2.4797e-17 
     3685.8   3.0448e-17 
     3686.8   3.5421e-17 
     3687.8   4.2621e-17 
     3688.8   3.6242e-17 
     3689.8   3.1038e-17 
     3690.8   4.4015e-17 
     3691.8   5.5373e-17 
     3692.8   6.7651e-17 
     3693.8   5.6015e-17 
     3694.8   7.2631e-17 
     3695.8   4.9331e-17 
     3696.8   5.5726e-17 
     3697.8   3.3946e-17 
     3698.8   3.1807e-17 
     3699.8   4.7238e-17 
     3700.8   6.4262e-17 
     3701.8   5.4455e-17 
     3702.8   5.9956e-17 
     3703.8   6.3487e-17 
     3704.8   5.2448e-17 
     3705.8   5.1183e-17 
     3706.8   6.0205e-17 
     3707.8   7.1692e-17 
     3708.8   5.7748e-17 
     3709.8   6.1254e-17 
     3710.8    6.166e-17 
     3711.8   5.0508e-17 
     3712.8   7.5919e-17 
     3713.8   6.1214e-17 
     3714.8   6.3481e-17 
     3715.8   5.1109e-17 
     3716.8   5.0382e-17 
     3717.8   6.5059e-17 
     3718.8   6.6809e-17 
     3719.8    5.668e-17 
     3720.8   5.6754e-17 
     3721.8   7.0549e-17 
     3722.8   7.5089e-17 
     3723.8   5.6788e-17 
     3724.8   4.2046e-17 
     3725.8   5.4361e-17 
     3726.8   6.0501e-17 
     3727.8   4.7525e-17 
     3728.8   5.3323e-17 
     3729.8   6.3516e-17 
     3730.8   7.6289e-17 
     3731.8   7.3487e-17 
     3732.8   6.0008e-17 
     3733.8   5.7978e-17 
     3734.8   6.0304e-17 
     3735.8   6.0355e-17 
     3736.8   7.0148e-17 
     3737.8   6.8289e-17 
     3738.8   7.6869e-17 
     3739.8    7.803e-17 
     3740.8   7.7891e-17 
     3741.8   6.4141e-17 
     3742.8   5.4828e-17 
     3743.8   7.0708e-17 
     3744.8   5.2744e-17 
     3745.8   6.2298e-17 
     3746.8   6.4849e-17 
     3747.8   7.0525e-17 
     3748.8   7.5675e-17 
     3749.8   6.5691e-17 
     3750.8   6.2026e-17 
     3751.8   3.3426e-17 
     3752.8   3.5086e-17 
     3753.8   5.9642e-17 
     3754.8   9.1132e-17 
     3755.8   8.1637e-17 
     3756.8   4.0671e-17 
     3757.8   7.7826e-17 
     3758.8   5.5247e-17 
     3759.8   5.3012e-17 
     3760.8   6.0071e-17 
     3761.8   6.8437e-17 
     3762.8   7.1762e-17 
     3763.8   7.8364e-17 
     3764.8   8.7909e-17 
     3765.8   6.8404e-17 
     3766.8    5.423e-17 
     3767.8   5.9469e-17 
     3768.8   4.6258e-17 
     3769.8   2.5509e-17 
     3770.8   4.4801e-17 
     3771.8   5.1275e-17 
     3772.8   5.8065e-17 
     3773.8   6.8757e-17 
     3774.8   5.9428e-17 
     3775.8   6.6311e-17 
     3776.8   5.6488e-17 
     3777.8   3.4778e-17 
     3778.8   3.3297e-17 
     3779.8   3.6909e-17 
     3780.8   6.3823e-17 
     3781.8   8.0981e-17 
     3782.8   6.0338e-17 
     3783.8   6.5915e-17 
     3784.8   6.5928e-17 
     3785.8   4.7211e-17 
     3786.8   5.4612e-17 
     3787.8   7.6453e-17 
     3788.8   8.8705e-17 
     3789.8   6.1028e-17 
     3790.8   4.6804e-17 
     3791.8   6.0008e-17 
     3792.8   6.0947e-17 
     3793.8   4.2421e-17 
     3794.8   5.8257e-17 
     3795.8   5.7697e-17 
     3796.8   4.2837e-17 
     3797.8   7.7751e-17 
     3798.8   6.6635e-17 
     3799.8   5.6129e-17 
     3800.8   5.0609e-17 
     3801.8   5.8158e-17 
     3802.8   6.0935e-17 
     3803.8   6.7541e-17 
     3804.8   6.6635e-17 
     3805.8   6.6879e-17 
     3806.8   7.2044e-17 
     3807.8   7.2542e-17 
     3808.8   6.3238e-17 
     3809.8   5.5203e-17 
     3810.8   6.6317e-17 
     3811.8   8.9045e-17 
     3812.8   6.6298e-17 
     3813.8   7.0179e-17 
     3814.8   3.9962e-17 
     3815.8   7.1965e-17 
     3816.8   6.7064e-17 
     3817.8   5.9805e-17 
     3818.8   5.9729e-17 
     3819.8    5.311e-17 
     3820.8   6.0518e-17 
     3821.8   6.9574e-17 
     3822.8   5.7116e-17 
     3823.8   4.5048e-17 
     3824.8   4.3933e-17 
     3825.8   6.7198e-17 
     3826.8   6.7185e-17 
     3827.8   5.7636e-17 
     3828.8   7.4539e-17 
     3829.8   5.4424e-17 
     3830.8   4.9798e-17 
     3831.8   5.1166e-17 
     3832.8   4.9564e-17 
     3833.8   7.9303e-17 
     3834.8   8.4013e-17 
     3835.8   6.0849e-17 
     3836.8    6.021e-17 
     3837.8   6.3614e-17 
     3838.8   4.5774e-17 
     3839.8   5.4775e-17 
     3840.8   6.0037e-17 
     3841.8   6.1938e-17 
     3842.8   4.8961e-17 
     3843.8   3.5686e-17 
     3844.8   7.1604e-17 
     3845.8   4.8602e-17 
     3846.8   6.3261e-17 
     3847.8   7.8684e-17 
     3848.8    5.362e-17 
     3849.8   4.2818e-17 
     3850.8   5.6972e-17 
     3851.8    7.037e-17 
     3852.8   6.9534e-17 
     3853.8    4.903e-17 
     3854.8   4.7248e-17 
     3855.8   6.2124e-17 
     3856.8   7.1263e-17 
     3857.8   5.3122e-17 
     3858.8   6.6739e-17 
     3859.8    6.711e-17 
     3860.8   6.6009e-17 
     3861.8   7.5262e-17 
     3862.8    7.655e-17 
     3863.8   8.0413e-17 
     3864.8   8.0133e-17 
     3865.8   7.6079e-17 
     3866.8   6.8501e-17 
     3867.8    5.347e-17 
     3868.8   5.4619e-17 
     3869.8   6.3562e-17 
     3870.8   5.8755e-17 
     3871.8   6.6879e-17 
     3872.8    7.357e-17 
     3873.8     6.46e-17 
     3874.8   5.6796e-17 
     3875.8   3.9987e-17 
     3876.8   3.7263e-17 
     3877.8   3.1028e-17 
     3878.8    4.421e-17 
     3879.8   6.9616e-17 
     3880.8   7.8146e-17 
     3881.8   7.9385e-17 
     3882.8   7.5994e-17 
     3883.8   7.0729e-17 
     3884.8   5.6022e-17 
     3885.8   4.8184e-17 
     3886.8    7.955e-17 
     3887.8   7.3804e-17 
     3888.8   8.1391e-17 
     3889.8   7.6851e-17 
     3890.8    6.405e-17 
     3891.8   6.4566e-17 
     3892.8   8.1676e-17 
     3893.8   7.6608e-17 
     3894.8   5.2508e-17 
     3895.8   5.7757e-17 
     3896.8   8.6675e-17 
     3897.8   8.9261e-17 
     3898.8   8.0783e-17 
     3899.8   6.4415e-17 
     3900.8   5.1975e-17 
     3901.8   5.5387e-17 
     3902.8   7.3721e-17 
     3903.8   8.5538e-17 
     3904.8   8.0756e-17 
     3905.8   6.8231e-17 
     3906.8    5.112e-17 
     3907.8   4.0426e-17 
     3908.8   4.8267e-17 
     3909.8   6.5487e-17 
     3910.8   7.0643e-17 
     3911.8   7.2585e-17 
     3912.8   7.1263e-17 
     3913.8     5.93e-17 
     3914.8   6.4566e-17 
     3915.8   6.0779e-17 
     3916.8   5.8425e-17 
     3917.8   6.6189e-17 
     3918.8   6.1863e-17 
     3919.8   5.8639e-17 
     3920.8   5.2152e-17 
     3921.8   5.5104e-17 
     3922.8   6.9969e-17 
     3923.8   7.4758e-17 
     3924.8   7.1285e-17 
     3925.8   6.7754e-17 
     3926.8   6.6821e-17 
     3927.8   6.4989e-17 
     3928.8   5.1441e-17 
     3929.8   4.2996e-17 
     3930.8   4.4511e-17 
     3931.8   5.4021e-17 
     3932.8   5.9956e-17 
     3933.8   5.7925e-17 
     3934.8   5.9892e-17 
     3935.8   7.2521e-17 
     3936.8    7.484e-17 
     3937.8   7.2752e-17 
     3938.8   6.7672e-17 
     3939.8   5.6201e-17 
     3940.8   5.1569e-17 
     3941.8   5.9538e-17 
     3942.8   7.1449e-17 
     3943.8   7.6979e-17 
     3944.8   6.5092e-17 
     3945.8    7.779e-17 
     3946.8   8.4831e-17 
     3947.8   6.4044e-17 
     3948.8   6.5007e-17 
     3949.8   6.2861e-17 
     3950.8   5.5518e-17 
     3951.8   6.5296e-17 
     3952.8   7.8823e-17 
     3953.8   8.0437e-17 
     3954.8   7.5657e-17 
     3955.8   6.3313e-17 
     3956.8   6.2548e-17 
     3957.8   7.2451e-17 
     3958.8    7.415e-17 
     3959.8   5.3747e-17 
     3960.8   6.2252e-17 
     3961.8   8.8136e-17 
     3962.8   8.2302e-17 
     3963.8   7.0549e-17 
     3964.8   6.1625e-17 
     3965.8   6.1492e-17 
     3966.8   6.4445e-17 
     3967.8   6.4955e-17 
     3968.8   5.7269e-17 
     3969.8   3.7683e-17 
     3970.8   3.9443e-17 
     3971.8   7.7954e-17 
     3972.8   6.5384e-17 
     3973.8   5.5666e-17 
     3974.8   6.5839e-17 
     3975.8   6.1196e-17 
     3976.8   5.9962e-17 
     3977.8   3.9665e-17 
     3978.8   6.6387e-17 
     3979.8   7.1737e-17 
     3980.8    7.339e-17 
     3981.8   7.5134e-17 
     3982.8   6.2061e-17 
     3983.8   4.7258e-17 
     3984.8   5.9683e-17 
     3985.8   7.2044e-17 
     3986.8    7.233e-17 
     3987.8   6.9133e-17 
     3988.8   8.9607e-17 
     3989.8   8.8349e-17 
     3990.8   6.1336e-17 
     3991.8   6.1324e-17 
     3992.8   8.5961e-17 
     3993.8    7.085e-17 
     3994.8   7.1193e-17 
     3995.8   6.2031e-17 
     3996.8   5.5084e-17 
     3997.8   5.5805e-17 
     3998.8   6.2861e-17 
     3999.8   7.0835e-17 
     4000.8   6.3434e-17 
     4001.8   6.4381e-17 
     4002.8   7.0659e-17 
     4003.8   7.9431e-17 
     4004.8   8.3266e-17 
     4005.8   8.7225e-17 
     4006.8   6.6967e-17 
     4007.8   7.8382e-17 
     4008.8   5.2371e-17 
     4009.8   5.3295e-17 
     4010.8   7.7502e-17 
     4011.8   7.4597e-17 
     4012.8   5.3432e-17 
     4013.8   5.5735e-17 
     4014.8   7.7972e-17 
     4015.8   7.8939e-17 
     4016.8   5.8929e-17 
     4017.8   5.1651e-17 
     4018.8   6.8103e-17 
     4019.8   7.3327e-17 
     4020.8   6.8717e-17 
     4021.8   7.3697e-17 
     4022.8   7.6845e-17 
     4023.8   6.2501e-17 
     4024.8   4.8955e-17 
     4025.8   6.0611e-17 
     4026.8   6.6605e-17 
     4027.8   6.0686e-17 
     4028.8   6.6408e-17 
     4029.8   7.6052e-17 
     4030.8   5.5011e-17 
     4031.8   4.9184e-17 
     4032.8    6.412e-17 
     4033.8   5.8431e-17 
     4034.8   6.1248e-17 
     4035.8   6.1672e-17 
     4036.8   6.2275e-17 
     4037.8   8.7359e-17 
     4038.8   8.7173e-17 
     4039.8    6.931e-17 
     4040.8   6.6745e-17 
     4041.8   6.9191e-17 
     4042.8   6.1301e-17 
     4043.8   5.4522e-17 
     4044.8   8.2111e-17 
     4045.8   7.9243e-17 
     4046.8   3.8541e-17 
     4047.8    7.295e-17 
     4048.8   1.0495e-16 
     4049.8   8.9956e-17 
     4050.8   7.4138e-17 
     4051.8   5.8744e-17 
     4052.8   7.8516e-17 
     4053.8   8.8343e-17 
     4054.8   7.4074e-17 
     4055.8   6.4363e-17 
     4056.8   6.9094e-17 
     4057.8   7.5083e-17 
     4058.8    7.298e-17 
     4059.8   5.9341e-17 
     4060.8   6.5302e-17 
     4061.8   6.2606e-17 
     4062.8   5.2264e-17 
     4063.8   6.9331e-17 
     4064.8   5.9312e-17 
     4065.8   6.4995e-17 
     4066.8   7.0956e-17 
     4067.8   6.3771e-17 
     4068.8   5.8465e-17 
     4069.8   6.2478e-17 
     4070.8   8.8513e-17 
     4071.8   9.9112e-17 
     4072.8   7.4132e-17 
     4073.8   6.2286e-17 
     4074.8   6.2692e-17 
     4075.8   5.7851e-17 
     4076.8   4.4409e-17 
     4077.8   4.3682e-17 
     4078.8    6.961e-17 
     4079.8   7.6964e-17 
     4080.8   6.6663e-17 
     4081.8   6.9331e-17 
     4082.8   8.5578e-17 
     4083.8   7.9109e-17 
     4084.8    6.979e-17 
     4085.8   7.1066e-17 
     4086.8   6.9316e-17 
     4087.8    6.453e-17 
     4088.8    9.175e-17 
     4089.8   1.0182e-16 
     4090.8   8.9261e-17 
     4091.8   6.2304e-17 
     4092.8    5.919e-17 
     4093.8   5.4487e-17 
     4094.8   5.5251e-17 
     4095.8   7.0063e-17 
     4096.8   7.1461e-17 
     4097.8    7.975e-17 
     4098.8   7.2904e-17 
     4099.8   6.2947e-17 
     4100.8   6.6733e-17 
     4101.8   7.0677e-17 
     4102.8   6.4496e-17 
     4103.8   6.9835e-17 
     4104.8   6.2269e-17 
     4105.8   6.5588e-17 
     4106.8   6.7964e-17 
     4107.8   7.1099e-17 
     4108.8    5.401e-17 
     4109.8    5.622e-17 
     4110.8   6.1782e-17 
     4111.8    6.518e-17 
     4112.8   6.1591e-17 
     4113.8   6.2182e-17 
     4114.8   7.3819e-17 
     4115.8   8.5775e-17 
     4116.8   9.0555e-17 
     4117.8   9.1227e-17 
     4118.8   8.2673e-17 
     4119.8   6.3301e-17 
     4120.8   7.7936e-17 
     4121.8   7.3849e-17 
     4122.8   7.4308e-17 
     4123.8   9.4393e-17 
     4124.8   9.1534e-17 
     4125.8   6.9765e-17 
     4126.8   8.2099e-17 
     4127.8    9.295e-17 
     4128.8   1.1222e-16 
     4129.8   1.3603e-16 
     4130.8   1.3621e-16 
     4131.8   1.3103e-16 
     4132.8   1.3828e-16 
     4133.8   1.3243e-16 
     4134.8   1.1046e-16 
     4135.8   9.1509e-17 
     4136.8   7.8204e-17 
     4137.8   7.4691e-17 
     4138.8   8.8425e-17 
     4139.8   7.6672e-17 
     4140.8   7.7036e-17 
     4141.8   7.0956e-17 
     4142.8   6.4715e-17 
     4143.8   6.4752e-17 
     4144.8   7.2421e-17 
     4145.8   7.9072e-17 
     4146.8   6.7663e-17 
     4147.8   4.5281e-17 
     4148.8   5.6242e-17 
     4149.8   7.1157e-17 
     4150.8   5.2837e-17 
     4151.8   5.4082e-17 
     4152.8   5.4196e-17 
     4153.8   5.9492e-17 
     4154.8   7.7502e-17 
     4155.8   6.8182e-17 
     4156.8   5.1461e-17 
     4157.8   4.3439e-17 
     4158.8   4.2404e-17 
     4159.8   4.8101e-17 
     4160.8   6.6341e-17 
     4161.8   7.6006e-17 
     4162.8   7.3123e-17 
     4163.8   6.8404e-17 
     4164.8   6.2426e-17 
     4165.8   5.4559e-17 
     4166.8   5.8784e-17 
     4167.8   6.6414e-17 
     4168.8   6.9389e-17 
     4169.8   6.3052e-17 
     4170.8   5.7293e-17 
     4171.8   5.5576e-17 
     4172.8   4.7401e-17 
     4173.8   4.2062e-17 
     4174.8   5.3706e-17 
     4175.8    6.797e-17 
     4176.8   6.4178e-17 
     4177.8    5.692e-17 
     4178.8   4.8662e-17 
     4179.8   5.0463e-17 
     4180.8    5.177e-17 
     4181.8    5.799e-17 
     4182.8   6.3406e-17 
     4183.8   5.5742e-17 
     4184.8   4.1276e-17 
     4185.8   4.0533e-17 
     4186.8   4.8164e-17 
     4187.8   5.1465e-17 
     4188.8   5.4398e-17 
     4189.8   5.5167e-17 
     4190.8   4.9488e-17 
     4191.8   6.4287e-17 
     4192.8   5.9329e-17 
     4193.8   5.2062e-17 
     4194.8   6.5186e-17 
     4195.8   6.6739e-17 
     4196.8   6.4135e-17 
     4197.8   7.6499e-17 
     4198.8   6.3336e-17 
     4199.8   6.7192e-17 
     4200.8   6.2165e-17 
     4201.8    4.618e-17 
     4202.8   4.9455e-17 
     4203.8   5.6499e-17 
     4204.8   5.1093e-17 
     4205.8   4.9152e-17 
     4206.8   4.7447e-17 
     4207.8   4.8072e-17 
     4208.8   4.0738e-17 
     4209.8   5.3755e-17 
     4210.8   7.0045e-17 
     4211.8   4.4974e-17 
     4212.8   3.2227e-17 
     4213.8   5.1122e-17 
     4214.8   7.0886e-17 
     4215.8   6.3423e-17 
     4216.8   5.0216e-17 
     4217.8   4.9704e-17 
     4218.8   4.8082e-17 
     4219.8   4.6694e-17 
     4220.8   7.3606e-17 
     4221.8   7.6839e-17 
     4222.8   6.7741e-17 
     4223.8   6.2078e-17 
     4224.8   5.1577e-17 
     4225.8   5.6398e-17 
     4226.8   7.1093e-17 
     4227.8   5.0972e-17 
     4228.8   5.1676e-17 
     4229.8   6.2437e-17 
     4230.8    5.378e-17 
     4231.8   4.9964e-17 
     4232.8    6.412e-17 
     4233.8   8.2469e-17 
     4234.8   8.7423e-17 
     4235.8   5.2799e-17 
     4236.8   3.7162e-17 
     4237.8   5.1975e-17 
     4238.8   6.4287e-17 
     4239.8   6.9501e-17 
     4240.8   8.5775e-17 
     4241.8   6.3342e-17 
     4242.8    4.528e-17 
     4243.8   4.8502e-17 
     4244.8   6.5518e-17 
     4245.8   6.4369e-17 
     4246.8   6.0251e-17 
     4247.8   6.3943e-17 
     4248.8   6.2576e-17 
     4249.8   5.3136e-17 
     4250.8   5.7812e-17 
     4251.8   6.3365e-17 
     4252.8   5.3086e-17 
     4253.8   5.2856e-17 
     4254.8   5.9492e-17 
     4255.8   6.4262e-17 
     4256.8   5.9039e-17 
     4257.8   3.9203e-17 
     4258.8    3.827e-17 
     4259.8   5.3028e-17 
     4260.8   5.5931e-17 
     4261.8   5.2202e-17 
     4262.8   5.3907e-17 
     4263.8   5.6189e-17 
     4264.8   5.0056e-17 
     4265.8   5.2082e-17 
     4266.8   6.0657e-17 
     4267.8   6.3174e-17 
     4268.8   4.2963e-17 
     4269.8   5.9515e-17 
     4270.8   5.3537e-17 
     4271.8   5.5884e-17 
     4272.8   6.6137e-17 
     4273.8   6.6694e-17 
     4274.8    6.635e-17 
     4275.8   6.7638e-17 
     4276.8   6.2101e-17 
     4277.8   5.2678e-17 
     4278.8   5.2578e-17 
     4279.8   5.4824e-17 
     4280.8   7.5919e-17 
     4281.8   7.9188e-17 
     4282.8   7.0358e-17 
     4283.8   6.7933e-17 
     4284.8   6.6496e-17 
     4285.8    6.906e-17 
     4286.8   7.5189e-17 
     4287.8   7.5651e-17 
     4288.8   7.0914e-17 
     4289.8   6.7563e-17 
     4290.8     6.34e-17 
     4291.8    6.133e-17 
     4292.8   6.9999e-17 
     4293.8    7.521e-17 
     4294.8   6.2774e-17 
     4295.8   5.4669e-17 
     4296.8   7.2637e-17 
     4297.8   6.3017e-17 
     4298.8   6.4639e-17 
     4299.8   8.2354e-17 
     4300.8   8.6268e-17 
     4301.8   8.0188e-17 
     4302.8   7.2151e-17 
     4303.8     6.22e-17 
     4304.8   5.9382e-17 
     4305.8    5.821e-17 
     4306.8   5.8373e-17 
     4307.8   6.1602e-17 
     4308.8   6.1463e-17 
     4309.8   6.5776e-17 
     4310.8   7.2604e-17 
     4311.8   7.2272e-17 
     4312.8   7.9914e-17 
     4313.8   9.3396e-17 
     4314.8   8.7027e-17 
     4315.8   6.6788e-17 
     4316.8   6.5666e-17 
     4317.8   6.4415e-17 
     4318.8   7.9844e-17 
     4319.8   8.6222e-17 
     4320.8   6.6031e-17 
     4321.8   5.1415e-17 
     4322.8   5.4894e-17 
     4323.8   7.2305e-17 
     4324.8   6.9176e-17 
     4325.8   7.4284e-17 
     4326.8   8.2859e-17 
     4327.8   8.5371e-17 
     4328.8   7.0312e-17 
     4329.8   7.1819e-17 
     4330.8   8.2883e-17 
     4331.8   8.8662e-17 
     4332.8   8.1643e-17 
     4333.8   7.4047e-17 
     4334.8    7.295e-17 
     4335.8   8.0254e-17 
     4336.8   9.2491e-17 
     4337.8   8.7155e-17 
     4338.8   8.2731e-17 
     4339.8   9.9246e-17 
     4340.8   1.0037e-16 
     4341.8   1.0433e-16 
     4342.8    9.855e-17 
     4343.8   8.0093e-17 
     4344.8   8.0771e-17 
     4345.8   9.7322e-17 
     4346.8   1.0181e-16 
     4347.8   1.0292e-16 
     4348.8   1.0266e-16 
     4349.8   9.7252e-17 
     4350.8   8.9668e-17 
     4351.8   8.7632e-17 
     4352.8   8.7602e-17 
     4353.8   9.0391e-17 
     4354.8   9.0628e-17 
     4355.8   8.7492e-17 
     4356.8   7.8939e-17 
     4357.8   9.6812e-17 
     4358.8    7.473e-17 
     4359.8   7.7125e-17 
     4360.8   1.0067e-16 
     4361.8   1.2437e-16 
     4362.8    1.217e-16 
     4363.8   1.1207e-16 
     4364.8   1.1223e-16 
     4365.8   1.1148e-16 
     4366.8   9.7489e-17 
     4367.8   9.1297e-17 
     4368.8   8.8252e-17 
     4369.8   1.0403e-16 
     4370.8   1.0888e-16 
     4371.8   7.2445e-17 
     4372.8   7.7826e-17 
     4373.8   1.0325e-16 
     4374.8   9.2223e-17 
     4375.8   9.0066e-17 
     4376.8   9.8835e-17 
     4377.8   9.1251e-17 
     4378.8   8.2558e-17 
     4379.8   8.8699e-17 
     4380.8    1.045e-16 
     4381.8   1.0702e-16 
     4382.8    9.518e-17 
     4383.8   8.2859e-17 
     4384.8   9.9523e-17 
     4385.8   1.0164e-16 
     4386.8   8.7893e-17 
     4387.8   9.4724e-17 
     4388.8   6.9361e-17 
     4389.8   8.7499e-17 
     4390.8   8.4396e-17 
     4391.8   9.2573e-17 
     4392.8   1.0106e-16 
     4393.8   9.7842e-17 
     4394.8   9.6392e-17 
     4395.8    1.023e-16 
     4396.8   9.4937e-17 
     4397.8   8.5311e-17 
     4398.8   1.0273e-16 
     4399.8   1.0228e-16 
     4400.8   1.0206e-16 
     4401.8   9.5153e-17 
     4402.8   9.8206e-17 
     4403.8   9.7924e-17 
     4404.8   8.8547e-17 
     4405.8   9.2965e-17 
     4406.8   9.3928e-17 
     4407.8   9.0965e-17 
     4408.8   9.6684e-17 
     4409.8   1.0217e-16 
     4410.8    8.838e-17 
     4411.8   8.5116e-17 
     4412.8    8.741e-17 
     4413.8   9.8115e-17 
     4414.8   1.0484e-16 
     4415.8   1.0204e-16 
     4416.8   1.0545e-16 
     4417.8   1.1982e-16 
     4418.8   1.1868e-16 
     4419.8   1.0467e-16 
     4420.8    1.079e-16 
     4421.8   1.1432e-16 
     4422.8   1.1346e-16 
     4423.8   1.0554e-16 
     4424.8   1.0076e-16 
     4425.8   1.0551e-16 
     4426.8   1.1066e-16 
     4427.8   1.0265e-16 
     4428.8   9.2196e-17 
     4429.8   9.8863e-17 
     4430.8   1.0639e-16 
     4431.8   8.9045e-17 
     4432.8    1.122e-16 
     4433.8   1.0171e-16 
     4434.8   9.4405e-17 
     4435.8   1.0637e-16 
     4436.8   1.1034e-16 
     4437.8   9.5748e-17 
     4438.8   8.3667e-17 
     4439.8   8.9285e-17 
     4440.8   1.1684e-16 
     4441.8   1.1986e-16 
     4442.8   1.1589e-16 
     4443.8   1.1304e-16 
     4444.8   9.9014e-17 
     4445.8   9.4356e-17 
     4446.8   1.1726e-16 
     4447.8   1.2591e-16 
     4448.8   1.1591e-16 
     4449.8   1.0091e-16 
     4450.8    9.848e-17 
     4451.8   1.0825e-16 
     4452.8   1.0951e-16 
     4453.8   9.8142e-17 
     4454.8   9.9264e-17 
     4455.8   9.7036e-17 
     4456.8    9.542e-17 
     4457.8   1.1935e-16 
     4458.8   1.1685e-16 
     4459.8   9.5499e-17 
     4460.8   9.8358e-17 
     4461.8   9.1637e-17 
     4462.8   9.0091e-17 
     4463.8    9.782e-17 
     4464.8   1.0291e-16 
     4465.8   1.0308e-16 
     4466.8   9.6225e-17 
     4467.8    8.748e-17 
     4468.8   9.4745e-17 
     4469.8   1.1415e-16 
     4470.8   1.1053e-16 
     4471.8   1.2943e-16 
     4472.8   1.0754e-16 
     4473.8   9.6915e-17 
     4474.8    1.042e-16 
     4475.8   1.0273e-16 
     4476.8   1.1524e-16 
     4477.8   1.2252e-16 
     4478.8    1.125e-16 
     4479.8   8.3023e-17 
     4480.8   8.2059e-17 
     4481.8   9.6678e-17 
     4482.8   1.0207e-16 
     4483.8   1.0069e-16 
     4484.8   9.4028e-17 
     4485.8   9.5101e-17 
     4486.8   9.4247e-17 
     4487.8   8.8219e-17 
     4488.8   9.6316e-17 
     4489.8    7.982e-17 
     4490.8   7.3749e-17 
     4491.8   1.0224e-16 
     4492.8   9.5882e-17 
     4493.8    6.852e-17 
     4494.8   7.5229e-17 
     4495.8   9.0838e-17 
     4496.8   9.9758e-17 
     4497.8   1.0705e-16 
     4498.8     1.04e-16 
     4499.8   8.4767e-17 
     4500.8   8.2309e-17 
     4501.8   8.3624e-17 
     4502.8   8.6164e-17 
     4503.8   8.2348e-17 
     4504.8   8.1524e-17 
     4505.8   7.5323e-17 
     4506.8   7.7234e-17 
     4507.8    8.356e-17 
     4508.8   1.0539e-16 
     4509.8   8.9981e-17 
     4510.8    8.017e-17 
     4511.8   8.7225e-17 
     4512.8    8.501e-17 
     4513.8    8.628e-17 
     4514.8   1.0333e-16 
     4515.8   9.4578e-17 
     4516.8   8.3649e-17 
     4517.8   9.0722e-17 
     4518.8   1.1393e-16 
     4519.8   1.0085e-16 
     4520.8   9.2567e-17 
     4521.8   9.7146e-17 
     4522.8   8.7562e-17 
     4523.8   8.4314e-17 
     4524.8   9.8632e-17 
     4525.8   1.0195e-16 
     4526.8   7.5566e-17 
     4527.8    6.439e-17 
     4528.8   6.9999e-17 
     4529.8   7.6915e-17 
     4530.8   6.8596e-17 
     4531.8   8.7231e-17 
     4532.8   8.8966e-17 
     4533.8   8.2627e-17 
     4534.8   1.0456e-16 
     4535.8   8.7945e-17 
     4536.8   8.1631e-17 
     4537.8     9.38e-17 
     4538.8    8.741e-17 
     4539.8   8.4332e-17 
     4540.8   9.6757e-17 
     4541.8   9.9956e-17 
     4542.8   9.1573e-17 
     4543.8   8.5538e-17 
     4544.8   8.5347e-17 
     4545.8   9.5186e-17 
     4546.8   8.3642e-17 
     4547.8   1.0317e-16 
     4548.8   9.6927e-17 
     4549.8   7.8088e-17 
     4550.8   8.6702e-17 
     4551.8    8.965e-17 
     4552.8   9.8173e-17 
     4553.8   9.8398e-17 
     4554.8   8.5736e-17 
     4555.8   8.4612e-17 
     4556.8   8.7836e-17 
     4557.8    7.556e-17 
     4558.8    8.075e-17 
     4559.8   1.0138e-16 
     4560.8   9.3469e-17 
     4561.8   9.2454e-17 
     4562.8    9.133e-17 
     4563.8   8.4141e-17 
     4564.8   8.6808e-17 
     4565.8   8.9279e-17 
     4566.8   8.8404e-17 
     4567.8   8.0017e-17 
     4568.8   7.3269e-17 
     4569.8   7.6532e-17 
     4570.8   8.5788e-17 
     4571.8    9.219e-17 
     4572.8   1.0281e-16 
     4573.8   1.0747e-16 
     4574.8   9.4478e-17 
     4575.8   8.7441e-17 
     4576.8   8.9619e-17 
     4577.8   7.9914e-17 
     4578.8   5.7711e-17 
     4579.8   5.9642e-17 
     4580.8   7.8619e-17 
     4581.8   8.3828e-17 
     4582.8   8.5858e-17 
     4583.8   8.1351e-17 
     4584.8   7.6569e-17 
     4585.8   8.0075e-17 
     4586.8   9.0236e-17 
     4587.8   9.0242e-17 
     4588.8   7.3153e-17 
     4589.8   7.9118e-17 
     4590.8   9.5766e-17 
     4591.8   9.2254e-17 
     4592.8   9.3487e-17 
     4593.8   8.9267e-17 
     4594.8   8.0048e-17 
     4595.8   8.3253e-17 
     4596.8   1.0909e-16 
     4597.8   1.1374e-16 
     4598.8   9.0054e-17 
     4599.8   8.1503e-17 
     4600.8   9.4444e-17 
     4601.8    9.631e-17 
     4602.8    9.271e-17 
     4603.8   8.4818e-17 
     4604.8    8.679e-17 
     4605.8    9.143e-17 
     4606.8   8.4818e-17 
     4607.8   9.6648e-17 
     4608.8   8.2922e-17 
     4609.8   8.6948e-17 
     4610.8   9.2919e-17 
     4611.8   9.4867e-17 
     4612.8   9.1807e-17 
     4613.8   9.2485e-17 
     4614.8   9.0628e-17 
     4615.8   7.9902e-17 
     4616.8   8.6158e-17 
     4617.8   9.6751e-17 
     4618.8   8.7033e-17 
     4619.8   8.2385e-17 
     4620.8    8.058e-17 
     4621.8   8.1856e-17 
     4622.8   8.4645e-17 
     4623.8   8.4925e-17 
     4624.8   8.1084e-17 
     4625.8   8.6884e-17 
     4626.8   8.4633e-17 
     4627.8   8.3919e-17 
     4628.8   8.5462e-17 
     4629.8   8.0744e-17 
     4630.8   8.0245e-17 
     4631.8   9.2907e-17 
     4632.8   8.5806e-17 
     4633.8   8.4779e-17 
     4634.8   8.9522e-17 
     4635.8   8.4211e-17 
     4636.8   8.4362e-17 
     4637.8   7.9698e-17 
     4638.8   7.8204e-17 
     4639.8   8.3421e-17 
     4640.8   9.4979e-17 
     4641.8   9.4381e-17 
     4642.8   8.4946e-17 
     4643.8   8.2354e-17 
     4644.8   8.3329e-17 
     4645.8   7.6116e-17 
     4646.8   6.5493e-17 
     4647.8    7.034e-17 
     4648.8   8.5596e-17 
     4649.8   7.7276e-17 
     4650.8   6.9273e-17 
     4651.8    8.813e-17 
     4652.8   7.8726e-17 
     4653.8   6.2751e-17 
     4654.8   7.1865e-17 
     4655.8   7.0996e-17 
     4656.8   7.6198e-17 
     4657.8   8.9522e-17 
     4658.8   9.8555e-17 
     4659.8     9.98e-17 
     4660.8   8.5301e-17 
     4661.8   8.1786e-17 
     4662.8    8.112e-17 
     4663.8   9.1196e-17 
     4664.8   8.8213e-17 
     4665.8   7.9868e-17 
     4666.8   8.7249e-17 
     4667.8   8.2859e-17 
     4668.8   8.2795e-17 
     4669.8   8.7389e-17 
     4670.8   8.8413e-17 
     4671.8   8.7538e-17 
     4672.8   8.8814e-17 
     4673.8   8.8972e-17 
     4674.8   8.5934e-17 
     4675.8   8.8647e-17 
     4676.8   8.2673e-17 
     4677.8   8.7984e-17 
     4678.8   8.9291e-17 
     4679.8   8.9306e-17 
     4680.8   7.7049e-17 
     4681.8   8.1485e-17 
     4682.8   8.4031e-17 
     4683.8   7.9756e-17 
     4684.8   6.9324e-17 
     4685.8   6.7875e-17 
     4686.8   7.8632e-17 
     4687.8    8.552e-17 
     4688.8   7.9002e-17 
     4689.8   7.2782e-17 
     4690.8   7.4694e-17 
     4691.8   1.0563e-16 
     4692.8   1.0008e-16 
     4693.8   8.5392e-17 
     4694.8   7.9501e-17 
     4695.8   9.0218e-17 
     4696.8   9.2624e-17 
     4697.8   8.3445e-17 
     4698.8   7.5004e-17 
     4699.8   7.8413e-17 
     4700.8   8.6599e-17 
     4701.8   9.2937e-17 
     4702.8   9.0288e-17 
     4703.8   7.8167e-17 
     4704.8   7.7252e-17 
     4705.8   8.1454e-17 
     4706.8    7.618e-17 
     4707.8   7.6396e-17 
     4708.8   7.7137e-17 
     4709.8   8.6304e-17 
     4710.8   9.0066e-17 
     4711.8   8.1892e-17 
     4712.8    8.649e-17 
     4713.8   8.9528e-17 
     4714.8   8.7441e-17 
     4715.8   9.4822e-17 
     4716.8   9.7511e-17 
     4717.8    8.061e-17 
     4718.8   7.4514e-17 
     4719.8   7.4201e-17 
     4720.8   7.0966e-17 
     4721.8   7.3946e-17 
     4722.8   7.7669e-17 
     4723.8   7.9653e-17 
     4724.8   8.2767e-17 
     4725.8   8.5961e-17 
     4726.8   8.0586e-17 
     4727.8   8.3357e-17 
     4728.8   6.8705e-17 
     4729.8    5.872e-17 
     4730.8   6.4746e-17 
     4731.8    7.607e-17 
     4732.8   8.7319e-17 
     4733.8   1.0192e-16 
     4734.8    9.869e-17 
     4735.8   9.0428e-17 
     4736.8   8.3399e-17 
     4737.8   9.5058e-17 
     4738.8   8.8285e-17 
     4739.8   7.4399e-17 
     4740.8   8.2992e-17 
     4741.8   7.8215e-17 
     4742.8   6.6241e-17 
     4743.8   7.4858e-17 
     4744.8    7.913e-17 
     4745.8    8.243e-17 
     4746.8   8.4703e-17 
     4747.8   7.6162e-17 
     4748.8   7.4764e-17 
     4749.8   8.0865e-17 
     4750.8   8.8106e-17 
     4751.8   9.4603e-17 
     4752.8   8.1479e-17 
     4753.8   7.6116e-17 
     4754.8    6.896e-17 
     4755.8   7.0015e-17 
     4756.8   7.4201e-17 
     4757.8   7.9085e-17 
     4758.8   8.1011e-17 
     4759.8   8.6636e-17 
     4760.8   8.5004e-17 
     4761.8   8.0042e-17 
     4762.8   8.5627e-17 
     4763.8   8.3955e-17 
     4764.8   7.8662e-17 
     4765.8   9.0455e-17 
     4766.8   6.6973e-17 
     4767.8   5.3761e-17 
     4768.8   6.3928e-17 
     4769.8   7.5624e-17 
     4770.8   6.8647e-17 
     4771.8   6.2049e-17 
     4772.8   7.2017e-17 
     4773.8   8.0947e-17 
     4774.8   8.1172e-17 
     4775.8   7.6013e-17 
     4776.8   7.3244e-17 
     4777.8    7.879e-17 
     4778.8   7.6532e-17 
     4779.8   5.3696e-17 
     4780.8   5.9127e-17 
     4781.8   8.2725e-17 
     4782.8   8.8513e-17 
     4783.8   8.0528e-17 
     4784.8   6.7167e-17 
     4785.8   7.1901e-17 
     4786.8   8.9395e-17 
     4787.8   9.2834e-17 
     4788.8   8.3527e-17 
     4789.8   7.4813e-17 
     4790.8   7.8811e-17 
     4791.8   8.4861e-17 
     4792.8   7.4296e-17 
     4793.8   6.9246e-17 
     4794.8   6.8914e-17 
     4795.8   6.8124e-17 
     4796.8   6.3191e-17 
     4797.8   8.6007e-17 
     4798.8   7.9422e-17 
     4799.8   5.4082e-17 
     4800.8   6.4132e-17 
     4801.8   7.5453e-17 
     4802.8   8.8553e-17 
     4803.8    8.271e-17 
     4804.8   7.8668e-17 
     4805.8   8.5845e-17 
     4806.8   8.6055e-17 
     4807.8   8.3086e-17 
     4808.8   7.1476e-17 
     4809.8   8.0929e-17 
     4810.8   8.5238e-17 
     4811.8   8.6189e-17 
     4812.8   9.0218e-17 
     4813.8   7.8735e-17 
     4814.8   5.9532e-17 
     4815.8   8.1294e-17 
     4816.8   8.1044e-17 
     4817.8   8.2974e-17 
     4818.8   8.5909e-17 
     4819.8   8.2072e-17 
     4820.8   7.3995e-17 
     4821.8   7.1212e-17 
     4822.8   7.3014e-17 
     4823.8   7.4916e-17 
     4824.8   8.2087e-17 
     4825.8   9.0242e-17 
     4826.8   7.6326e-17 
     4827.8   6.6712e-17 
     4828.8   7.2254e-17 
     4829.8   9.3703e-17 
     4830.8   9.2114e-17 
     4831.8   9.3831e-17 
     4832.8   8.9732e-17 
     4833.8   7.9555e-17 
     4834.8   7.8377e-17 
     4835.8    7.879e-17 
     4836.8    7.514e-17 
     4837.8   7.7866e-17 
     4838.8   8.9492e-17 
     4839.8   9.0501e-17 
     4840.8   8.1843e-17 
     4841.8   6.5469e-17 
     4842.8   6.6508e-17 
     4843.8   7.0218e-17 
     4844.8   5.9375e-17 
     4845.8   6.2855e-17 
     4846.8   8.0267e-17 
     4847.8   8.9656e-17 
     4848.8   9.0236e-17 
     4849.8    8.112e-17 
     4850.8   6.1991e-17 
     4851.8   6.0773e-17 
     4852.8   7.4098e-17 
     4853.8   7.1488e-17 
     4854.8   6.9783e-17 
     4855.8   7.1534e-17 
     4856.8   5.9497e-17 
     4857.8   5.8025e-17 
     4858.8   6.2014e-17 
     4859.8   6.2988e-17 
     4860.8   6.6016e-17 
     4861.8   6.8429e-17 
     4862.8   7.4354e-17 
     4863.8    7.284e-17 
     4864.8   6.3568e-17 
     4865.8   6.7535e-17 
     4866.8   7.9601e-17 
     4867.8   7.6569e-17 
     4868.8    9.271e-17 
     4869.8   8.9741e-17 
     4870.8   8.9492e-17 
     4871.8   8.4739e-17 
     4872.8   7.6198e-17 
     4873.8   7.6486e-17 
     4874.8   7.1679e-17 
     4875.8   6.1643e-17 
     4876.8   6.4822e-17 
     4877.8   6.5557e-17 
     4878.8   6.5505e-17 
     4879.8    6.642e-17 
     4880.8   5.1464e-17 
     4881.8   6.3586e-17 
     4882.8   7.9735e-17 
     4883.8   7.4399e-17 
     4884.8   5.8245e-17 
     4885.8   6.0182e-17 
     4886.8   5.5936e-17 
     4887.8    6.958e-17 
     4888.8   6.0814e-17 
     4889.8   6.4229e-17 
     4890.8   7.7808e-17 
     4891.8    7.673e-17 
     4892.8   6.6605e-17 
     4893.8   6.9756e-17 
     4894.8   8.1454e-17 
     4895.8   8.0899e-17 
     4896.8   8.0315e-17 
     4897.8   6.7599e-17 
     4898.8   6.1718e-17 
     4899.8   7.2974e-17 
     4900.8   8.1461e-17 
     4901.8   6.8927e-17 
     4902.8   5.9306e-17 
     4903.8   7.7781e-17 
     4904.8   1.0297e-16 
     4905.8   9.7459e-17 
     4906.8   8.2099e-17 
     4907.8   8.0024e-17 
     4908.8   7.8981e-17 
     4909.8   7.4445e-17 
     4910.8   7.9391e-17 
     4911.8   7.6149e-17 
     4912.8   7.8875e-17 
     4913.8   8.2697e-17 
     4914.8   7.2852e-17 
     4915.8   6.4044e-17 
     4916.8   7.1704e-17 
     4917.8   7.0653e-17 
     4918.8    6.398e-17 
     4919.8   7.4226e-17 
     4920.8   8.4691e-17 
     4921.8   8.3925e-17 
     4922.8   8.1014e-17 
     4923.8   7.9206e-17 
     4924.8   7.7994e-17 
     4925.8   8.3485e-17 
     4926.8   7.9884e-17 
     4927.8   6.3185e-17 
     4928.8   7.0583e-17 
     4929.8   7.2458e-17 
     4930.8   7.4156e-17 
     4931.8   8.0759e-17 
     4932.8   7.2989e-17 
     4933.8   8.1427e-17 
     4934.8   8.2998e-17 
     4935.8   7.0498e-17 
     4936.8   6.4317e-17 
     4937.8   6.7976e-17 
     4938.8   7.8708e-17 
     4939.8    8.195e-17 
     4940.8   7.0249e-17 
     4941.8   7.0573e-17 
     4942.8    8.312e-17 
     4943.8   8.2372e-17 
     4944.8    8.298e-17 
     4945.8   7.8671e-17 
     4946.8   5.9289e-17 
     4947.8   7.2567e-17 
     4948.8   7.8452e-17 
     4949.8   7.4387e-17 
     4950.8   7.6754e-17 
     4951.8   7.8109e-17 
     4952.8   7.4092e-17 
     4953.8   7.8243e-17 
     4954.8    7.992e-17 
     4955.8    8.707e-17 
     4956.8   8.0437e-17 
     4957.8    6.786e-17 
     4958.8   7.2363e-17 
     4959.8   7.7219e-17 
     4960.8   6.4113e-17 
     4961.8   5.6949e-17 
     4962.8   7.9729e-17 
     4963.8   8.1269e-17 
     4964.8   7.4949e-17 
     4965.8   7.3676e-17 
     4966.8   7.3238e-17 
     4967.8   6.9623e-17 
     4968.8   6.4965e-17 
     4969.8   7.7711e-17 
     4970.8   7.4834e-17 
     4971.8   7.7055e-17 
     4972.8   6.8143e-17 
     4973.8   7.3327e-17 
     4974.8   9.5338e-17 
     4975.8    7.659e-17 
     4976.8   8.1971e-17 
     4977.8   8.3172e-17 
     4978.8   8.6623e-17 
     4979.8    8.847e-17 
     4980.8   8.6541e-17 
     4981.8   8.7046e-17 
     4982.8   8.9413e-17 
     4983.8   8.0604e-17 
     4984.8   7.9212e-17 
     4985.8   8.5648e-17 
     4986.8   7.3408e-17 
     4987.8   8.5551e-17 
     4988.8   8.9045e-17 
     4989.8   1.0014e-16 
     4990.8   8.1333e-17 
     4991.8   8.4338e-17 
     4992.8   8.2998e-17 
     4993.8   8.5028e-17 
     4994.8    8.178e-17 
     4995.8   6.7556e-17 
     4996.8   6.6642e-17 
     4997.8    8.508e-17 
     4998.8   9.3406e-17 
     4999.8   8.7064e-17 
     5000.8   8.4101e-17 
     5001.8   8.0807e-17 
     5002.8    9.408e-17 
     5003.8   8.7267e-17 
     5004.8   7.8875e-17 
     5005.8   7.6909e-17 
     5006.8   8.5757e-17 
     5007.8   8.4211e-17 
     5008.8   7.7884e-17 
     5009.8   8.5189e-17 
     5010.8   9.0856e-17 
     5011.8   7.9704e-17 
     5012.8   7.8714e-17 
     5013.8   9.2473e-17 
     5014.8   9.9246e-17 
     5015.8   8.8826e-17 
     5016.8   9.1394e-17 
     5017.8    8.799e-17 
     5018.8   8.3661e-17 
     5019.8   7.7404e-17 
     5020.8   7.2868e-17 
     5021.8   8.9355e-17 
     5022.8   1.0619e-16 
     5023.8   9.8127e-17 
     5024.8   8.1403e-17 
     5025.8   8.2615e-17 
     5026.8   9.0172e-17 
     5027.8   8.9619e-17 
     5028.8   9.4323e-17 
     5029.8    8.704e-17 
     5030.8   9.3952e-17 
     5031.8   8.4715e-17 
     5032.8   7.4481e-17 
     5033.8   8.1397e-17 
     5034.8   7.7137e-17 
     5035.8   7.8459e-17 
     5036.8   7.1698e-17 
     5037.8   7.9544e-17 
     5038.8   9.5696e-17 
     5039.8    9.253e-17 
     5040.8   8.7696e-17 
     5041.8   9.5523e-17 
     5042.8   8.7364e-17 
     5043.8   8.4657e-17 
     5044.8   8.7256e-17 
     5045.8    8.384e-17 
     5046.8   7.7283e-17 
     5047.8   7.9315e-17 
     5048.8   9.3013e-17 
     5049.8   8.5207e-17 
     5050.8    8.783e-17 
     5051.8   8.1932e-17 
     5052.8   8.3983e-17 
     5053.8   9.3263e-17 
     5054.8   9.2305e-17 
     5055.8   8.8462e-17 
     5056.8   9.4739e-17 
     5057.8   1.0185e-16 
     5058.8   1.0521e-16 
     5059.8   8.8641e-17 
     5060.8   7.9659e-17 
     5061.8   1.0773e-16 
     5062.8   9.4724e-17 
     5063.8   9.7738e-17 
     5064.8   8.9483e-17 
     5065.8   9.9431e-17 
     5066.8   1.0119e-16 
     5067.8   9.2126e-17 
     5068.8   8.4529e-17 
     5069.8   7.0044e-17 
     5070.8    7.978e-17 
     5071.8    8.195e-17 
     5072.8   7.2971e-17 
     5073.8   8.1659e-17 
     5074.8   7.0642e-17 
     5075.8   7.5453e-17 
     5076.8   8.4293e-17 
     5077.8   8.4551e-17 
     5078.8   8.7389e-17 
     5079.8   9.1622e-17 
     5080.8   9.4457e-17 
     5081.8   8.5329e-17 
     5082.8   8.4116e-17 
     5083.8   9.5186e-17 
     5084.8   9.3563e-17 
     5085.8   8.3937e-17 
     5086.8   8.7772e-17 
     5087.8    8.868e-17 
     5088.8   8.4063e-17 
     5089.8   8.2935e-17 
     5090.8   8.8367e-17 
     5091.8   9.4299e-17 
     5092.8    7.569e-17 
     5093.8   7.6614e-17 
     5094.8    7.535e-17 
     5095.8   8.5672e-17 
     5096.8    9.085e-17 
     5097.8   8.8079e-17 
     5098.8   8.6426e-17 
     5099.8   1.0098e-16 
     5100.8   1.1058e-16 
     5101.8   9.9551e-17 
     5102.8   9.3697e-17 
     5103.8   9.1187e-17 
     5104.8   8.3782e-17 
     5105.8   8.3834e-17 
     5106.8    9.253e-17 
     5107.8   1.0179e-16 
     5108.8   1.0065e-16 
     5109.8   9.5116e-17 
     5110.8   9.9979e-17 
     5111.8   1.0004e-16 
     5112.8   9.6711e-17 
     5113.8   1.0016e-16 
     5114.8   1.0521e-16 
     5115.8   9.1239e-17 
     5116.8   6.6607e-17 
     5117.8   9.4682e-17 
     5118.8   9.4745e-17 
     5119.8   9.3053e-17 
     5120.8   7.6326e-17 
     5121.8   8.1822e-17 
     5122.8   9.4405e-17 
     5123.8   8.0424e-17 
     5124.8   7.4707e-17 
     5125.8   7.6365e-17 
     5126.8   8.7027e-17 
     5127.8   9.5192e-17 
     5128.8    9.738e-17 
     5129.8   9.6179e-17 
     5130.8   9.4048e-17 
     5131.8    9.799e-17 
     5132.8   8.2522e-17 
     5133.8   7.7808e-17 
     5134.8   7.3691e-17 
     5135.8   6.8501e-17 
     5136.8   7.5542e-17 
     5137.8   8.0719e-17 
     5138.8   8.2661e-17 
     5139.8   1.0234e-16 
     5140.8   1.0945e-16 
     5141.8   1.0914e-16 
     5142.8   9.7142e-17 
     5143.8   1.0331e-16 
     5144.8   1.0118e-16 
     5145.8   9.1917e-17 
     5146.8   9.1215e-17 
     5147.8   9.3952e-17 
     5148.8   8.0069e-17 
     5149.8   9.8653e-17 
     5150.8   8.9963e-17 
     5151.8   9.0449e-17 
     5152.8   8.7398e-17 
     5153.8   8.8246e-17 
     5154.8   8.8604e-17 
     5155.8   8.9741e-17 
     5156.8   9.0698e-17 
     5157.8     8.94e-17 
     5158.8   8.7346e-17 
     5159.8   8.8798e-17 
     5160.8   1.0281e-16 
     5161.8   1.1341e-16 
     5162.8   1.0557e-16 
     5163.8   7.5906e-17 
     5164.8   7.9039e-17 
     5165.8   7.8498e-17 
     5166.8   8.2494e-17 
     5167.8   8.7526e-17 
     5168.8   8.4038e-17 
     5169.8   8.0431e-17 
     5170.8   8.4287e-17 
     5171.8   8.6803e-17 
     5172.8   8.2278e-17 
     5173.8   7.9519e-17 
     5174.8   7.6766e-17 
     5175.8   7.9223e-17 
     5176.8   8.2229e-17 
     5177.8   9.0443e-17 
     5178.8   1.0119e-16 
     5179.8    9.009e-17 
     5180.8   8.3756e-17 
     5181.8   9.7617e-17 
     5182.8   9.4853e-17 
     5183.8   9.0968e-17 
     5184.8   9.5261e-17 
     5185.8   9.6138e-17 
     5186.8    8.881e-17 
     5187.8    8.612e-17 
     5188.8   8.9598e-17 
     5189.8   8.9127e-17 
     5190.8   8.5016e-17 
     5191.8   8.8726e-17 
     5192.8    8.322e-17 
     5193.8   7.3084e-17 
     5194.8   7.3251e-17 
     5195.8   8.3788e-17 
     5196.8   7.2689e-17 
     5197.8   7.8344e-17 
     5198.8   8.9346e-17 
     5199.8   9.0495e-17 
     5200.8   8.7943e-17 
     5201.8   8.9087e-17 
     5202.8    9.027e-17 
     5203.8   7.9578e-17 
     5204.8   8.6586e-17 
     5205.8   9.5692e-17 
     5206.8   8.8309e-17 
     5207.8   9.1912e-17 
     5208.8   8.4053e-17 
     5209.8   8.1368e-17 
     5210.8   7.8232e-17 
     5211.8   8.1701e-17 
     5212.8   8.3655e-17 
     5213.8   9.1009e-17 
     5214.8   1.0012e-16 
     5215.8   9.5794e-17 
     5216.8   9.7653e-17 
     5217.8   1.0874e-16 
     5218.8   8.5164e-17 
     5219.8   7.7291e-17 
     5220.8   8.0494e-17 
     5221.8   7.4934e-17 
     5222.8   9.0671e-17 
     5223.8   8.1716e-17 
     5224.8   7.5043e-17 
     5225.8   7.3026e-17 
     5226.8   7.5153e-17 
     5227.8   7.9711e-17 
     5228.8   6.9737e-17 
     5229.8   6.7232e-17 
     5230.8   7.6419e-17 
     5231.8   8.6272e-17 
     5232.8   9.1072e-17 
     5233.8   7.1671e-17 
     5234.8   6.9907e-17 
     5235.8   8.3911e-17 
     5236.8    7.231e-17 
     5237.8   7.7491e-17 
     5238.8   8.7734e-17 
     5239.8   7.1969e-17 
     5240.8   6.5165e-17 
     5241.8   7.1556e-17 
     5242.8   7.3412e-17 
     5243.8   7.1546e-17 
     5244.8    7.171e-17 
     5245.8   7.4042e-17 
     5246.8   7.7662e-17 
     5247.8   8.9978e-17 
     5248.8   9.0313e-17 
     5249.8    7.375e-17 
     5250.8   8.0679e-17 
     5251.8   7.6868e-17 
     5252.8   7.3278e-17 
     5253.8   4.9139e-17 
     5254.8   4.3052e-17 
     5255.8   5.8041e-17 
     5256.8   8.5436e-17 
     5257.8   8.5366e-17 
     5258.8   7.8024e-17 
     5259.8   6.9428e-17 
     5260.8   6.4867e-17 
     5261.8   7.1686e-17 
     5262.8   7.5542e-17 
     5263.8    8.635e-17 
     5264.8   9.0305e-17 
     5265.8   9.7235e-17 
     5266.8    9.088e-17 
     5267.8   7.6273e-17 
     5268.8    7.309e-17 
     5269.8   7.9461e-17 
     5270.8   8.0039e-17 
     5271.8   6.3959e-17 
     5272.8   6.3075e-17 
     5273.8   7.6479e-17 
     5274.8    8.152e-17 
     5275.8   7.0081e-17 
     5276.8   6.7389e-17 
     5277.8    7.203e-17 
     5278.8   8.9975e-17 
     5279.8   7.8584e-17 
     5280.8   8.2085e-17 
     5281.8   7.0579e-17 
     5282.8   7.9607e-17 
     5283.8   6.9732e-17 
     5284.8    7.779e-17 
     5285.8   6.9385e-17 
     5286.8   6.9862e-17 
     5287.8    6.974e-17 
     5288.8   6.2273e-17 
     5289.8   6.2737e-17 
     5290.8   7.5979e-17 
     5291.8   7.4871e-17 
     5292.8   7.1007e-17 
     5293.8   6.6784e-17 
     5294.8   6.6497e-17 
     5295.8   7.5581e-17 
     5296.8   8.3706e-17 
     5297.8   9.2011e-17 
     5298.8   8.2795e-17 
     5299.8   7.6085e-17 
     5300.8   7.7568e-17 
     5301.8   8.4673e-17 
     5302.8   8.0353e-17 
     5303.8   6.2669e-17 
     5304.8   5.9782e-17 
     5305.8   7.0308e-17 
     5306.8   7.5011e-17 
     5307.8   7.3194e-17 
     5308.8   7.4828e-17 
     5309.8    7.058e-17 
     5310.8   6.4241e-17 
     5311.8   6.1163e-17 
     5312.8   6.8167e-17 
     5313.8   8.3427e-17 
     5314.8   8.4327e-17 
     5315.8   7.4827e-17 
     5316.8    7.441e-17 
     5317.8   7.8687e-17 
     5318.8    7.774e-17 
     5319.8    7.357e-17 
     5320.8   7.2919e-17 
     5321.8   7.7796e-17 
     5322.8   7.8343e-17 
     5323.8   7.8413e-17 
     5324.8   7.7349e-17 
     5325.8   7.2362e-17 
     5326.8   7.1362e-17 
     5327.8   6.8266e-17 
     5328.8   6.5759e-17 
     5329.8     7.04e-17 
     5330.8   7.1525e-17 
     5331.8    8.084e-17 
     5332.8   8.8068e-17 
     5333.8    8.059e-17 
     5334.8   7.4791e-17 
     5335.8   7.0972e-17 
     5336.8   6.7575e-17 
     5337.8    5.759e-17 
     5338.8   6.3032e-17 
     5339.8   7.4902e-17 
     5340.8   7.6769e-17 
     5341.8   9.9376e-17 
     5342.8   9.2771e-17 
     5343.8   8.3777e-17 
     5344.8   8.1327e-17 
     5345.8   7.5699e-17 
     5346.8    7.448e-17 
     5347.8   7.5004e-17 
     5348.8   7.2357e-17 
     5349.8   7.0806e-17 
     5350.8   6.7171e-17 
     5351.8   5.9313e-17 
     5352.8   6.4098e-17 
     5353.8   6.4702e-17 
     5354.8   7.4141e-17 
     5355.8   7.0306e-17 
     5356.8   6.6462e-17 
     5357.8   6.1956e-17 
     5358.8   6.4724e-17 
     5359.8   5.8821e-17 
     5360.8   5.6367e-17 
     5361.8   7.4173e-17 
     5362.8   8.4599e-17 
     5363.8    8.289e-17 
     5364.8    7.608e-17 
     5365.8   7.3153e-17 
     5366.8   8.3441e-17 
     5367.8   8.0124e-17 
     5368.8   7.3752e-17 
     5369.8    7.573e-17 
     5370.8   7.2073e-17 
     5371.8   5.9333e-17 
     5372.8   6.1488e-17 
     5373.8   7.1758e-17 
     5374.8   7.8864e-17 
     5375.8   7.6229e-17 
     5376.8   7.2464e-17 
     5377.8   7.3937e-17 
     5378.8   7.5106e-17 
     5379.8   8.5724e-17 
     5380.8   9.3382e-17 
     5381.8    9.877e-17 
     5382.8   9.4068e-17 
     5383.8   8.8458e-17 
     5384.8   9.4136e-17 
     5385.8    1.013e-16 
     5386.8    9.891e-17 
     5387.8    1.021e-16 
     5388.8   9.1768e-17 
     5389.8   7.2911e-17 
     5390.8   6.9709e-17 
     5391.8   7.2194e-17 
     5392.8    6.945e-17 
     5393.8   6.1487e-17 
     5394.8   5.8577e-17 
     5395.8    6.968e-17 
     5396.8   8.1447e-17 
     5397.8   7.0807e-17 
     5398.8   7.2125e-17 
     5399.8   6.9453e-17 
     5400.8   7.8738e-17 
     5401.8   7.1358e-17 
     5402.8    5.931e-17 
     5403.8   5.6281e-17 
     5404.8   6.8057e-17 
     5405.8    7.342e-17 
     5406.8   7.7346e-17 
     5407.8   7.9776e-17 
     5408.8    7.676e-17 
     5409.8   7.9755e-17 
     5410.8   8.5128e-17 
     5411.8   8.0364e-17 
     5412.8    7.239e-17 
     5413.8   7.6168e-17 
     5414.8   6.6961e-17 
     5415.8   7.2136e-17 
     5416.8   7.2541e-17 
     5417.8   7.7013e-17 
     5418.8   7.7224e-17 
     5419.8   8.1935e-17 
     5420.8   8.1887e-17 
     5421.8   7.3772e-17 
     5422.8   7.6738e-17 
     5423.8   9.3338e-17 
     5424.8   9.4657e-17 
     5425.8   7.3887e-17 
     5426.8   6.1563e-17 
     5427.8   6.5786e-17 
     5428.8    7.519e-17 
     5429.8   6.8106e-17 
     5430.8   7.5095e-17 
     5431.8   8.2857e-17 
     5432.8     7.74e-17 
     5433.8   7.2158e-17 
     5434.8    7.643e-17 
     5435.8   7.7269e-17 
     5436.8   7.2273e-17 
     5437.8   7.1264e-17 
     5438.8   6.5202e-17 
     5439.8   7.2781e-17 
     5440.8   7.9978e-17 
     5441.8   6.9616e-17 
     5442.8   6.9994e-17 
     5443.8   8.6569e-17 
     5444.8   9.4821e-17 
     5445.8   7.0531e-17 
     5446.8   7.4108e-17 
     5447.8   8.6465e-17 
     5448.8   9.4529e-17 
     5449.8   9.5487e-17 
     5450.8   8.4526e-17 
     5451.8   6.9768e-17 
     5452.8   7.1608e-17 
     5453.8   6.8086e-17 
     5454.8   7.4453e-17 
     5455.8   7.5938e-17 
     5456.8   8.5107e-17 
     5457.8   7.4338e-17 
     5458.8   8.9292e-17 
     5459.8   8.8331e-17 
     5460.8   9.0453e-17 
     5461.8   9.1486e-17 
     5462.8   9.8807e-17 
     5463.8   9.1354e-17 
     5464.8    7.832e-17 
     5465.8   7.0391e-17 
     5466.8   7.1123e-17 
     5467.8   6.6876e-17 
     5468.8   6.4143e-17 
     5469.8   7.4282e-17 
     5470.8   8.5988e-17 
     5471.8   8.1366e-17 
     5472.8   7.3358e-17 
     5473.8   7.3844e-17 
     5474.8   7.1054e-17 
     5475.8   6.8341e-17 
     5476.8   7.2039e-17 
     5477.8   8.6128e-17 
     5478.8   8.8403e-17 
     5479.8   8.5492e-17 
     5480.8    8.168e-17 
     5481.8    8.016e-17 
     5482.8   8.2731e-17 
     5483.8   6.8669e-17 
     5484.8   6.9199e-17 
     5485.8   7.1957e-17 
     5486.8   7.3382e-17 
     5487.8   8.6569e-17 
     5488.8   7.5645e-17 
     5489.8   7.3101e-17 
     5490.8   8.0682e-17 
     5491.8   7.7351e-17 
     5492.8    7.377e-17 
     5493.8   8.0814e-17 
     5494.8   8.0287e-17 
     5495.8   7.8435e-17 
     5496.8   8.3517e-17 
     5497.8   9.1161e-17 
     5498.8   9.4235e-17 
     5499.8   9.4269e-17 
     5500.8    9.593e-17 
     5501.8   9.5735e-17 
     5502.8   8.4697e-17 
     5503.8   8.8951e-17 
     5504.8   9.6607e-17 
     5505.8   9.5334e-17 
     5506.8   9.0186e-17 
     5507.8   8.3743e-17 
     5508.8   7.9905e-17 
     5509.8     8.55e-17 
     5510.8   9.1737e-17 
     5511.8   8.5826e-17 
     5512.8   8.1859e-17 
     5513.8    8.041e-17 
     5514.8   7.8437e-17 
     5515.8   7.7567e-17 
     5516.8     8.59e-17 
     5517.8   7.5395e-17 
     5518.8    7.586e-17 
     5519.8   7.5733e-17 
     5520.8   7.6908e-17 
     5521.8   8.4823e-17 
     5522.8    9.235e-17 
     5523.8   9.0681e-17 
     5524.8   8.0861e-17 
     5525.8   7.9508e-17 
     5526.8   8.1376e-17 
     5527.8     7.77e-17 
     5528.8   9.0773e-17 
     5529.8   8.9753e-17 
     5530.8   7.8814e-17 
     5531.8   9.0002e-17 
     5532.8   8.7611e-17 
     5533.8   8.8625e-17 
     5534.8    8.683e-17 
     5535.8   8.8737e-17 
     5536.8   8.9277e-17 
     5537.8   9.0666e-17 
     5538.8   9.2993e-17 
     5539.8   9.4061e-17 
     5540.8   9.3873e-17 
     5541.8   9.2251e-17 
     5542.8   8.9758e-17 
     5543.8   9.2542e-17 
     5544.8   9.4647e-17 
     5545.8   9.8796e-17 
     5546.8   9.1498e-17 
     5547.8   9.8141e-17 
     5548.8   1.2752e-16 
     5549.8   1.3601e-16 
     5550.8   1.2841e-16 
     5551.8   1.1441e-16 
     5552.8    1.033e-16 
     5553.8   9.5945e-17 
     5554.8   1.0031e-16 
     5555.8   1.0851e-16 
     5556.8   1.0493e-16 
     5557.8   9.7295e-17 
     5558.8   8.5157e-17 
     5559.8   8.4865e-17 
     5560.8   9.6629e-17 
     5561.8   9.6313e-17 
     5562.8   8.7492e-17 
     5563.8   8.6685e-17 
     5564.8   8.7105e-17 
     5565.8   8.1913e-17 
     5566.8   8.3186e-17 
     5567.8   8.8151e-17 
     5568.8   8.6774e-17 
     5569.8   7.7903e-17 
     5570.8   8.3457e-17 
     5571.8   8.3015e-17 
     5572.8   7.6682e-17 
     5573.8   8.5911e-17 
     5574.8   9.0526e-17 
     5575.8   9.3075e-17 
     5576.8   7.8778e-17 
     5577.8   8.1728e-17 
     5578.8   8.9902e-17 
     5579.8   8.8124e-17 
     5580.8   7.4304e-17 
     5581.8   7.9151e-17 
     5582.8    8.004e-17 
     5583.8    6.303e-17 
     5584.8   6.1268e-17 
     5585.8   7.1747e-17 
     5586.8   8.4832e-17 
     5587.8   9.0075e-17 
     5588.8   8.2514e-17 
     5589.8   8.4279e-17 
     5590.8   7.8809e-17 
     5591.8    6.618e-17 
     5592.8   6.8446e-17 
     5593.8   7.1163e-17 
     5594.8   7.2119e-17 
     5595.8    7.069e-17 
     5596.8    7.186e-17 
     5597.8   7.1741e-17 
     5598.8   7.1639e-17 
     5599.8   7.6907e-17 
     5600.8   7.5089e-17 
     5601.8   6.6663e-17 
     5602.8   7.3883e-17 
     5603.8   7.7791e-17 
     5604.8   6.3961e-17 
     5605.8    6.662e-17 
     5606.8    8.086e-17 
     5607.8    8.609e-17 
     5608.8   7.7843e-17 
     5609.8   7.0012e-17 
     5610.8   7.1576e-17 
     5611.8   8.2383e-17 
     5612.8   8.2915e-17 
     5613.8   7.6682e-17 
     5614.8   7.8055e-17 
     5615.8   8.4615e-17 
     5616.8   7.5277e-17 
     5617.8   7.1884e-17 
     5618.8   8.0267e-17 
     5619.8   7.8946e-17 
     5620.8   7.8338e-17 
     5621.8   8.1975e-17 
     5622.8   7.8779e-17 
     5623.8    7.217e-17 
     5624.8   6.7779e-17 
     5625.8   6.5936e-17 
     5626.8   6.8135e-17 
     5627.8   6.1441e-17 
     5628.8   5.8907e-17 
     5629.8   7.6093e-17 
     5630.8   7.5156e-17 
     5631.8   7.7124e-17 
     5632.8   7.0544e-17 
     5633.8   6.2708e-17 
     5634.8   6.6485e-17 
     5635.8   8.1888e-17 
     5636.8   8.0332e-17 
     5637.8   7.2579e-17 
     5638.8    6.935e-17 
     5639.8   7.2207e-17 
     5640.8   6.5222e-17 
     5641.8   7.1636e-17 
     5642.8   8.5632e-17 
     5643.8   8.8074e-17 
     5644.8   7.9509e-17 
     5645.8   8.7836e-17 
     5646.8   8.3884e-17 
     5647.8   7.5097e-17 
     5648.8   7.7208e-17 
     5649.8   8.4701e-17 
     5650.8   7.5606e-17 
     5651.8   6.3859e-17 
     5652.8   7.3402e-17 
     5653.8   7.2483e-17 
     5654.8   6.9809e-17 
     5655.8   6.7538e-17 
     5656.8   6.6405e-17 
     5657.8   6.1059e-17 
     5658.8   6.1214e-17 
     5659.8   6.7385e-17 
     5660.8   6.3227e-17 
     5661.8   7.7057e-17 
     5662.8   7.6465e-17 
     5663.8   6.3445e-17 
     5664.8    6.712e-17 
     5665.8   7.1383e-17 
     5666.8   8.1469e-17 
     5667.8   8.0579e-17 
     5668.8   7.6754e-17 
     5669.8   7.9079e-17 
     5670.8   7.9149e-17 
     5671.8   7.7314e-17 
     5672.8   7.8488e-17 
     5673.8   7.9499e-17 
     5674.8   7.4561e-17 
     5675.8   8.7904e-17 
     5676.8    1.026e-16 
     5677.8   9.4043e-17 
     5678.8   8.9016e-17 
     5679.8   8.3584e-17 
     5680.8   9.5692e-17 
     5681.8   7.2237e-17 
     5682.8    6.461e-17 
     5683.8   6.6041e-17 
     5684.8   7.2327e-17 
     5685.8   7.8785e-17 
     5686.8   7.8809e-17 
     5687.8   9.0083e-17 
     5688.8   8.7771e-17 
     5689.8   8.2671e-17 
     5690.8    8.545e-17 
     5691.8   8.5894e-17 
     5692.8   8.2432e-17 
     5693.8   8.0136e-17 
     5694.8   7.9352e-17 
     5695.8    8.421e-17 
     5696.8   7.4619e-17 
     5697.8   6.1027e-17 
     5698.8   7.0947e-17 
     5699.8   7.9333e-17 
     5700.8   7.1281e-17 
     5701.8   7.2984e-17 
     5702.8   7.5353e-17 
     5703.8   7.9421e-17 
     5704.8   8.0998e-17 
     5705.8   8.9835e-17 
     5706.8   8.5517e-17 
     5707.8   6.9995e-17 
     5708.8   6.1696e-17 
     5709.8      7.1e-17 
     5710.8    7.358e-17 
     5711.8   7.9535e-17 
     5712.8   8.7535e-17 
     5713.8   8.1555e-17 
     5714.8   7.2236e-17 
     5715.8   5.9361e-17 
     5716.8   6.3446e-17 
     5717.8   8.6441e-17 
     5718.8   7.7436e-17 
     5719.8   7.1754e-17 
     5720.8   6.8409e-17 
     5721.8   7.0949e-17 
     5722.8   6.8853e-17 
     5723.8   8.7949e-17 
     5724.8   7.9244e-17 
     5725.8   8.5133e-17 
     5726.8   9.8549e-17 
     5727.8   8.4766e-17 
     5728.8    8.181e-17 
     5729.8   8.2533e-17 
     5730.8   8.1992e-17 
     5731.8   8.3052e-17 
     5732.8   8.6011e-17 
     5733.8   8.3695e-17 
     5734.8   7.8908e-17 
     5735.8   7.4915e-17 
     5736.8   7.0136e-17 
     5737.8   6.7913e-17 
     5738.8    7.249e-17 
     5739.8   7.4379e-17 
     5740.8   7.4352e-17 
     5741.8   6.7519e-17 
     5742.8   7.0066e-17 
     5743.8   7.6505e-17 
     5744.8   7.9379e-17 
     5745.8   7.9077e-17 
     5746.8   7.6349e-17 
     5747.8   8.3556e-17 
     5748.8   8.3239e-17 
     5749.8   7.3201e-17 
     5750.8   7.3083e-17 
     5751.8   7.3419e-17 
     5752.8   7.1653e-17 
     5753.8   8.0318e-17 
     5754.8    8.558e-17 
     5755.8   8.1091e-17 
     5756.8   8.1368e-17 
     5757.8   8.2422e-17 
     5758.8   8.3929e-17 
     5759.8   8.2767e-17 
     5760.8   7.9109e-17 
     5761.8   6.9979e-17 
     5762.8   6.9691e-17 
     5763.8   7.1386e-17 
     5764.8   7.1069e-17 
     5765.8   7.9107e-17 
     5766.8   9.0689e-17 
     5767.8   9.1852e-17 
     5768.8   8.6432e-17 
     5769.8   7.5401e-17 
     5770.8   6.7899e-17 
     5771.8   6.8507e-17 
     5772.8   7.6313e-17 
     5773.8   7.2083e-17 
     5774.8   6.8538e-17 
     5775.8   6.8764e-17 
     5776.8   6.5129e-17 
     5777.8   6.5644e-17 
     5778.8   7.8085e-17 
     5779.8   7.7192e-17 
     5780.8   7.4559e-17 
     5781.8   7.4032e-17 
     5782.8   7.6526e-17 
     5783.8   8.3572e-17 
     5784.8    9.723e-17 
     5785.8   9.6161e-17 
     5786.8   9.2024e-17 
     5787.8    8.737e-17 
     5788.8   8.1592e-17 
     5789.8   7.5031e-17 
     5790.8   7.6367e-17 
     5791.8   7.6742e-17 
     5792.8   7.6143e-17 
     5793.8   7.5539e-17 
     5794.8   7.5267e-17 
     5795.8   7.5063e-17 
     5796.8   7.6666e-17 
     5797.8   7.4201e-17 
     5798.8   6.1915e-17 
     5799.8   5.7716e-17 
     5800.8   5.8892e-17 
     5801.8   7.4423e-17 
     5802.8   7.4645e-17 
     5803.8    7.354e-17 
     5804.8   6.2786e-17 
     5805.8    7.396e-17 
     5806.8   8.6554e-17 
     5807.8   7.7846e-17 
     5808.8   7.4003e-17 
     5809.8   7.3556e-17 
     5810.8   8.0585e-17 
     5811.8   8.0421e-17 
     5812.8   7.8496e-17 
     5813.8   8.7878e-17 
     5814.8   8.6861e-17 
     5815.8   7.9028e-17 
     5816.8   8.3302e-17 
     5817.8   8.7059e-17 
     5818.8   1.0785e-16 
     5819.8   8.2059e-17 
     5820.8   7.2442e-17 
     5821.8   8.0556e-17 
     5822.8   8.9355e-17 
     5823.8   9.2661e-17 
     5824.8   8.5859e-17 
     5825.8    8.269e-17 
     5826.8   7.8515e-17 
     5827.8   7.5815e-17 
     5828.8   7.7265e-17 
     5829.8   7.9059e-17 
     5830.8   7.7049e-17 
     5831.8   7.5341e-17 
     5832.8   7.3406e-17 
     5833.8    7.461e-17 
     5834.8   7.5904e-17 
     5835.8   7.8359e-17 
     5836.8   8.7595e-17 
     5837.8   8.8468e-17 
     5838.8   8.5276e-17 
     5839.8    8.435e-17 
     5840.8   8.4279e-17 
     5841.8   8.5066e-17 
     5842.8   8.6334e-17 
     5843.8   8.5904e-17 
     5844.8    8.334e-17 
     5845.8   8.0664e-17 
     5846.8   7.8815e-17 
     5847.8   7.7633e-17 
     5848.8   8.1865e-17 
     5849.8   8.4257e-17 
     5850.8   7.8958e-17 
     5851.8   7.5945e-17 
     5852.8   7.5705e-17 
     5853.8   8.0487e-17 
     5854.8   8.1334e-17 
     5855.8   8.1032e-17 
     5856.8   7.5246e-17 
     5857.8    7.652e-17 
     5858.8    8.079e-17 
     5859.8   8.0684e-17 
     5860.8   8.1238e-17 
     5861.8   8.2733e-17 
     5862.8   8.0321e-17 
     5863.8   8.1969e-17 
     5864.8   8.9363e-17 
     5865.8   8.4673e-17 
     5866.8   8.3791e-17 
     5867.8   8.9646e-17 
     5868.8   8.6844e-17 
     5869.8   8.4046e-17 
     5870.8   7.8214e-17 
     5871.8   7.4532e-17 
     5872.8   7.2614e-17 
     5873.8   8.2154e-17 
     5874.8   8.9948e-17 
     5875.8   9.1656e-17 
     5876.8   6.2599e-17 
     5877.8   6.9359e-17 
     5878.8   8.3767e-17 
     5879.8   8.2678e-17 
     5880.8     7.95e-17 
     5881.8   7.4189e-17 
     5882.8   7.2543e-17 
     5883.8   8.1232e-17 
     5884.8   9.9111e-17 
     5885.8   9.6749e-17 
     5886.8   8.5413e-17 
     5887.8   7.0903e-17 
     5888.8   7.7009e-17 
     5889.8   8.7148e-17 
     5890.8   9.5451e-17 
     5891.8    9.216e-17 
     5892.8   8.9468e-17 
     5893.8   8.9816e-17 
     5894.8   7.8562e-17 
     5895.8   6.7222e-17 
     5896.8   6.3104e-17 
     5897.8   7.2635e-17 
     5898.8   8.1421e-17 
     5899.8   7.3046e-17 
     5900.8   7.5264e-17 
     5901.8   7.9766e-17 
     5902.8   8.2207e-17 
     5903.8   7.3619e-17 
     5904.8   5.8157e-17 
     5905.8   5.7282e-17 
     5906.8   5.9569e-17 
     5907.8   6.4238e-17 
     5908.8   7.5302e-17 
     5909.8   8.7466e-17 
     5910.8   9.6342e-17 
     5911.8    8.534e-17 
     5912.8   8.1675e-17 
     5913.8   8.8398e-17 
     5914.8   8.2165e-17 
     5915.8   7.8087e-17 
     5916.8    7.797e-17 
     5917.8   8.2339e-17 
     5918.8   8.5366e-17 
     5919.8   8.0743e-17 
     5920.8   7.3036e-17 
     5921.8   6.7547e-17 
     5922.8   6.6687e-17 
     5923.8   6.3144e-17 
     5924.8   6.1791e-17 
     5925.8   7.2954e-17 
     5926.8   7.8252e-17 
     5927.8    8.084e-17 
     5928.8   8.0637e-17 
     5929.8   7.7932e-17 
     5930.8    7.398e-17 
     5931.8   7.5494e-17 
     5932.8   8.0963e-17 
     5933.8   9.0518e-17 
     5934.8   7.7284e-17 
     5935.8   6.9186e-17 
     5936.8   6.7891e-17 
     5937.8   6.8692e-17 
     5938.8   7.2641e-17 
     5939.8   8.2127e-17 
     5940.8   8.1918e-17 
     5941.8   7.8058e-17 
     5942.8   7.1712e-17 
     5943.8   7.6964e-17 
     5944.8   8.4548e-17 
     5945.8   8.7179e-17 
     5946.8   7.7841e-17 
     5947.8   6.5411e-17 
     5948.8   6.6897e-17 
     5949.8   7.4646e-17 
     5950.8   8.5376e-17 
     5951.8   7.1491e-17 
     5952.8    7.074e-17 
     5953.8   7.8213e-17 
     5954.8   7.7945e-17 
     5955.8   7.7725e-17 
     5956.8   7.8257e-17 
     5957.8   8.1001e-17 
     5958.8   8.1994e-17 
     5959.8   8.0986e-17 
     5960.8   8.1929e-17 
     5961.8    8.205e-17 
     5962.8   7.8789e-17 
     5963.8    6.446e-17 
     5964.8    5.619e-17 
     5965.8    6.866e-17 
     5966.8   6.7956e-17 
     5967.8   6.6423e-17 
     5968.8    6.952e-17 
     5969.8   6.7642e-17 
     5970.8   6.4071e-17 
     5971.8    7.183e-17 
     5972.8   6.8622e-17 
     5973.8    5.981e-17 
     5974.8   5.6607e-17 
     5975.8   6.2659e-17 
     5976.8   7.2347e-17 
     5977.8   6.7874e-17 
     5978.8   6.8305e-17 
     5979.8   7.4828e-17 
     5980.8   7.0207e-17 
     5981.8   6.8755e-17 
     5982.8   7.5389e-17 
     5983.8    8.059e-17 
     5984.8   8.5168e-17 
     5985.8   8.3746e-17 
     5986.8   8.3259e-17 
     5987.8   8.2012e-17 
     5988.8   8.0573e-17 
     5989.8   7.7397e-17 
     5990.8   7.5829e-17 
     5991.8   7.9212e-17 
     5992.8   7.4186e-17 
     5993.8   6.6822e-17 
     5994.8   7.0247e-17 
     5995.8   7.4462e-17 
     5996.8    7.925e-17 
     5997.8    6.203e-17 
     5998.8   5.8251e-17 
     5999.8   6.0331e-17 
     6000.8   6.8172e-17 
     6001.8   7.1232e-17 
     6002.8   7.1801e-17 
     6003.8   7.8609e-17 
     6004.8    8.187e-17 
     6005.8   8.0034e-17 
     6006.8   7.7414e-17 
     6007.8   7.4893e-17 
     6008.8   7.1511e-17 
     6009.8   7.1728e-17 
     6010.8   7.6926e-17 
     6011.8   8.6498e-17 
     6012.8   8.9244e-17 
     6013.8   8.5613e-17 
     6014.8    7.665e-17 
     6015.8   7.1631e-17 
     6016.8   7.0857e-17 
     6017.8   8.0325e-17 
     6018.8    8.096e-17 
     6019.8   7.8926e-17 
     6020.8   7.4265e-17 
     6021.8   7.7061e-17 
     6022.8   8.0864e-17 
     6023.8   7.9992e-17 
     6024.8   8.0266e-17 
     6025.8   8.1805e-17 
     6026.8   8.3033e-17 
     6027.8   8.1789e-17 
     6028.8    7.687e-17 
     6029.8    7.786e-17 
     6030.8   7.9705e-17 
     6031.8   7.8709e-17 
     6032.8   7.6352e-17 
     6033.8   7.5921e-17 
     6034.8   8.0809e-17 
     6035.8   8.0982e-17 
     6036.8   7.9838e-17 
     6037.8   6.9593e-17 
     6038.8   6.8616e-17 
     6039.8   7.2398e-17 
     6040.8   8.3136e-17 
     6041.8   8.9523e-17 
     6042.8   9.2793e-17 
     6043.8   8.8709e-17 
     6044.8    8.083e-17 
     6045.8   7.2961e-17 
     6046.8    8.042e-17 
     6047.8   8.2413e-17 
     6048.8   8.0647e-17 
     6049.8   7.6436e-17 
     6050.8   7.5577e-17 
     6051.8   8.1782e-17 
     6052.8   8.6568e-17 
     6053.8   8.7404e-17 
     6054.8   8.3703e-17 
     6055.8   8.2277e-17 
     6056.8   7.8849e-17 
     6057.8   6.6318e-17 
     6058.8   7.2295e-17 
     6059.8   8.1662e-17 
     6060.8   8.7426e-17 
     6061.8   8.6033e-17 
     6062.8   8.0745e-17 
     6063.8   7.3606e-17 
     6064.8   7.1107e-17 
     6065.8   6.9863e-17 
     6066.8   7.9604e-17 
     6067.8   8.4046e-17 
     6068.8   8.2594e-17 
     6069.8   7.5651e-17 
     6070.8   7.4353e-17 
     6071.8    7.703e-17 
     6072.8   7.7352e-17 
     6073.8    7.254e-17 
     6074.8   6.0371e-17 
     6075.8    6.565e-17 
     6076.8   7.4256e-17 
     6077.8   8.6507e-17 
     6078.8   9.0886e-17 
     6079.8   9.0483e-17 
     6080.8   7.6779e-17 
     6081.8   7.3858e-17 
     6082.8   7.3304e-17 
     6083.8   7.5487e-17 
     6084.8   7.7742e-17 
     6085.8   8.1085e-17 
     6086.8   8.9221e-17 
     6087.8   8.7942e-17 
     6088.8   8.3764e-17 
     6089.8   8.4044e-17 
     6090.8   8.4807e-17 
     6091.8   8.6492e-17 
     6092.8   8.3549e-17 
     6093.8   8.1128e-17 
     6094.8   8.0755e-17 
     6095.8   8.1358e-17 
     6096.8   8.0503e-17 
     6097.8   7.6782e-17 
     6098.8   7.7511e-17 
     6099.8   7.8195e-17 
     6100.8   7.8045e-17 
     6101.8   7.1115e-17 
     6102.8   6.6775e-17 
     6103.8   7.0979e-17 
     6104.8   8.0239e-17 
     6105.8   8.5777e-17 
     6106.8   7.6583e-17 
     6107.8   7.1125e-17 
     6108.8   6.6569e-17 
     6109.8   6.4331e-17 
     6110.8   6.4417e-17 
     6111.8   6.5385e-17 
     6112.8   5.7444e-17 
     6113.8   5.6267e-17 
     6114.8   5.8355e-17 
     6115.8   6.1606e-17 
     6116.8   6.1625e-17 
     6117.8   5.8256e-17 
     6118.8   6.1769e-17 
     6119.8   6.6858e-17 
     6120.8   7.9661e-17 
     6121.8      7.5e-17 
     6122.8   6.6367e-17 
     6123.8   5.4635e-17 
     6124.8   6.3189e-17 
     6125.8   6.9683e-17 
     6126.8   6.5113e-17 
     6127.8    7.167e-17 
     6128.8   8.0292e-17 
     6129.8   8.0591e-17 
     6130.8   7.7097e-17 
     6131.8   7.2536e-17 
     6132.8   7.0806e-17 
     6133.8    6.754e-17 
     6134.8   6.3185e-17 
     6135.8   5.9001e-17 
     6136.8   6.0591e-17 
     6137.8   6.9257e-17 
     6138.8   7.6869e-17 
     6139.8    8.051e-17 
     6140.8   8.1468e-17 
     6141.8   6.8969e-17 
     6142.8    6.227e-17 
     6143.8   6.4778e-17 
     6144.8   7.2304e-17 
     6145.8   7.6338e-17 
     6146.8   7.2924e-17 
     6147.8   6.8672e-17 
     6148.8   6.4194e-17 
     6149.8    5.884e-17 
     6150.8   6.3036e-17 
     6151.8   6.9739e-17 
     6152.8   7.4391e-17 
     6153.8   7.2658e-17 
     6154.8   6.6968e-17 
     6155.8   7.9139e-17 
     6156.8   7.0437e-17 
     6157.8   5.7886e-17 
     6158.8   6.2901e-17 
     6159.8   6.1483e-17 
     6160.8   5.5136e-17 
     6161.8    5.488e-17 
     6162.8   5.8696e-17 
     6163.8   6.7253e-17 
     6164.8   6.0727e-17 
     6165.8   5.9625e-17 
     6166.8   6.8235e-17 
     6167.8   6.6772e-17 
     6168.8   6.2545e-17 
     6169.8   5.8332e-17 
     6170.8   5.9922e-17 
     6171.8   6.2557e-17 
     6172.8   6.3341e-17 
     6173.8   6.3213e-17 
     6174.8   6.3877e-17 
     6175.8   6.5712e-17 
     6176.8   6.5599e-17 
     6177.8   6.5325e-17 
     6178.8   6.8612e-17 
     6179.8   6.6725e-17 
     6180.8   6.1458e-17 
     6181.8   5.3941e-17 
     6182.8   5.4773e-17 
     6183.8   6.0308e-17 
     6184.8   6.0818e-17 
     6185.8   6.2931e-17 
     6186.8   6.7997e-17 
     6187.8   6.8677e-17 
     6188.8   6.5665e-17 
     6189.8   5.6647e-17 
     6190.8   6.3016e-17 
     6191.8   6.7148e-17 
     6192.8   6.5481e-17 
     6193.8   6.6155e-17 
     6194.8   6.4928e-17 
     6195.8   6.1778e-17 
     6196.8    6.122e-17 
     6197.8   5.9805e-17 
     6198.8   5.6904e-17 
     6199.8   6.2849e-17 
     6200.8   6.9366e-17 
     6201.8   5.5973e-17 
     6202.8   5.0307e-17 
     6203.8   5.0308e-17 
     6204.8   5.7779e-17 
     6205.8   6.1379e-17 
     6206.8    6.528e-17 
     6207.8    6.903e-17 
     6208.8   7.1443e-17 
     6209.8   7.4975e-17 
     6210.8   7.0256e-17 
     6211.8   6.6228e-17 
     6212.8   6.7049e-17 
     6213.8   6.7023e-17 
     6214.8   6.6078e-17 
     6215.8   6.4431e-17 
     6216.8    6.531e-17 
     6217.8   6.7674e-17 
     6218.8   7.1619e-17 
     6219.8   7.0301e-17 
     6220.8   6.8988e-17 
     6221.8   7.2964e-17 
     6222.8    7.368e-17 
     6223.8   7.2615e-17 
     6224.8   6.9285e-17 
     6225.8    6.954e-17 
     6226.8   7.0189e-17 
     6227.8    6.982e-17 
     6228.8   7.0665e-17 
     6229.8   7.1786e-17 
     6230.8   7.0887e-17 
     6231.8   6.9837e-17 
     6232.8   6.9564e-17 
     6233.8   6.8279e-17 
     6234.8   6.5026e-17 
     6235.8   5.8124e-17 
     6236.8   5.6343e-17 
     6237.8   5.8011e-17 
     6238.8   6.5872e-17 
     6239.8   6.4121e-17 
     6240.8   6.1839e-17 
     6241.8   5.9914e-17 
     6242.8   5.7898e-17 
     6243.8   5.6682e-17 
     6244.8   6.4661e-17 
     6245.8   6.8811e-17 
     6246.8   7.0361e-17 
     6247.8   6.5349e-17 
     6248.8   6.5798e-17 
     6249.8   6.9538e-17 
     6250.8   7.2828e-17 
     6251.8   7.1305e-17 
     6252.8    6.599e-17 
     6253.8   5.9412e-17 
     6254.8   5.8933e-17 
     6255.8   6.3873e-17 
     6256.8   7.3028e-17 
     6257.8   7.8483e-17 
     6258.8   8.0355e-17 
     6259.8   6.9093e-17 
     6260.8   6.3134e-17 
     6261.8   6.7118e-17 
     6262.8   6.7507e-17 
     6263.8   6.6164e-17 
     6264.8   6.3599e-17 
     6265.8   6.5873e-17 
     6266.8   6.8265e-17 
     6267.8   6.7513e-17 
     6268.8   6.6211e-17 
     6269.8   6.5139e-17 
     6270.8   6.1568e-17 
     6271.8   6.2658e-17 
     6272.8   6.6224e-17 
     6273.8   6.7565e-17 
     6274.8   6.7048e-17 
     6275.8   6.6486e-17 
     6276.8   6.8942e-17 
     6277.8   6.7318e-17 
     6278.8   6.3759e-17 
     6279.8   6.1482e-17 
     6280.8   6.3233e-17 
     6281.8   6.9188e-17 
     6282.8   7.1777e-17 
     6283.8   7.1588e-17 
     6284.8   6.6458e-17 
     6285.8   5.8813e-17 
     6286.8   5.6335e-17 
     6287.8   6.6133e-17 
     6288.8   6.8642e-17 
     6289.8   6.7865e-17 
     6290.8   6.5656e-17 
     6291.8   6.7246e-17 
     6292.8   6.9604e-17 
     6293.8   7.0111e-17 
     6294.8   6.6005e-17 
     6295.8   6.0011e-17 
     6296.8   5.9294e-17 
     6297.8     5.81e-17 
     6298.8   5.4579e-17 
     6299.8   4.5648e-17 
     6300.8   4.7144e-17 
     6301.8   6.3554e-17 
     6302.8   7.4126e-17 
     6303.8   7.5339e-17 
     6304.8   6.7538e-17 
     6305.8   5.8697e-17 
     6306.8   5.4676e-17 
     6307.8   5.7284e-17 
     6308.8   5.5862e-17 
     6309.8   5.5024e-17 
     6310.8   5.7906e-17 
     6311.8   5.9925e-17 
     6312.8   6.0929e-17 
     6313.8   6.0701e-17 
     6314.8   6.1527e-17 
     6315.8    6.182e-17 
     6316.8   5.7014e-17 
     6317.8   5.7025e-17 
     6318.8   5.7879e-17 
     6319.8   5.2518e-17 
     6320.8   4.8202e-17 
     6321.8   4.6012e-17 
     6322.8   5.0516e-17 
     6323.8   5.4831e-17 
     6324.8   5.8303e-17 
     6325.8   6.0595e-17 
     6326.8   5.9853e-17 
     6327.8   5.4223e-17 
     6328.8   4.8808e-17 
     6329.8   4.5844e-17 
     6330.8   4.4831e-17 
     6331.8   5.0471e-17 
     6332.8   5.6025e-17 
     6333.8   5.8066e-17 
     6334.8   5.3792e-17 
     6335.8   4.8287e-17 
     6336.8   5.0127e-17 
     6337.8   4.7643e-17 
     6338.8   4.5478e-17 
     6339.8   4.8544e-17 
     6340.8   5.6118e-17 
     6341.8   6.3232e-17 
     6342.8   5.7348e-17 
     6343.8   5.1863e-17 
     6344.8   4.8155e-17 
     6345.8   5.7723e-17 
     6346.8   6.1645e-17 
     6347.8   5.9985e-17 
     6348.8   5.1756e-17 
     6349.8   4.8809e-17 
     6350.8   5.1356e-17 
     6351.8   5.0449e-17 
     6352.8    4.954e-17 
     6353.8   4.9392e-17 
     6354.8   5.4005e-17 
     6355.8   5.5859e-17 
     6356.8   5.1676e-17 
     6357.8   5.4154e-17 
     6358.8   5.7512e-17 
     6359.8    5.695e-17 
     6360.8   5.8482e-17 
     6361.8    5.995e-17 
     6362.8   6.1896e-17 
     6363.8   6.2969e-17 
     6364.8   6.2972e-17 
     6365.8   6.4358e-17 
     6366.8   6.0063e-17 
     6367.8    5.079e-17 
     6368.8   4.6221e-17 
     6369.8   4.6571e-17 
     6370.8   5.1734e-17 
     6371.8   5.5343e-17 
     6372.8   5.8465e-17 
     6373.8    6.104e-17 
     6374.8   6.2651e-17 
     6375.8   6.3574e-17 
     6376.8   6.4656e-17 
     6377.8    6.193e-17 
     6378.8   6.0012e-17 
     6379.8   6.4209e-17 
     6380.8   6.2196e-17 
     6381.8   5.9177e-17 
     6382.8   6.3979e-17 
     6383.8    6.418e-17 
     6384.8   6.3613e-17 
     6385.8   6.2513e-17 
     6386.8   6.1531e-17 
     6387.8   6.0822e-17 
     6388.8   6.2549e-17 
     6389.8   5.8624e-17 
     6390.8    4.917e-17 
     6391.8   5.1661e-17 
     6392.8   5.9025e-17 
     6393.8   6.7651e-17 
     6394.8   6.3631e-17 
     6395.8   5.5902e-17 
     6396.8   4.9837e-17 
     6397.8   5.3227e-17 
     6398.8   5.5609e-17 
     6399.8   5.6714e-17 
     6400.8   5.5142e-17 
     6401.8   5.4716e-17 
     6402.8   5.9719e-17 
     6403.8   6.1514e-17 
     6404.8   6.2654e-17 
     6405.8   6.6218e-17 
     6406.8    6.678e-17 
     6407.8   6.5848e-17 
     6408.8   6.0743e-17 
     6409.8   6.1144e-17 
     6410.8   6.2263e-17 
     6411.8   6.0731e-17 
     6412.8   5.7663e-17 
     6413.8   5.3806e-17 
     6414.8   5.6056e-17 
     6415.8   5.7272e-17 
     6416.8   5.9363e-17 
     6417.8   6.3603e-17 
     6418.8   6.7156e-17 
     6419.8   6.7401e-17 
     6420.8   7.0047e-17 
     6421.8   7.0278e-17 
     6422.8    6.609e-17 
     6423.8   6.4604e-17 
     6424.8   6.3762e-17 
     6425.8   6.2086e-17 
     6426.8   6.3306e-17 
     6427.8   6.4782e-17 
     6428.8   6.4517e-17 
     6429.8   6.1224e-17 
     6430.8    5.669e-17 
     6431.8   5.5145e-17 
     6432.8   6.1812e-17 
     6433.8    7.348e-17 
     6434.8   7.0403e-17 
     6435.8    6.815e-17 
     6436.8   6.6128e-17 
     6437.8   6.7703e-17 
     6438.8     6.64e-17 
     6439.8   6.1209e-17 
     6440.8   5.9424e-17 
     6441.8    6.336e-17 
     6442.8   7.5448e-17 
     6443.8   7.8986e-17 
     6444.8   7.8769e-17 
     6445.8   7.0035e-17 
     6446.8   6.0679e-17 
     6447.8   5.7836e-17 
     6448.8   7.3768e-17 
     6449.8   7.3255e-17 
     6450.8    6.959e-17 
     6451.8   6.5304e-17 
     6452.8   6.8937e-17 
     6453.8   7.3842e-17 
     6454.8   7.0033e-17 
     6455.8   6.3058e-17 
     6456.8   5.7133e-17 
     6457.8   6.3586e-17 
     6458.8   6.7468e-17 
     6459.8   6.9804e-17 
     6460.8   7.5294e-17 
     6461.8   7.6319e-17 
     6462.8   7.4074e-17 
     6463.8   6.9889e-17 
     6464.8   6.8225e-17 
     6465.8   6.8737e-17 
     6466.8   7.0219e-17 
     6467.8   7.0831e-17 
     6468.8    6.998e-17 
     6469.8   7.0902e-17 
     6470.8   7.0544e-17 
     6471.8   6.5104e-17 
     6472.8   6.8257e-17 
     6473.8   7.0319e-17 
     6474.8    6.012e-17 
     6475.8   6.2766e-17 
     6476.8   6.8978e-17 
     6477.8    7.275e-17 
     6478.8    6.947e-17 
     6479.8    6.323e-17 
     6480.8   6.5382e-17 
     6481.8    6.424e-17 
     6482.8   6.2899e-17 
     6483.8   6.4992e-17 
     6484.8   6.5405e-17 
     6485.8   6.2919e-17 
     6486.8   6.5177e-17 
     6487.8   6.7197e-17 
     6488.8   6.9905e-17 
     6489.8   6.5264e-17 
     6490.8   6.0044e-17 
     6491.8   5.6168e-17 
     6492.8   5.8342e-17 
     6493.8   6.2483e-17 
     6494.8   6.6827e-17 
     6495.8   7.2962e-17 
     6496.8   7.6759e-17 
     6497.8    6.391e-17 
     6498.8   6.8922e-17 
     6499.8   7.6423e-17 
     6500.8   6.5876e-17 
     6501.8    6.463e-17 
     6502.8   6.8305e-17 
     6503.8   6.7834e-17 
     6504.8   6.7262e-17 
     6505.8   6.6305e-17 
     6506.8   6.5363e-17 
     6507.8   6.6031e-17 
     6508.8   6.7496e-17 
     6509.8   6.4343e-17 
     6510.8   5.8008e-17 
     6511.8   4.7849e-17 
     6512.8   5.1178e-17 
     6513.8   5.5431e-17 
     6514.8   5.8211e-17 
     6515.8   7.0294e-17 
     6516.8   7.6958e-17 
     6517.8   7.3266e-17 
     6518.8   6.7236e-17 
     6519.8    6.428e-17 
     6520.8   7.1871e-17 
     6521.8   7.0773e-17 
     6522.8   6.7336e-17 
     6523.8   6.6558e-17 
     6524.8   6.7516e-17 
     6525.8   6.9061e-17 
     6526.8   6.3293e-17 
     6527.8   6.0725e-17 
     6528.8     5.93e-17 
     6529.8    5.954e-17 
     6530.8   6.1943e-17 
     6531.8    6.792e-17 
     6532.8   6.7325e-17 
     6533.8   6.7683e-17 
     6534.8   6.9206e-17 
     6535.8   6.6641e-17 
     6536.8   6.2844e-17 
     6537.8   5.9942e-17 
     6538.8   6.1522e-17 
     6539.8   6.3369e-17 
     6540.8   6.6749e-17 
     6541.8   6.6118e-17 
     6542.8   6.4829e-17 
     6543.8   6.3341e-17 
     6544.8   6.4987e-17 
     6545.8   6.8534e-17 
     6546.8   7.0395e-17 
     6547.8   6.8429e-17 
     6548.8   6.4822e-17 
     6549.8   6.7215e-17 
     6550.8   6.9879e-17 
     6551.8   7.2289e-17 
     6552.8   8.0332e-17 
     6553.8   7.8959e-17 
     6554.8   6.7557e-17 
     6555.8   7.1354e-17 
     6556.8   7.6427e-17 
     6557.8   8.0975e-17 
     6558.8   7.6482e-17 
     6559.8   7.4517e-17 
     6560.8   7.9354e-17 
     6561.8   7.6458e-17 
     6562.8   7.2465e-17 
     6563.8    7.151e-17 
     6564.8    7.287e-17 
     6565.8   7.3913e-17 
     6566.8   7.1963e-17 
     6567.8   7.3707e-17 
     6568.8    7.631e-17 
     6569.8   8.1415e-17 
     6570.8   7.8659e-17 
     6571.8   7.2488e-17 
     6572.8   7.3387e-17 
     6573.8   7.0856e-17 
     6574.8   6.6652e-17 
     6575.8   7.5515e-17 
     6576.8   7.7305e-17 
     6577.8   7.4462e-17 
     6578.8   7.8659e-17 
     6579.8   7.9688e-17 
     6580.8   7.6399e-17 
     6581.8   6.5955e-17 
     6582.8   6.2027e-17 
     6583.8   6.7691e-17 
     6584.8   6.7886e-17 
     6585.8   6.6479e-17 
     6586.8   6.3789e-17 
     6587.8   6.4208e-17 
     6588.8   6.5664e-17 
     6589.8   6.6318e-17 
     6590.8   6.4029e-17 
     6591.8   6.1655e-17 
     6592.8   6.4646e-17 
     6593.8   6.3657e-17 
     6594.8    6.122e-17 
     6595.8   6.4686e-17 
     6596.8   6.1343e-17 
     6597.8   5.2806e-17 
     6598.8   6.3524e-17 
     6599.8   6.7566e-17 
     6600.8   6.7565e-17 
     6601.8   6.3619e-17 
     6602.8   6.2122e-17 
     6603.8   6.2609e-17 
     6604.8   5.6435e-17 
     6605.8   5.3435e-17 
     6606.8    5.799e-17 
     6607.8   6.4356e-17 
     6608.8   6.8483e-17 
     6609.8   6.7847e-17 
     6610.8   6.4692e-17 
     6611.8   5.9916e-17 
     6612.8   5.9455e-17 
     6613.8   6.5999e-17 
     6614.8   7.1802e-17 
     6615.8   6.5756e-17 
     6616.8   6.4126e-17 
     6617.8   6.2314e-17 
     6618.8   6.0137e-17 
     6619.8   6.0509e-17 
     6620.8   6.2082e-17 
     6621.8   6.2177e-17 
     6622.8   6.0255e-17 
     6623.8   5.6998e-17 
     6624.8   6.1472e-17 
     6625.8   6.3555e-17 
     6626.8   6.1548e-17 
     6627.8   6.2528e-17 
     6628.8   6.3572e-17 
     6629.8   6.3892e-17 
     6630.8   6.4813e-17 
     6631.8   6.3994e-17 
     6632.8   5.9426e-17 
     6633.8   6.0135e-17 
     6634.8   6.1542e-17 
     6635.8   6.5173e-17 
     6636.8    6.501e-17 
     6637.8   6.4023e-17 
     6638.8    6.286e-17 
     6639.8   5.9523e-17 
     6640.8   5.5419e-17 
     6641.8   5.8319e-17 
     6642.8   6.0154e-17 
     6643.8   6.2324e-17 
     6644.8   6.1897e-17 
     6645.8   6.1778e-17 
     6646.8   6.1828e-17 
     6647.8   6.1474e-17 
     6648.8   5.8536e-17 
     6649.8   5.1127e-17 
     6650.8   5.6185e-17 
     6651.8   6.6244e-17 
     6652.8   7.8112e-17 
     6653.8   6.8441e-17 
     6654.8   5.8451e-17 
     6655.8   5.8144e-17 
     6656.8   6.2426e-17 
     6657.8   6.6656e-17 
     6658.8   6.7714e-17 
     6659.8   6.1943e-17 
     6660.8   5.5661e-17 
     6661.8   5.8453e-17 
     6662.8   6.5759e-17 
     6663.8   7.2331e-17 
     6664.8   6.0957e-17 
     6665.8     5.71e-17 
     6666.8   5.8504e-17 
     6667.8   6.2714e-17 
     6668.8   6.1887e-17 
     6669.8    5.515e-17 
     6670.8   4.8925e-17 
     6671.8   5.0104e-17 
     6672.8   6.2922e-17 
     6673.8    5.867e-17 
     6674.8    5.674e-17 
     6675.8   5.9521e-17 
     6676.8   5.4516e-17 
     6677.8   5.1096e-17 
     6678.8   5.3423e-17 
     6679.8   5.3605e-17 
     6680.8   5.3066e-17 
     6681.8   5.0882e-17 
     6682.8   5.3983e-17 
     6683.8   5.8027e-17 
     6684.8   5.8217e-17 
     6685.8   5.5855e-17 
     6686.8   5.3643e-17 
     6687.8   5.6304e-17 
     6688.8   6.0146e-17 
     6689.8   6.3382e-17 
     6690.8   5.7654e-17 
     6691.8   5.9793e-17 
     6692.8   7.0618e-17 
     6693.8   6.2867e-17 
     6694.8   5.9452e-17 
     6695.8   6.0885e-17 
     6696.8   5.9997e-17 
     6697.8   5.8149e-17 
     6698.8   5.1567e-17 
     6699.8   5.5321e-17 
     6700.8   5.7616e-17 
     6701.8   5.6318e-17 
     6702.8   5.7261e-17 
     6703.8   5.9047e-17 
     6704.8   5.9273e-17 
     6705.8   5.8445e-17 
     6706.8   5.8118e-17 
     6707.8    6.068e-17 
     6708.8   6.1278e-17 
     6709.8   6.0943e-17 
     6710.8   5.9517e-17 
     6711.8   5.9047e-17 
     6712.8   5.7727e-17 
     6713.8   5.4161e-17 
     6714.8   5.2872e-17 
     6715.8   5.3123e-17 
     6716.8   5.8372e-17 
     6717.8   6.0792e-17 
     6718.8   5.9335e-17 
     6719.8   6.2235e-17 
     6720.8   6.5353e-17 
     6721.8   6.7736e-17 
     6722.8   6.2389e-17 
     6723.8   5.6157e-17 
     6724.8   5.5229e-17 
     6725.8    5.626e-17 
     6726.8   5.7949e-17 
     6727.8   6.0232e-17 
     6728.8   5.9482e-17 
     6729.8   5.7569e-17 
     6730.8   5.6176e-17 
     6731.8   5.7004e-17 
     6732.8    5.867e-17 
     6733.8   5.8661e-17 
     6734.8   5.9665e-17 
     6735.8   6.1674e-17 
     6736.8   5.7209e-17 
     6737.8   5.6449e-17 
     6738.8    5.824e-17 
     6739.8   6.3463e-17 
     6740.8   6.3175e-17 
     6741.8   5.5599e-17 
     6742.8   5.7313e-17 
     6743.8   6.0919e-17 
     6744.8    6.623e-17 
     6745.8    6.172e-17 
     6746.8   5.7591e-17 
     6747.8   6.0219e-17 
     6748.8    5.469e-17 
     6749.8   5.0961e-17 
     6750.8   5.4911e-17 
     6751.8   5.6305e-17 
     6752.8     5.73e-17 
     6753.8   5.6239e-17 
     6754.8   5.3177e-17 
     6755.8   4.9258e-17 
     6756.8   5.5985e-17 
     6757.8   5.6849e-17 
     6758.8   5.3751e-17 
     6759.8   5.5776e-17 
     6760.8   6.1263e-17 
     6761.8   6.6265e-17 
     6762.8   6.5377e-17 
     6763.8   6.3783e-17 
     6764.8   6.2561e-17 
     6765.8   5.8869e-17 
     6766.8   5.5771e-17 
     6767.8   5.4201e-17 
     6768.8   6.2343e-17 
     6769.8   6.7877e-17 
     6770.8   6.6075e-17 
     6771.8   5.8103e-17 
     6772.8   5.1299e-17 
     6773.8   5.1366e-17 
     6774.8   5.4575e-17 
     6775.8    5.774e-17 
     6776.8   5.5482e-17 
     6777.8   5.3188e-17 
     6778.8   5.0691e-17 
     6779.8   5.9796e-17 
     6780.8   6.0216e-17 
     6781.8    5.633e-17 
     6782.8   5.5353e-17 
     6783.8   5.6251e-17 
     6784.8   5.8999e-17 
     6785.8   6.1148e-17 
     6786.8   6.1954e-17 
     6787.8   6.1386e-17 
     6788.8   5.7409e-17 
     6789.8   5.6601e-17 
     6790.8   6.2565e-17 
     6791.8   5.9367e-17 
     6792.8   5.7466e-17 
     6793.8   6.0764e-17 
     6794.8   6.1154e-17 
     6795.8   6.0168e-17 
     6796.8    5.916e-17 
     6797.8   5.4768e-17 
     6798.8   5.1323e-17 
     6799.8    5.861e-17 
     6800.8   6.0904e-17 
     6801.8   6.1575e-17 
     6802.8   5.9042e-17 
     6803.8   5.9043e-17 
     6804.8   6.0684e-17 
     6805.8   5.7571e-17 
     6806.8   5.5375e-17 
     6807.8   5.2884e-17 
     6808.8   5.5908e-17 
     6809.8   5.6203e-17 
     6810.8   5.3115e-17 
     6811.8    5.548e-17 
     6812.8   5.5978e-17 
     6813.8   5.1619e-17 
     6814.8   5.3361e-17 
     6815.8    5.532e-17 
     6816.8   5.3898e-17 
     6817.8   5.7217e-17 
     6818.8   6.1067e-17 
     6819.8   6.3382e-17 
     6820.8   6.2893e-17 
     6821.8   6.1066e-17 
     6822.8    5.463e-17 
     6823.8   5.5519e-17 
     6824.8   5.9182e-17 
     6825.8   5.9861e-17 
     6826.8   5.8537e-17 
     6827.8   5.6796e-17 
     6828.8   5.7683e-17 
     6829.8   6.0288e-17 
     6830.8   6.4214e-17 
     6831.8   5.7142e-17 
     6832.8    5.172e-17 
     6833.8   5.0768e-17 
     6834.8   5.2737e-17 
     6835.8   5.4195e-17 
     6836.8   5.6174e-17 
     6837.8   5.5518e-17 
     6838.8   5.4763e-17 
     6839.8   5.3082e-17 
     6840.8   5.6568e-17 
     6841.8   5.9692e-17 
     6842.8   5.7775e-17 
     6843.8    5.634e-17 
     6844.8   5.6116e-17 
     6845.8   5.7477e-17 
     6846.8   6.2794e-17 
     6847.8   6.6775e-17 
     6848.8   5.7637e-17 
     6849.8   5.6089e-17 
     6850.8   5.8788e-17 
     6851.8    5.886e-17 
     6852.8   5.4448e-17 
     6853.8   4.6962e-17 
     6854.8   4.9124e-17 
     6855.8   4.9588e-17 
     6856.8   4.7085e-17 
     6857.8   4.8454e-17 
     6858.8    5.191e-17 
     6859.8   5.7532e-17 
     6860.8   6.1068e-17 
     6861.8   6.2111e-17 
     6862.8   5.6703e-17 
     6863.8   5.5003e-17 
     6864.8   5.3427e-17 
     6865.8   5.0034e-17 
     6866.8   4.5504e-17 
     6867.8   4.2644e-17 
     6868.8   5.0618e-17 
     6869.8   5.3159e-17 
     6870.8   5.3527e-17 
     6871.8   4.5314e-17 
     6872.8   4.3724e-17 
     6873.8   4.4475e-17 
     6874.8   5.6503e-17 
     6875.8   5.8182e-17 
     6876.8   5.1558e-17 
     6877.8   4.5987e-17 
     6878.8   4.9822e-17 
     6879.8   6.4348e-17 
     6880.8   6.5286e-17 
     6881.8   6.2473e-17 
     6882.8   4.8855e-17 
     6883.8   5.3476e-17 
     6884.8   5.7068e-17 
     6885.8   5.6534e-17 
     6886.8   5.3133e-17 
     6887.8   4.9386e-17 
     6888.8   4.6815e-17 
     6889.8   4.6782e-17 
     6890.8   4.7161e-17 
     6891.8   4.6985e-17 
     6892.8   4.7173e-17 
     6893.8   4.8117e-17 
     6894.8   4.9484e-17 
     6895.8   5.5318e-17 
     6896.8   6.4321e-17 
     6897.8   5.8288e-17 
     6898.8   5.5897e-17 
     6899.8   5.4572e-17 
     6900.8   5.2009e-17 
     6901.8   5.0275e-17 
     6902.8   4.8251e-17 
     6903.8   5.1941e-17 
     6904.8   5.3151e-17 
     6905.8   5.0206e-17 
     6906.8   4.8719e-17 
     6907.8   4.8798e-17 
     6908.8   5.2276e-17 
     6909.8   5.2006e-17 
     6910.8   5.1046e-17 
     6911.8   4.5379e-17 
     6912.8   4.6698e-17 
     6913.8   5.0507e-17 
     6914.8   5.3837e-17 
     6915.8   5.1939e-17 
     6916.8    4.941e-17 
     6917.8   5.2396e-17 
     6918.8   5.2903e-17 
     6919.8   5.2746e-17 
     6920.8   5.2574e-17 
     6921.8   5.1117e-17 
     6922.8   4.7361e-17 
     6923.8   4.6165e-17 
     6924.8   4.7515e-17 
     6925.8   5.2882e-17 
     6926.8   4.9333e-17 
     6927.8   4.5149e-17 
     6928.8   4.1262e-17 
     6929.8   4.3538e-17 
     6930.8   4.5936e-17 
     6931.8   4.7173e-17 
     6932.8   5.0642e-17 
     6933.8   5.1921e-17 
     6934.8   4.6608e-17 
     6935.8   4.8288e-17 
     6936.8   5.2639e-17 
     6937.8   5.5663e-17 
     6938.8   5.0816e-17 
     6939.8   4.4505e-17 
     6940.8   5.1288e-17 
     6941.8   5.3547e-17 
     6942.8   5.3897e-17 
     6943.8   4.9116e-17 
     6944.8   4.7943e-17 
     6945.8   4.9076e-17 
     6946.8   5.2217e-17 
     6947.8   5.4596e-17 
     6948.8   5.5974e-17 
     6949.8   5.6799e-17 
     6950.8   5.7306e-17 
     6951.8   5.8867e-17 
     6952.8   5.7943e-17 
     6953.8    5.589e-17 
     6954.8   5.4349e-17 
     6955.8   5.4151e-17 
     6956.8   5.4341e-17 
     6957.8   5.3904e-17 
     6958.8   5.5115e-17 
     6959.8   5.6596e-17 
     6960.8   5.6713e-17 
     6961.8    5.782e-17 
     6962.8   5.8861e-17 
     6963.8   5.5936e-17 
     6964.8   5.8131e-17 
     6965.8   6.4085e-17 
     6966.8   6.3242e-17 
     6967.8   5.9844e-17 
     6968.8    5.386e-17 
     6969.8   5.0447e-17 
     6970.8   5.1931e-17 
     6971.8   6.0702e-17 
     6972.8   6.3434e-17 
     6973.8   6.4257e-17 
     6974.8   6.2746e-17 
     6975.8   5.8925e-17 
     6976.8   5.8059e-17 
     6977.8   6.3161e-17 
     6978.8   6.4324e-17 
     6979.8    6.396e-17 
     6980.8   6.6825e-17 
     6981.8   6.1646e-17 
     6982.8   5.6598e-17 
     6983.8   6.2089e-17 
     6984.8   5.7764e-17 
     6985.8   5.0248e-17 
     6986.8   5.9757e-17 
     6987.8   6.0696e-17 
     6988.8   5.8622e-17 
     6989.8   6.3591e-17 
     6990.8   6.4569e-17 
     6991.8   6.2693e-17 
     6992.8   6.0699e-17 
     6993.8   5.7007e-17 
     6994.8    5.158e-17 
     6995.8   5.5631e-17 
     6996.8   5.6498e-17 
     6997.8   4.9694e-17 
     6998.8    5.071e-17 
     6999.8   5.5117e-17 
     7000.8    5.898e-17 
     7001.8   6.1108e-17 
     7002.8   6.2522e-17 
     7003.8   6.2886e-17 
     7004.8   6.5709e-17 
     7005.8   6.7387e-17 
     7006.8   5.9717e-17 
     7007.8   6.0346e-17 
     7008.8   6.4247e-17 
     7009.8   6.6033e-17 
     7010.8   6.5229e-17 
     7011.8   6.3769e-17 
     7012.8    5.984e-17 
     7013.8   5.9703e-17 
     7014.8   6.2551e-17 
     7015.8   5.9714e-17 
     7016.8   5.9974e-17 
     7017.8   6.4823e-17 
     7018.8   6.5047e-17 
     7019.8   6.4161e-17 
     7020.8   6.2037e-17 
     7021.8   6.1756e-17 
     7022.8   6.1126e-17 
     7023.8   5.9321e-17 
     7024.8   5.8292e-17 
     7025.8   5.7364e-17 
     7026.8   5.6001e-17 
     7027.8    5.924e-17 
     7028.8   6.3887e-17 
     7029.8   6.6157e-17 
     7030.8   6.5618e-17 
     7031.8   6.2343e-17 
     7032.8   5.5665e-17 
     7033.8   5.4788e-17 
     7034.8   5.6576e-17 
     7035.8   5.8407e-17 
     7036.8   5.9914e-17 
     7037.8   6.2796e-17 
     7038.8   6.6875e-17 
     7039.8   6.7105e-17 
     7040.8   6.1841e-17 
     7041.8   5.3125e-17 
     7042.8   5.0265e-17 
     7043.8   5.5736e-17 
     7044.8   5.4551e-17 
     7045.8   5.4963e-17 
     7046.8   6.1861e-17 
     7047.8   6.4745e-17 
     7048.8   6.5145e-17 
     7049.8   5.5962e-17 
     7050.8   5.7019e-17 
     7051.8   5.9957e-17 
     7052.8   5.8349e-17 
     7053.8   6.1308e-17 
     7054.8   6.5481e-17 
     7055.8   6.3374e-17 
     7056.8   6.5958e-17 
     7057.8   7.1946e-17 
     7058.8   6.6875e-17 
     7059.8   6.2811e-17 
     7060.8   5.8326e-17 
     7061.8   6.0278e-17 
     7062.8   6.0924e-17 
     7063.8    5.856e-17 
     7064.8   5.8564e-17 
     7065.8   6.1168e-17 
     7066.8   6.5169e-17 
     7067.8   6.4549e-17 
     7068.8   6.3702e-17 
     7069.8   6.1345e-17 
     7070.8   6.4349e-17 
     7071.8   6.7252e-17 
     7072.8   6.6829e-17 
     7073.8    6.718e-17 
     7074.8   6.7789e-17 
     7075.8   6.7951e-17 
     7076.8   6.6992e-17 
     7077.8   6.5379e-17 
     7078.8   5.8835e-17 
     7079.8   6.0418e-17 
     7080.8   6.4871e-17 
     7081.8   6.3996e-17 
     7082.8    6.429e-17 
     7083.8   6.5805e-17 
     7084.8   6.5712e-17 
     7085.8   6.3501e-17 
     7086.8   5.7275e-17 
     7087.8   6.2202e-17 
     7088.8   6.6427e-17 
     7089.8   6.3505e-17 
     7090.8   5.7335e-17 
     7091.8   5.5759e-17 
     7092.8   6.1987e-17 
     7093.8   6.2766e-17 
     7094.8   6.2187e-17 
     7095.8   6.0572e-17 
     7096.8   6.2992e-17 
     7097.8   6.5721e-17 
     7098.8   6.1506e-17 
     7099.8   5.9349e-17 
     7100.8   5.8958e-17 
     7101.8    5.611e-17 
     7102.8   5.9321e-17 
     7103.8   6.5122e-17 
     7104.8    6.559e-17 
     7105.8   6.8134e-17 
     7106.8   7.2577e-17 
     7107.8   6.7622e-17 
     7108.8   6.2648e-17 
     7109.8    5.893e-17 
     7110.8   5.8602e-17 
     7111.8   6.0255e-17 
     7112.8   6.3078e-17 
     7113.8   6.3747e-17 
     7114.8   6.2008e-17 
     7115.8   5.5975e-17 
     7116.8   5.6567e-17 
     7117.8   5.9653e-17 
     7118.8   6.7051e-17 
     7119.8   6.3691e-17 
     7120.8   5.8327e-17 
     7121.8   5.6903e-17 
     7122.8   6.2122e-17 
     7123.8   6.8819e-17 
     7124.8    6.253e-17 
     7125.8   5.8722e-17 
     7126.8   5.8115e-17 
     7127.8   5.8227e-17 
     7128.8   5.9051e-17 
     7129.8   5.9783e-17 
     7130.8   6.0655e-17 
     7131.8   6.1564e-17 
     7132.8   6.2931e-17 
     7133.8   6.3628e-17 
     7134.8   6.4415e-17 
     7135.8   6.6902e-17 
     7136.8   6.7466e-17 
     7137.8   6.6535e-17 
     7138.8   6.1846e-17 
     7139.8   6.1866e-17 
     7140.8   6.2301e-17 
     7141.8   6.1153e-17 
     7142.8   6.1974e-17 
     7143.8   6.3263e-17 
     7144.8   6.3498e-17 
     7145.8   6.1899e-17 
     7146.8   5.9806e-17 
     7147.8   6.4234e-17 
     7148.8   6.4301e-17 
     7149.8    6.271e-17 
     7150.8   6.5613e-17 
     7151.8   6.6128e-17 
     7152.8   6.5161e-17 
     7153.8   5.9838e-17 
     7154.8   5.8242e-17 
     7155.8   5.9842e-17 
     7156.8   6.0371e-17 
     7157.8   6.0735e-17 
     7158.8   6.2149e-17 
     7159.8   6.2374e-17 
     7160.8   6.1666e-17 
     7161.8   5.8925e-17 
     7162.8   5.9469e-17 
     7163.8   6.0837e-17 
     7164.8   6.3598e-17 
     7165.8   6.1232e-17 
     7166.8   5.7071e-17 
     7167.8    5.516e-17 
     7168.8    5.565e-17 
     7169.8   5.7046e-17 
     7170.8   5.4995e-17 
     7171.8   5.5462e-17 
     7172.8   5.6368e-17 
     7173.8   5.5243e-17 
     7174.8   5.4204e-17 
     7175.8   5.3789e-17 
     7176.8   5.2853e-17 
     7177.8   5.5605e-17 
     7178.8   6.2062e-17 
     7179.8   6.5685e-17 
     7180.8   6.5443e-17 
     7181.8   6.2988e-17 
     7182.8   6.1317e-17 
     7183.8   6.2517e-17 
     7184.8   7.0855e-17 
     7185.8   7.2308e-17 
     7186.8   7.1333e-17 
     7187.8   6.6712e-17 
     7188.8   6.3868e-17 
     7189.8   6.1341e-17 
     7190.8   6.0907e-17 
     7191.8   6.0083e-17 
     7192.8   5.8368e-17 
     7193.8   5.9106e-17 
     7194.8   5.8976e-17 
     7195.8   5.7482e-17 
     7196.8   5.5535e-17 
     7197.8    5.348e-17 
     7198.8   5.0964e-17 
     7199.8   4.9002e-17 
     7200.8   4.8659e-17 
     7201.8   4.9901e-17 
     7202.8   5.0922e-17 
     7203.8   5.3132e-17 
     7204.8     5.89e-17 
     7205.8   5.9496e-17 
     7206.8   5.8408e-17 
     7207.8   5.1211e-17 
     7208.8   4.9833e-17 
     7209.8   5.0994e-17 
     7210.8   5.2661e-17 
     7211.8   5.4169e-17 
     7212.8    5.453e-17 
     7213.8   5.0144e-17 
     7214.8   5.1222e-17 
     7215.8   5.2893e-17 
     7216.8    5.655e-17 
     7217.8    5.611e-17 
     7218.8   5.3284e-17 
     7219.8   5.3626e-17 
     7220.8   5.4779e-17 
     7221.8   5.6544e-17 
     7222.8   5.1876e-17 
     7223.8   4.7766e-17 
     7224.8   4.5575e-17 
     7225.8   5.1917e-17 
     7226.8   5.8352e-17 
     7227.8   6.1596e-17 
     7228.8   5.8962e-17 
     7229.8   5.5268e-17 
     7230.8   5.2585e-17 
     7231.8   5.2432e-17 
     7232.8    5.246e-17 
     7233.8   5.1581e-17 
     7234.8   4.8003e-17 
     7235.8      4.4e-17 
     7236.8   4.1028e-17 
     7237.8   4.7355e-17 
     7238.8   5.8096e-17 
     7239.8   6.0998e-17 
     7240.8   6.2566e-17 
     7241.8   6.2351e-17 
     7242.8   5.6269e-17 
     7243.8    5.333e-17 
     7244.8   5.2296e-17 
     7245.8    5.808e-17 
     7246.8   5.9258e-17 
     7247.8   5.5202e-17 
     7248.8   5.3111e-17 
     7249.8   5.2126e-17 
     7250.8   5.1934e-17 
     7251.8   5.0838e-17 
     7252.8   5.1508e-17 
     7253.8   5.5174e-17 
     7254.8   5.7681e-17 
     7255.8   5.8391e-17 
     7256.8   5.5515e-17 
     7257.8   5.5982e-17 
     7258.8   5.7631e-17 
     7259.8   5.8625e-17 
     7260.8   5.5535e-17 
     7261.8   5.2775e-17 
     7262.8   5.4327e-17 
     7263.8   5.6399e-17 
     7264.8   5.9635e-17 
     7265.8   6.8366e-17 
     7266.8   7.8928e-17 
     7267.8    9.213e-17 
     7268.8   1.0261e-16 
     7269.8   1.0673e-16 
     7270.8   1.0817e-16 
     7271.8   1.1178e-16 
     7272.8   1.1143e-16 
     7273.8    1.059e-16 
     7274.8   8.8453e-17 
     7275.8   7.3509e-17 
     7276.8   6.7517e-17 
     7277.8   6.4175e-17 
     7278.8   5.8453e-17 
     7279.8   4.8927e-17 
     7280.8   5.0312e-17 
     7281.8   5.5008e-17 
     7282.8   6.0033e-17 
     7283.8   6.0096e-17 
     7284.8   5.8653e-17 
     7285.8   6.1326e-17 
     7286.8   6.0379e-17 
     7287.8   5.7656e-17 
     7288.8   5.6913e-17 
     7289.8    5.674e-17 
     7290.8   5.6074e-17 
     7291.8   5.4417e-17 
     7292.8    5.501e-17 
     7293.8   5.8892e-17 
     7294.8   5.9315e-17 
     7295.8   5.8849e-17 
     7296.8   5.5631e-17 
     7297.8   5.3891e-17 
     7298.8   5.4568e-17 
     7299.8   6.1021e-17 
     7300.8   5.9031e-17 
     7301.8   5.4536e-17 
     7302.8   4.4803e-17 
     7303.8    4.443e-17 
     7304.8   4.6109e-17 
     7305.8   5.5768e-17 
     7306.8   5.6555e-17 
     7307.8   5.5328e-17 
     7308.8   5.1155e-17 
     7309.8   5.1831e-17 
     7310.8   5.6166e-17 
     7311.8   5.9657e-17 
     7312.8   5.8445e-17 
     7313.8   5.5539e-17 
     7314.8   5.1463e-17 
     7315.8    5.226e-17 
     7316.8   5.7554e-17 
     7317.8   5.8736e-17 
     7318.8   5.8607e-17 
     7319.8   5.6818e-17 
     7320.8   5.7077e-17 
     7321.8   5.7179e-17 
     7322.8   5.7148e-17 
     7323.8   5.8011e-17 
     7324.8   5.9154e-17 
     7325.8   5.9474e-17 
     7326.8    6.071e-17 
     7327.8   6.2526e-17 
     7328.8   6.0898e-17 
     7329.8    5.893e-17 
     7330.8   5.6918e-17 
     7331.8   5.8005e-17 
     7332.8   5.6425e-17 
     7333.8   5.3193e-17 
     7334.8   5.7548e-17 
     7335.8   6.1553e-17 
     7336.8   6.3126e-17 
     7337.8   6.1896e-17 
     7338.8   6.0102e-17 
     7339.8   5.9366e-17 
     7340.8   6.1451e-17 
     7341.8     6.28e-17 
     7342.8   6.2234e-17 
     7343.8   5.1972e-17 
     7344.8   4.5124e-17 
     7345.8   4.6366e-17 
     7346.8   5.3291e-17 
     7347.8   5.8691e-17 
     7348.8   5.7352e-17 
     7349.8   5.6425e-17 
     7350.8   5.3926e-17 
     7351.8   4.9733e-17 
     7352.8   4.8612e-17 
     7353.8   4.9661e-17 
     7354.8   5.5942e-17 
     7355.8   5.8268e-17 
     7356.8   5.9533e-17 
     7357.8   5.6527e-17 
     7358.8   5.3924e-17 
     7359.8   5.2304e-17 
     7360.8   5.5248e-17 
     7361.8   5.5308e-17 
     7362.8   5.2809e-17 
     7363.8   5.8214e-17 
     7364.8   6.1877e-17 
     7365.8   6.3225e-17 
     7366.8   5.2447e-17 
     7367.8   4.7673e-17 
     7368.8   5.3954e-17 
     7369.8   5.2572e-17 
     7370.8   5.1379e-17 
     7371.8   5.3625e-17 
     7372.8   5.5166e-17 
     7373.8   5.3787e-17 
     7374.8   4.6087e-17 
     7375.8   4.3901e-17 
     7376.8     4.53e-17 
     7377.8   4.9735e-17 
     7378.8   5.0851e-17 
     7379.8   4.9954e-17 
     7380.8   5.1219e-17 
     7381.8   5.1989e-17 
     7382.8   5.2891e-17 
     7383.8   5.1783e-17 
     7384.8   5.0429e-17 
     7385.8   4.9369e-17 
     7386.8   5.2327e-17 
     7387.8   5.6617e-17 
     7388.8   5.9991e-17 
     7389.8   5.7946e-17 
     7390.8    5.419e-17 
     7391.8   5.0535e-17 
     7392.8   5.4902e-17 
     7393.8    5.811e-17 
     7394.8   5.2504e-17 
     7395.8   5.2212e-17 
     7396.8   5.3284e-17 
     7397.8   5.4234e-17 
     7398.8    5.485e-17 
     7399.8   5.6887e-17 
     7400.8   6.1272e-17 
     7401.8   5.9855e-17 
     7402.8   5.4786e-17 
     7403.8   5.3741e-17 
     7404.8   4.9737e-17 
     7405.8   4.5125e-17 
     7406.8   5.1684e-17 
     7407.8    5.665e-17 
     7408.8   5.7481e-17 
     7409.8   5.7134e-17 
     7410.8   5.5604e-17 
     7411.8   4.9491e-17 
     7412.8   4.8484e-17 
     7413.8   4.7972e-17 
     7414.8   4.8954e-17 
     7415.8   4.9302e-17 
     7416.8   5.0484e-17 
     7417.8   6.0641e-17 
     7418.8   5.7781e-17 
     7419.8   5.4457e-17 
     7420.8   5.9252e-17 
     7421.8   6.0578e-17 
     7422.8   5.9272e-17 
     7423.8   5.1638e-17 
     7424.8   5.0777e-17 
     7425.8   5.2928e-17 
     7426.8    5.366e-17 
     7427.8   5.4791e-17 
     7428.8   5.6355e-17 
     7429.8   5.2858e-17 
     7430.8   5.1689e-17 
     7431.8    5.379e-17 
     7432.8   5.4438e-17 
     7433.8   5.5271e-17 
     7434.8   5.6561e-17 
     7435.8   5.3755e-17 
     7436.8   5.4378e-17 
     7437.8   6.3547e-17 
     7438.8   6.5987e-17 
     7439.8   6.5607e-17 
     7440.8    6.144e-17 
     7441.8    5.997e-17 
     7442.8   5.8748e-17 
     7443.8   5.3744e-17 
     7444.8   5.5539e-17 
     7445.8   5.8243e-17 
     7446.8   5.4691e-17 
     7447.8   5.2777e-17 
     7448.8   5.1772e-17 
     7449.8   5.0231e-17 
     7450.8   5.0628e-17 
     7451.8   5.2626e-17 
     7452.8   5.7581e-17 
     7453.8   6.0969e-17 
     7454.8   6.2789e-17 
     7455.8   6.0262e-17 
     7456.8   5.9969e-17 
     7457.8   6.4857e-17 
     7458.8   6.0465e-17 
     7459.8   5.5896e-17 
     7460.8   5.3054e-17 
     7461.8   5.5162e-17 
     7462.8    5.655e-17 
     7463.8   5.2271e-17 
     7464.8    5.614e-17 
     7465.8   6.0319e-17 
     7466.8   5.4833e-17 
     7467.8   5.8044e-17 
     7468.8   6.3438e-17 
     7469.8   5.8616e-17 
     7470.8   5.3893e-17 
     7471.8   4.9994e-17 
     7472.8   5.0461e-17 
     7473.8   5.4504e-17 
     7474.8   6.0247e-17 
     7475.8   5.5433e-17 
     7476.8   5.4622e-17 
     7477.8   5.7675e-17 
     7478.8   5.8381e-17 
     7479.8    5.734e-17 
     7480.8   5.2779e-17 
     7481.8   4.9015e-17 
     7482.8   4.7925e-17 
     7483.8   4.9244e-17 
     7484.8   5.3207e-17 
     7485.8   5.5195e-17 
     7486.8   4.8539e-17 
     7487.8   4.9013e-17 
     7488.8   5.1608e-17 
     7489.8   5.3995e-17 
     7490.8    5.174e-17 
     7491.8   4.8191e-17 
     7492.8   4.8867e-17 
     7493.8   4.9236e-17 
     7494.8   4.9275e-17 
     7495.8   4.8637e-17 
     7496.8   4.6997e-17 
     7497.8   4.5006e-17 
     7498.8    4.768e-17 
     7499.8   4.7991e-17 
     7500.8   4.6391e-17 
     7501.8   4.7929e-17 
     7502.8   4.6237e-17 
     7503.8   3.9363e-17 
     7504.8   4.3773e-17 
     7505.8   4.9004e-17 
     7506.8   5.3534e-17 
     7507.8   5.5103e-17 
     7508.8   5.4304e-17 
     7509.8   4.7606e-17 
     7510.8   4.7254e-17 
     7511.8    4.817e-17 
     7512.8   5.3242e-17 
     7513.8   5.1317e-17 
     7514.8   4.7852e-17 
     7515.8   5.0564e-17 
     7516.8   4.8725e-17 
     7517.8   4.4457e-17 
     7518.8    4.608e-17 
     7519.8   4.9743e-17 
     7520.8    5.396e-17 
     7521.8   5.1699e-17 
     7522.8   4.6987e-17 
     7523.8   4.0832e-17 
     7524.8   5.2262e-17 
     7525.8   5.7383e-17 
     7526.8   5.5092e-17 
     7527.8   4.8695e-17 
     7528.8   4.3726e-17 
     7529.8   4.2986e-17 
     7530.8   4.1653e-17 
     7531.8    4.127e-17 
     7532.8   4.6333e-17 
     7533.8   4.7565e-17 
     7534.8   4.7316e-17 
     7535.8   4.7106e-17 
     7536.8   4.4527e-17 
     7537.8   4.1676e-17 
     7538.8    4.583e-17 
     7539.8    4.965e-17 
     7540.8   5.2316e-17 
     7541.8   4.9304e-17 
     7542.8   4.4011e-17 
     7543.8   3.8901e-17 
     7544.8   4.3651e-17 
     7545.8   4.4639e-17 
     7546.8   4.2286e-17 
     7547.8   4.3565e-17 
     7548.8   4.6027e-17 
     7549.8   4.9127e-17 
     7550.8   4.6676e-17 
     7551.8   4.3825e-17 
     7552.8   4.2891e-17 
     7553.8   4.7523e-17 
     7554.8   5.0815e-17 
     7555.8    4.642e-17 
     7556.8    4.623e-17 
     7557.8   4.7042e-17 
     7558.8   4.6251e-17 
     7559.8    4.719e-17 
     7560.8   4.8068e-17 
     7561.8   4.4691e-17 
     7562.8   4.4969e-17 
     7563.8   4.7135e-17 
     7564.8    5.066e-17 
     7565.8   5.0865e-17 
     7566.8   4.9445e-17 
     7567.8   5.3009e-17 
     7568.8   5.1941e-17 
     7569.8   4.2747e-17 
     7570.8   3.8847e-17 
     7571.8   4.0166e-17 
     7572.8    4.988e-17 
     7573.8    4.894e-17 
     7574.8   4.6471e-17 
     7575.8   4.3667e-17 
     7576.8   4.2707e-17 
     7577.8   4.1742e-17 
     7578.8   4.0934e-17 
     7579.8   4.0122e-17 
     7580.8   4.0345e-17 
     7581.8   4.5756e-17 
     7582.8   5.1921e-17 
     7583.8   5.8426e-17 
     7584.8   5.7614e-17 
     7585.8   5.4459e-17 
     7586.8   5.1908e-17 
     7587.8    4.949e-17 
     7588.8   4.7444e-17 
     7589.8   4.2797e-17 
     7590.8   4.0486e-17 
     7591.8   4.1825e-17 
     7592.8   4.5262e-17 
     7593.8   4.8739e-17 
     7594.8   4.9187e-17 
     7595.8   4.3247e-17 
     7596.8   3.8837e-17 
     7597.8   3.4031e-17 
     7598.8   2.5274e-17 
     7599.8   2.1562e-17 
     7600.8   2.3061e-17 
     7601.8   3.4576e-17 
     7602.8   3.6971e-17 
     7603.8   3.7411e-17 
     7604.8   3.8104e-17 
     7605.8   3.9893e-17 
     7606.8   4.1889e-17 
     7607.8   4.0204e-17 
     7608.8   4.0813e-17 
     7609.8   4.1036e-17 
     7610.8   4.4431e-17 
     7611.8   4.6724e-17 
     7612.8   4.8751e-17 
     7613.8   5.6132e-17 
     7614.8   5.8734e-17 
     7615.8   5.6866e-17 
     7616.8   5.1875e-17 
     7617.8    5.216e-17 
     7618.8   6.0831e-17 
     7619.8   5.9146e-17 
     7620.8   5.5819e-17 
     7621.8   5.0128e-17 
     7622.8   5.1579e-17 
     7623.8   5.3264e-17 
     7624.8   5.1085e-17 
     7625.8   4.8982e-17 
     7626.8   4.6217e-17 
     7627.8   4.1243e-17 
     7628.8   4.0015e-17 
     7629.8   4.2291e-17 
     7630.8   5.2306e-17 
     7631.8    5.537e-17 
     7632.8   5.3842e-17 
     7633.8   5.0543e-17 
     7634.8   4.6765e-17 
     7635.8   4.2557e-17 
     7636.8   3.5075e-17 
     7637.8    3.447e-17 
     7638.8   3.8501e-17 
     7639.8    4.691e-17 
     7640.8   5.1852e-17 
     7641.8   5.2556e-17 
     7642.8   4.9164e-17 
     7643.8   4.7161e-17 
     7644.8     4.89e-17 
     7645.8   5.0393e-17 
     7646.8   5.0228e-17 
     7647.8   4.6341e-17 
     7648.8   4.4458e-17 
     7649.8    4.392e-17 
     7650.8   4.6395e-17 
     7651.8   4.7146e-17 
     7652.8   4.8228e-17 
     7653.8   5.0106e-17 
     7654.8   4.7932e-17 
     7655.8    4.403e-17 
     7656.8   4.7963e-17 
     7657.8   5.4302e-17 
     7658.8   6.0607e-17 
     7659.8   5.5501e-17 
     7660.8   4.8082e-17 
     7661.8   4.1298e-17 
     7662.8   4.4318e-17 
     7663.8   4.8026e-17 
     7664.8   5.3015e-17 
     7665.8   5.1996e-17 
     7666.8   5.0513e-17 
     7667.8    4.981e-17 
     7668.8   4.6003e-17 
     7669.8   4.3646e-17 
     7670.8   4.2468e-17 
     7671.8   4.6177e-17 
     7672.8   5.1527e-17 
     7673.8   5.3874e-17 
     7674.8   5.1816e-17 
     7675.8   4.8296e-17 
     7676.8   5.0431e-17 
     7677.8   5.1522e-17 
     7678.8   5.2572e-17 
     7679.8   4.7152e-17 
     7680.8   4.6395e-17 
     7681.8   4.8474e-17 
     7682.8   5.0055e-17 
     7683.8   5.0052e-17 
     7684.8    4.931e-17 
     7685.8   4.5609e-17 
     7686.8   4.5093e-17 
     7687.8   5.0524e-17 
     7688.8   5.7148e-17 
     7689.8   5.8697e-17 
     7690.8   5.2667e-17 
     7691.8   4.8591e-17 
     7692.8   4.6647e-17 
     7693.8   4.7647e-17 
     7694.8   4.9732e-17 
     7695.8   5.1854e-17 
     7696.8   5.2442e-17 
     7697.8   5.2357e-17 
     7698.8   5.1545e-17 
     7699.8   5.0717e-17 
     7700.8   4.9116e-17 
     7701.8   4.7293e-17 
     7702.8   4.6538e-17 
     7703.8   4.6703e-17 
     7704.8   4.8504e-17 
     7705.8   4.6026e-17 
     7706.8   4.5689e-17 
     7707.8   4.7922e-17 
     7708.8   5.5951e-17 
     7709.8   5.8998e-17 
     7710.8   5.8468e-17 
     7711.8   5.4327e-17 
     7712.8   5.1168e-17 
     7713.8   5.0516e-17 
     7714.8   4.6734e-17 
     7715.8   4.2558e-17 
     7716.8   3.8379e-17 
     7717.8   4.0369e-17 
     7718.8   4.5282e-17 
     7719.8   4.4749e-17 
     7720.8    4.761e-17 
     7721.8   5.2035e-17 
     7722.8   5.2939e-17 
     7723.8    4.984e-17 
     7724.8   4.3987e-17 
     7725.8   4.6328e-17 
     7726.8   4.4945e-17 
     7727.8   4.0437e-17 
     7728.8   4.5817e-17 
     7729.8   4.8841e-17 
     7730.8   5.2166e-17 
     7731.8    5.092e-17 
     7732.8   4.9313e-17 
     7733.8    4.825e-17 
     7734.8   5.0932e-17 
     7735.8   5.2533e-17 
     7736.8    5.239e-17 
     7737.8   5.0189e-17 
     7738.8   4.8753e-17 
     7739.8   5.1102e-17 
     7740.8   4.7821e-17 
     7741.8   4.3896e-17 
     7742.8   4.6206e-17 
     7743.8   5.1283e-17 
     7744.8   5.7029e-17 
     7745.8   6.0504e-17 
     7746.8   5.8172e-17 
     7747.8   5.0625e-17 
     7748.8   4.5462e-17 
     7749.8   4.4996e-17 
     7750.8   4.8054e-17 
     7751.8   5.8834e-17 
     7752.8   5.7594e-17 
     7753.8   4.3072e-17 
     7754.8    4.303e-17 
     7755.8   4.5418e-17 
     7756.8   4.9475e-17 
     7757.8   4.2205e-17 
     7758.8   3.8713e-17 
     7759.8   4.5939e-17 
     7760.8     5.16e-17 
     7761.8   5.2644e-17 
     7762.8   4.9179e-17 
     7763.8   4.6773e-17 
     7764.8   4.5575e-17 
     7765.8   4.5594e-17 
     7766.8   4.7736e-17 
     7767.8   5.0002e-17 
     7768.8   5.3153e-17 
     7769.8   5.4482e-17 
     7770.8   5.3883e-17 
     7771.8   5.1416e-17 
     7772.8   5.3199e-17 
     7773.8   5.6405e-17 
     7774.8   5.3522e-17 
     7775.8   5.2048e-17 
     7776.8   5.1861e-17 
     7777.8    4.744e-17 
     7778.8   4.6353e-17 
     7779.8   4.9764e-17 
     7780.8   5.2271e-17 
     7781.8   5.4533e-17 
     7782.8   5.5219e-17 
     7783.8   5.4509e-17 
     7784.8   5.3928e-17 
     7785.8   5.0965e-17 
     7786.8   5.0606e-17 
     7787.8   5.1652e-17 
     7788.8    5.393e-17 
     7789.8   5.7174e-17 
     7790.8    5.847e-17 
     7791.8   4.7577e-17 
     7792.8   4.7451e-17 
     7793.8   5.2301e-17 
     7794.8   5.6556e-17 
     7795.8    5.514e-17 
     7796.8   4.9162e-17 
     7797.8   4.5604e-17 
     7798.8   4.2571e-17 
     7799.8   4.2352e-17 
     7800.8   4.6351e-17 
     7801.8   5.0879e-17 
     7802.8   5.5281e-17 
     7803.8     4.97e-17 
     7804.8   4.7168e-17 
     7805.8   5.2937e-17 
     7806.8   5.4454e-17 
     7807.8   5.4258e-17 
     7808.8   5.0011e-17 
     7809.8   4.6586e-17 
     7810.8   4.5093e-17 
     7811.8   4.8228e-17 
     7812.8   4.6541e-17 
     7813.8   4.4053e-17 
     7814.8   4.9181e-17 
     7815.8   5.6417e-17 
     7816.8    6.251e-17 
     7817.8   5.5441e-17 
     7818.8   5.0426e-17 
     7819.8   4.6704e-17 
     7820.8   4.7297e-17 
     7821.8   5.0679e-17 
     7822.8   5.8364e-17 
     7823.8   5.4559e-17 
     7824.8   5.1561e-17 
     7825.8   4.4282e-17 
     7826.8   4.3698e-17 
     7827.8   4.4493e-17 
     7828.8   4.8704e-17 
     7829.8   4.9264e-17 
     7830.8   4.9718e-17 
     7831.8   4.8271e-17 
     7832.8   4.4268e-17 
     7833.8   4.1258e-17 
     7834.8   4.0728e-17 
     7835.8   4.5901e-17 
     7836.8   5.2377e-17 
     7837.8   5.3999e-17 
     7838.8   5.2387e-17 
     7839.8   4.7154e-17 
     7840.8   4.1674e-17 
     7841.8   4.2138e-17 
     7842.8   4.7789e-17 
     7843.8   5.3555e-17 
     7844.8    5.184e-17 
     7845.8   4.2159e-17 
     7846.8   5.1735e-17 
     7847.8   5.8794e-17 
     7848.8   5.8727e-17 
     7849.8   5.0555e-17 
     7850.8   4.3525e-17 
     7851.8   4.0857e-17 
     7852.8   3.6229e-17 
     7853.8    3.545e-17 
     7854.8   4.9931e-17 
     7855.8   5.0959e-17 
     7856.8   4.8438e-17 
     7857.8    3.932e-17 
     7858.8    4.223e-17 
     7859.8   4.8083e-17 
     7860.8   5.5707e-17 
     7861.8    5.562e-17 
     7862.8   5.1344e-17 
     7863.8   4.6964e-17 
     7864.8   4.4112e-17 
     7865.8   4.1519e-17 
     7866.8   4.4558e-17 
     7867.8   4.7298e-17 
     7868.8   4.9137e-17 
     7869.8   4.7013e-17 
     7870.8   4.7886e-17 
     7871.8   5.2938e-17 
     7872.8   4.8591e-17 
     7873.8   4.5106e-17 
     7874.8    4.511e-17 
     7875.8   4.4714e-17 
     7876.8   4.4775e-17 
     7877.8   4.6901e-17 
     7878.8   4.7979e-17 
     7879.8    5.061e-17 
     7880.8   5.3732e-17 
     7881.8   5.4438e-17 
     7882.8   5.3854e-17 
     7883.8   4.6356e-17 
     7884.8   4.5254e-17 
     7885.8   4.6874e-17 
     7886.8   4.6718e-17 
     7887.8   4.6458e-17 
     7888.8   4.6573e-17 
     7889.8   4.7864e-17 
     7890.8   4.7452e-17 
     7891.8   4.4581e-17 
     7892.8   4.3226e-17 
     7893.8   4.2119e-17 
     7894.8   4.0519e-17 
     7895.8   4.0763e-17 
     7896.8   4.2484e-17 
     7897.8   4.7602e-17 
     7898.8   5.1795e-17 
     7899.8   5.3197e-17 
     7900.8   5.1556e-17 
     7901.8   4.8012e-17 
     7902.8   4.3342e-17 
     7903.8   3.9402e-17 
     7904.8   3.9429e-17 
     7905.8   4.3756e-17 
     7906.8   4.9884e-17 
     7907.8   5.2149e-17 
     7908.8   5.4048e-17 
     7909.8   5.6008e-17 
     7910.8   5.2024e-17 
     7911.8   4.3781e-17 
     7912.8   4.4038e-17 
     7913.8    4.745e-17 
     7914.8   5.6898e-17 
     7915.8    5.829e-17 
     7916.8   5.5599e-17 
     7917.8    4.482e-17 
     7918.8    3.868e-17 
     7919.8   3.8216e-17 
     7920.8   4.6088e-17 
     7921.8   4.7711e-17 
     7922.8   4.7959e-17 
     7923.8   4.9024e-17 
     7924.8   4.7224e-17 
     7925.8   4.4761e-17 
     7926.8   4.3141e-17 
     7927.8    4.112e-17 
     7928.8   4.0939e-17 
     7929.8   4.8167e-17 
     7930.8   4.9084e-17 
     7931.8    4.762e-17 
     7932.8   4.9263e-17 
     7933.8   4.8674e-17 
     7934.8   4.6448e-17 
     7935.8   4.5786e-17 
     7936.8    4.555e-17 
     7937.8   4.5473e-17 
     7938.8   4.6925e-17 
     7939.8   4.5938e-17 
     7940.8   4.1019e-17 
     7941.8   4.2041e-17 
     7942.8   4.6841e-17 
     7943.8   5.9497e-17 
     7944.8   5.7745e-17 
     7945.8   5.3041e-17 
     7946.8   4.7538e-17 
     7947.8   4.5235e-17 
     7948.8   4.4394e-17 
     7949.8   4.3564e-17 
     7950.8    4.944e-17 
     7951.8   5.5315e-17 
     7952.8   4.2875e-17 
     7953.8   3.7747e-17 
     7954.8    3.507e-17 
     7955.8   4.4453e-17 
     7956.8   4.4543e-17 
     7957.8   3.9928e-17 
     7958.8   4.2446e-17 
     7959.8   4.6009e-17 
     7960.8   5.0813e-17 
     7961.8     5.04e-17 
     7962.8   4.9961e-17 
     7963.8   4.7898e-17 
     7964.8   4.1586e-17 
     7965.8    3.954e-17 
     7966.8   4.3729e-17 
     7967.8   4.4316e-17 
     7968.8   4.5588e-17 
     7969.8   4.9627e-17 
     7970.8   4.7737e-17 
     7971.8   4.5777e-17 
     7972.8   5.0083e-17 
     7973.8   5.3337e-17 
     7974.8    5.518e-17 
     7975.8   4.7428e-17 
     7976.8   4.7966e-17 
     7977.8   5.2207e-17 
     7978.8   5.4782e-17 
     7979.8   5.6828e-17 
     7980.8    5.789e-17 
     7981.8      5.2e-17 
     7982.8   4.7218e-17 
     7983.8   4.4716e-17 
     7984.8   4.3256e-17 
     7985.8   4.5982e-17 
     7986.8   5.2729e-17 
     7987.8   6.0825e-17 
     7988.8   6.1089e-17 
     7989.8   4.2604e-17 
     7990.8   4.7412e-17 
     7991.8   5.4692e-17 
     7992.8   5.9869e-17 
     7993.8   5.2537e-17 
     7994.8   4.6034e-17 
     7995.8   4.9915e-17 
     7996.8    4.963e-17 
     7997.8   4.6781e-17 
     7998.8   4.3527e-17 
     7999.8   4.2671e-17 
     8000.8   4.3492e-17 
     8001.8   4.9913e-17 
     8002.8   4.9302e-17 
     8003.8   4.5371e-17 
     8004.8   4.7086e-17 
     8005.8   4.9618e-17 
     8006.8   5.2925e-17 
     8007.8   5.4177e-17 
     8008.8   5.2733e-17 
     8009.8   4.5367e-17 
     8010.8   4.6304e-17 
     8011.8   4.7319e-17 
     8012.8   4.9027e-17 
     8013.8   4.8393e-17 
     8014.8    4.636e-17 
     8015.8   4.0046e-17 
     8016.8   4.1822e-17 
     8017.8   4.7405e-17 
     8018.8   5.4417e-17 
     8019.8   5.0014e-17 
     8020.8   4.2699e-17 
     8021.8   4.4435e-17 
     8022.8   5.0744e-17 
     8023.8    5.652e-17 
     8024.8   5.3502e-17 
     8025.8   5.0295e-17 
     8026.8   4.8676e-17 
     8027.8   4.9459e-17 
     8028.8   4.9605e-17 
     8029.8   4.8776e-17 
     8030.8   4.6367e-17 
     8031.8   4.4194e-17 
     8032.8   4.2776e-17 
     8033.8    4.651e-17 
     8034.8   4.9011e-17 
     8035.8   4.7765e-17 
     8036.8    4.788e-17 
     8037.8   4.8453e-17 
     8038.8   4.9705e-17 
     8039.8   5.0119e-17 
     8040.8   4.9431e-17 
     8041.8   4.3368e-17 
     8042.8   4.0699e-17 
     8043.8   4.0354e-17 
     8044.8   4.8679e-17 
     8045.8   5.4555e-17 
     8046.8   5.7031e-17 
     8047.8   4.7774e-17 
     8048.8   4.4164e-17 
     8049.8   4.3424e-17 
     8050.8   4.5606e-17 
     8051.8   4.6922e-17 
     8052.8   4.8181e-17 
     8053.8   4.8456e-17 
     8054.8   4.9382e-17 
     8055.8   5.2189e-17 
     8056.8   5.4283e-17 
     8057.8   5.5087e-17 
     8058.8   5.4382e-17 
     8059.8   5.1711e-17 
     8060.8   5.0682e-17 
     8061.8    5.805e-17 
     8062.8   5.7008e-17 
     8063.8   5.2839e-17 
     8064.8   4.5915e-17 
     8065.8   4.2893e-17 
     8066.8   4.2059e-17 
     8067.8   4.5902e-17 
     8068.8   4.7936e-17 
     8069.8   4.8611e-17 
     8070.8   4.2382e-17 
     8071.8   4.2867e-17 
     8072.8   4.8113e-17 
     8073.8   4.9829e-17 
     8074.8   5.1565e-17 
     8075.8   5.3331e-17 
     8076.8   4.9712e-17 
     8077.8   4.7889e-17 
     8078.8   4.7033e-17 
     8079.8   5.0263e-17 
     8080.8    5.144e-17 
     8081.8   4.7164e-17 
     8082.8   4.9268e-17 
     8083.8   5.1482e-17 
     8084.8   5.1291e-17 
     8085.8   4.8894e-17 
     8086.8   4.7336e-17 
     8087.8   4.7902e-17 
     8088.8   4.8065e-17 
     8089.8   4.7977e-17 
     8090.8   4.7843e-17 
     8091.8   4.6961e-17 
     8092.8    4.585e-17 
     8093.8   4.6759e-17 
     8094.8   4.7025e-17 
     8095.8   4.7673e-17 
     8096.8   5.1034e-17 
     8097.8   5.2753e-17 
     8098.8   5.3824e-17 
     8099.8   4.7578e-17 
     8100.8   4.5951e-17 
     8101.8   4.9857e-17 
     8102.8   5.1163e-17 
     8103.8   5.1519e-17 
     8104.8   4.9466e-17 
     8105.8   4.7221e-17 
     8106.8    4.503e-17 
     8107.8   4.3946e-17 
     8108.8   4.5993e-17 
     8109.8    4.969e-17 
     8110.8   5.3477e-17 
     8111.8   5.2026e-17 
     8112.8   4.8828e-17 
     8113.8   4.7611e-17 
     8114.8   4.6569e-17 
     8115.8   4.5987e-17 
     8116.8    4.594e-17 
     8117.8    4.498e-17 
     8118.8   4.3498e-17 
     8119.8   4.3334e-17 
     8120.8   4.5125e-17 
     8121.8   4.9076e-17 
     8122.8   4.6813e-17 
     8123.8   4.4702e-17 
     8124.8   4.4031e-17 
     8125.8   4.1186e-17 
     8126.8   3.8887e-17 
     8127.8   3.9999e-17 
     8128.8   4.1537e-17 
     8129.8   4.4233e-17 
     8130.8   4.7664e-17 
     8131.8   4.5134e-17 
     8132.8   4.2681e-17 
     8133.8   4.5367e-17 
     8134.8   4.5854e-17 
     8135.8   4.5725e-17 
     8136.8   4.7036e-17 
     8137.8   4.7607e-17 
     8138.8   4.8138e-17 
     8139.8   4.7989e-17 
     8140.8   4.7734e-17 
     8141.8   4.7032e-17 
     8142.8   4.8677e-17 
     8143.8   4.7796e-17 
     8144.8   4.3625e-17 
     8145.8   4.5442e-17 
     8146.8   4.6328e-17 
     8147.8   4.6188e-17 
     8148.8   4.1618e-17 
     8149.8   4.0407e-17 
     8150.8   4.5219e-17 
     8151.8   4.8028e-17 
     8152.8   4.8631e-17 
     8153.8   4.3778e-17 
     8154.8   3.9228e-17 
     8155.8   3.7448e-17 
     8156.8    4.075e-17 
     8157.8   4.1033e-17 
     8158.8   4.0323e-17 
     8159.8    4.315e-17 
     8160.8   4.4335e-17 
     8161.8   4.4088e-17 
     8162.8   4.1577e-17 
     8163.8   3.8831e-17 
     8164.8   3.7871e-17 
     8165.8   4.1054e-17 
     8166.8   4.4164e-17 
     8167.8   4.6549e-17 
     8168.8    4.797e-17 
     8169.8   4.8324e-17 
     8170.8   4.8229e-17 
     8171.8   4.7849e-17 
     8172.8    4.776e-17 
     8173.8   4.8353e-17 
     8174.8   4.8056e-17 
     8175.8   4.6778e-17 
     8176.8    4.154e-17 
     8177.8   4.5655e-17 
     8178.8   5.1576e-17 
     8179.8   5.2269e-17 
     8180.8   5.1104e-17 
     8181.8    4.845e-17 
     8182.8   4.6253e-17 
     8183.8   4.7078e-17 
     8184.8   4.8793e-17 
     8185.8   4.4542e-17 
     8186.8   4.1347e-17 
     8187.8   4.1534e-17 
     8188.8   4.7156e-17 
     8189.8    4.602e-17 
     8190.8   4.2204e-17 
     8191.8   4.8531e-17 
     8192.8   5.1974e-17 
     8193.8   5.0049e-17 
     8194.8    4.515e-17 
     8195.8   4.3287e-17 
     8196.8   4.6326e-17 
     8197.8    4.134e-17 
     8198.8   3.6646e-17 
     8199.8   4.1528e-17 
     8200.8   4.3196e-17 
     8201.8   4.6853e-17 
     8202.8   5.0715e-17 
     8203.8   4.9478e-17 
     8204.8   4.7618e-17 
     8205.8   4.8995e-17 
     8206.8   4.6147e-17 
     8207.8   4.0482e-17 
     8208.8   4.0417e-17 
     8209.8   4.2217e-17 
     8210.8    4.579e-17 
     8211.8   4.9267e-17 
     8212.8   4.7964e-17 
     8213.8    4.039e-17 
     8214.8    3.732e-17 
     8215.8   3.8743e-17 
     8216.8   4.3325e-17 
     8217.8   4.4111e-17 
     8218.8   4.4103e-17 
     8219.8   4.3613e-17 
     8220.8    4.264e-17 
     8221.8    4.094e-17 
     8222.8   3.8984e-17 
     8223.8   4.3244e-17 
     8224.8   4.6977e-17 
     8225.8   4.1329e-17 
     8226.8   4.1579e-17 
     8227.8   4.3488e-17 
     8228.8    4.574e-17 
     8229.8   4.4765e-17 
     8230.8   4.2419e-17 
     8231.8   4.2826e-17 
     8232.8   4.4666e-17 
     8233.8   4.7038e-17 
     8234.8   4.9318e-17 
     8235.8   4.8833e-17 
     8236.8   4.4524e-17 
     8237.8   4.5352e-17 
     8238.8   4.4143e-17 
     8239.8   4.2024e-17 
     8240.8   4.2913e-17 
     8241.8   4.3902e-17 
     8242.8   4.3709e-17 
     8243.8    4.432e-17 
     8244.8   4.6061e-17 
     8245.8   4.7909e-17 
     8246.8   4.7593e-17 
     8247.8   4.6079e-17 
     8248.8   4.4108e-17 
     8249.8   4.3026e-17 
     8250.8   4.2621e-17 
     8251.8   4.2818e-17 
     8252.8   4.2829e-17 
     8253.8   4.2521e-17 
     8254.8   4.1432e-17 
     8255.8   4.3108e-17 
     8256.8   4.5801e-17 
     8257.8   4.8124e-17 
     8258.8   4.7529e-17 
     8259.8   4.5272e-17 
     8260.8   4.5664e-17 
     8261.8   4.5647e-17 
     8262.8   4.4758e-17 
     8263.8   4.4364e-17 
     8264.8   4.3745e-17 
     8265.8   4.3986e-17 
     8266.8   4.3131e-17 
     8267.8   4.4263e-17 
     8268.8   4.6901e-17 
     8269.8    4.805e-17 
     8270.8   4.8245e-17 
     8271.8   4.2962e-17 
     8272.8   4.5045e-17 
     8273.8   5.0273e-17 
     8274.8   5.3441e-17 
     8275.8   4.8969e-17 
     8276.8      3.9e-17 
     8277.8   3.9958e-17 
     8278.8   3.8009e-17 
     8279.8   3.4372e-17 
     8280.8   3.0656e-17 
     8281.8   3.2423e-17 
     8282.8   4.2108e-17 
     8283.8   4.5653e-17 
     8284.8   4.5336e-17 
     8285.8   4.3245e-17 
     8286.8   4.2704e-17 
     8287.8   4.1108e-17 
     8288.8   3.5589e-17 
     8289.8   2.9102e-17 
     8290.8   2.7038e-17 
     8291.8   3.1967e-17 
     8292.8   3.6338e-17 
     8293.8   3.9185e-17 
     8294.8   3.6634e-17 
     8295.8   3.4889e-17 
     8296.8   3.5661e-17 
     8297.8   4.3061e-17 
     8298.8   4.6548e-17 
     8299.8   4.6569e-17 
     8300.8   4.2231e-17 
     8301.8   3.9167e-17 
     8302.8   3.7195e-17 
     8303.8   3.9731e-17 
     8304.8   4.2803e-17 
     8305.8   4.4945e-17 
     8306.8   4.8015e-17 
     8307.8    4.683e-17 
     8308.8   4.2034e-17 
     8309.8   4.4898e-17 
     8310.8   4.6776e-17 
     8311.8   4.6296e-17 
     8312.8   4.2219e-17 
     8313.8   3.9859e-17 
     8314.8   4.2007e-17 
     8315.8   4.2131e-17 
     8316.8   4.1944e-17 
     8317.8   4.3938e-17 
     8318.8   4.2221e-17 
     8319.8   4.0094e-17 
     8320.8   4.0693e-17 
     8321.8    4.008e-17 
     8322.8   3.9349e-17 
     8323.8   4.0861e-17 
     8324.8     4.22e-17 
     8325.8   4.4122e-17 
     8326.8   4.1129e-17 
     8327.8   3.7193e-17 
     8328.8   3.4051e-17 
     8329.8   3.9034e-17 
     8330.8   4.1154e-17 
     8331.8   3.9922e-17 
     8332.8   3.9813e-17 
     8333.8    4.013e-17 
     8334.8   4.1373e-17 
     8335.8   3.9442e-17 
     8336.8   3.6615e-17 
     8337.8   3.0244e-17 
     8338.8   3.5318e-17 
     8339.8   4.0329e-17 
     8340.8   3.8424e-17 
     8341.8   3.4983e-17 
     8342.8   3.2537e-17 
     8343.8   3.8267e-17 
     8344.8   3.5026e-17 
     8345.8   3.1048e-17 
     8346.8   4.6981e-17 
     8347.8   4.4275e-17 
     8348.8    3.014e-17 
     8349.8   2.9594e-17 
     8350.8   3.2496e-17 
     8351.8   3.9157e-17 
     8352.8   4.1258e-17 
     8353.8   3.9767e-17 
     8354.8   3.7913e-17 
     8355.8   3.9513e-17 
     8356.8   3.9463e-17 
     8357.8   3.3963e-17 
     8358.8   3.0466e-17 
     8359.8   3.1223e-17 
     8360.8   4.2701e-17 
     8361.8   4.1152e-17 
     8362.8   3.8004e-17 
     8363.8   3.7851e-17 
     8364.8    4.108e-17 
     8365.8   4.4649e-17 
     8366.8   4.0435e-17 
     8367.8   4.4248e-17 
     8368.8   4.9664e-17 
     8369.8   4.2924e-17 
     8370.8   4.0361e-17 
     8371.8   4.1065e-17 
     8372.8    4.089e-17 
     8373.8   4.0421e-17 
     8374.8   3.8118e-17 
     8375.8   3.3557e-17 
     8376.8   2.9939e-17 
     8377.8   3.1149e-17 
     8378.8   3.5791e-17 
     8379.8   4.1874e-17 
     8380.8   4.5946e-17 
     8381.8   4.7044e-17 
     8382.8   4.5587e-17 
     8383.8   4.0526e-17 
     8384.8   3.4815e-17 
     8385.8   3.1964e-17 
     8386.8   3.5539e-17 
     8387.8   3.6636e-17 
     8388.8   3.8181e-17 
     8389.8   4.0471e-17 
     8390.8   3.8453e-17 
     8391.8   3.3456e-17 
     8392.8   2.7336e-17 
     8393.8    3.181e-17 
     8394.8    4.388e-17 
     8395.8   4.0523e-17 
     8396.8   3.9446e-17 
     8397.8   3.9786e-17 
     8398.8   4.5126e-17 
     8399.8   4.9245e-17 
     8400.8   5.1556e-17 
     8401.8    4.401e-17 
     8402.8   3.3693e-17 
     8403.8   2.6503e-17 
     8404.8   2.6706e-17 
     8405.8     2.79e-17 
     8406.8   3.0853e-17 
     8407.8    3.605e-17 
     8408.8   4.0912e-17 
     8409.8   4.3671e-17 
     8410.8    3.987e-17 
     8411.8   3.5544e-17 
     8412.8   3.6763e-17 
     8413.8   3.1574e-17 
     8414.8   2.3248e-17 
     8415.8   3.2076e-17 
     8416.8   3.6327e-17 
     8417.8   3.7489e-17 
     8418.8   3.6907e-17 
     8419.8   3.3768e-17 
     8420.8   2.7494e-17 
     8421.8   3.1725e-17 
     8422.8   3.9184e-17 
     8423.8   4.7124e-17 
     8424.8   4.3021e-17 
     8425.8   3.7417e-17 
     8426.8   3.4811e-17 
     8427.8    3.309e-17 
     8428.8   3.3401e-17 
     8429.8   4.0677e-17 
     8430.8   4.5826e-17 
     8431.8   4.7623e-17 
     8432.8   4.0614e-17 
     8433.8   3.6271e-17 
     8434.8   3.2205e-17 
     8435.8   3.3169e-17 
     8436.8   3.3069e-17 
     8437.8   3.3041e-17 
     8438.8   3.5152e-17 
     8439.8   3.4913e-17 
     8440.8   3.3805e-17 
     8441.8   3.6924e-17 
     8442.8   3.7937e-17 
     8443.8   3.7676e-17 
     8444.8   3.6732e-17 
     8445.8   3.8591e-17 
     8446.8   4.4483e-17 
     8447.8   4.2077e-17 
     8448.8    3.802e-17 
     8449.8   3.2868e-17 
     8450.8   3.4563e-17 
     8451.8   3.8456e-17 
     8452.8   4.3244e-17 
     8453.8   4.5115e-17 
     8454.8   4.4792e-17 
     8455.8   3.4278e-17 
     8456.8   3.2592e-17 
     8457.8   3.3994e-17 
     8458.8   4.2473e-17 
     8459.8   4.2781e-17 
     8460.8   3.9678e-17 
     8461.8   3.7992e-17 
     8462.8   3.4968e-17 
     8463.8   3.0114e-17 
     8464.8   3.3291e-17 
     8465.8   3.5456e-17 
     8466.8   3.8113e-17 
     8467.8    3.069e-17 
     8468.8   2.6432e-17 
     8469.8   2.7647e-17 
     8470.8   3.0935e-17 
     8471.8   3.4336e-17 
     8472.8   3.6888e-17 
     8473.8   3.5541e-17 
     8474.8   3.4432e-17 
     8475.8   3.4361e-17 
     8476.8   3.6513e-17 
     8477.8   3.7398e-17 
     8478.8   3.4703e-17 
     8479.8   3.2911e-17 
     8480.8   3.1957e-17 
     8481.8   3.4414e-17 
     8482.8   3.7083e-17 
     8483.8   3.8421e-17 
     8484.8   3.6708e-17 
     8485.8   3.6417e-17 
     8486.8   3.7127e-17 
     8487.8   3.7883e-17 
     8488.8   3.9265e-17 
     8489.8   4.2051e-17 
     8490.8   4.2453e-17 
     8491.8   4.0426e-17 
     8492.8   3.4142e-17 
     8493.8   3.4904e-17 
     8494.8   3.7541e-17 
     8495.8   4.3599e-17 
     8496.8   4.3274e-17 
     8497.8   4.1899e-17 
     8498.8   3.9323e-17 
     8499.8   4.1369e-17 
     8500.8   4.4569e-17 
     8501.8   4.7836e-17 
     8502.8   3.9731e-17 
     8503.8   3.0216e-17 
     8504.8    3.275e-17 
     8505.8   3.1858e-17 
     8506.8   2.9178e-17 
     8507.8   2.9054e-17 
     8508.8   3.2599e-17 
     8509.8   3.6892e-17 
     8510.8   3.1512e-17 
     8511.8   3.2954e-17 
     8512.8   4.2028e-17 
     8513.8   4.2522e-17 
     8514.8   4.1764e-17 
     8515.8   4.0319e-17 
     8516.8      4.1e-17 
     8517.8   4.1953e-17 
     8518.8   4.1311e-17 
     8519.8   4.0035e-17 
     8520.8     3.89e-17 
     8521.8   3.7679e-17 
     8522.8   4.0736e-17 
     8523.8   4.2311e-17 
     8524.8    3.877e-17 
     8525.8   4.1282e-17 
     8526.8   4.5003e-17 
     8527.8   4.3937e-17 
     8528.8   4.1078e-17 
     8529.8   3.8213e-17 
     8530.8   3.8034e-17 
     8531.8   3.7757e-17 
     8532.8   3.7092e-17 
     8533.8   3.7099e-17 
     8534.8   3.8173e-17 
     8535.8   3.9424e-17 
     8536.8    4.089e-17 
     8537.8   4.0964e-17 
     8538.8    3.788e-17 
     8539.8   3.7683e-17 
     8540.8    3.903e-17 
     8541.8   4.1194e-17 
     8542.8   4.1814e-17 
     8543.8   4.4125e-17 
     8544.8   4.9937e-17 
     8545.8   4.6405e-17 
     8546.8   4.1818e-17 
     8547.8   4.4351e-17 
     8548.8    4.328e-17 
     8549.8   4.2837e-17 
     8550.8   4.4619e-17 
     8551.8   4.1348e-17 
     8552.8   3.6195e-17 
     8553.8   4.3295e-17 
     8554.8   4.1794e-17 
     8555.8    3.566e-17 
     8556.8   3.6821e-17 
     8557.8   3.8503e-17 
     8558.8   4.0178e-17 
     8559.8   4.1671e-17 
     8560.8   4.2295e-17 
     8561.8   4.2806e-17 
     8562.8   4.0756e-17 
     8563.8   3.9272e-17 
     8564.8    3.854e-17 
     8565.8    4.009e-17 
     8566.8   4.1056e-17 
     8567.8   3.9633e-17 
     8568.8   3.9192e-17 
     8569.8   3.9005e-17 
     8570.8   3.5576e-17 
     8571.8    3.587e-17 
     8572.8   3.7889e-17 
     8573.8   4.2119e-17 
     8574.8   4.1346e-17 
     8575.8   3.9409e-17 
     8576.8   4.5065e-17 
     8577.8   4.6186e-17 
     8578.8   4.4827e-17 
     8579.8   4.3264e-17 
     8580.8   4.1258e-17 
     8581.8   3.8784e-17 
     8582.8   3.8423e-17 
     8583.8   4.0301e-17 
     8584.8   4.3805e-17 
     8585.8   4.3108e-17 
     8586.8   4.1232e-17 
     8587.8   3.6947e-17 
     8588.8    4.132e-17 
     8589.8   4.5475e-17 
     8590.8   4.7676e-17 
     8591.8   4.5383e-17 
     8592.8   4.2854e-17 
     8593.8   4.2556e-17 
     8594.8   4.0696e-17 
     8595.8    4.013e-17 
     8596.8   4.5878e-17 
     8597.8   4.6433e-17 
     8598.8   4.2832e-17 
     8599.8   3.7313e-17 
     8600.8   3.7279e-17 
     8601.8    3.946e-17 
     8602.8    3.978e-17 
     8603.8   3.9064e-17 
     8604.8   3.6865e-17 
     8605.8   3.2536e-17 
     8606.8   3.2971e-17 
     8607.8   4.0559e-17 
     8608.8    4.007e-17 
     8609.8   4.0252e-17 
     8610.8   4.2405e-17 
     8611.8   4.3872e-17 
     8612.8   4.5297e-17 
     8613.8   5.2347e-17 
     8614.8   4.8425e-17 
     8615.8   4.3745e-17 
     8616.8   4.2388e-17 
     8617.8   4.2975e-17 
     8618.8   4.3298e-17 
     8619.8   4.1017e-17 
     8620.8   4.0263e-17 
     8621.8   3.8065e-17 
     8622.8   3.0326e-17 
     8623.8   2.9606e-17 
     8624.8   3.2689e-17 
     8625.8   3.9113e-17 
     8626.8   4.3149e-17 
     8627.8   4.4936e-17 
     8628.8   4.0029e-17 
     8629.8   3.8124e-17 
     8630.8   3.9958e-17 
     8631.8   4.7966e-17 
     8632.8   4.9425e-17 
     8633.8   3.8021e-17 
     8634.8   3.7639e-17 
     8635.8    4.138e-17 
     8636.8   5.0506e-17 
     8637.8   4.7571e-17 
     8638.8   4.2821e-17 
     8639.8   4.0963e-17 
     8640.8   3.9445e-17 
     8641.8   3.8376e-17 
     8642.8   4.0033e-17 
     8643.8   4.0895e-17 
     8644.8   4.0987e-17 
     8645.8   3.9991e-17 
     8646.8   4.1505e-17 
     8647.8    4.696e-17 
     8648.8   5.1634e-17 
     8649.8   5.2285e-17 
     8650.8   5.0344e-17 
     8651.8   4.5661e-17 
     8652.8   4.2752e-17 
     8653.8   4.2937e-17 
     8654.8   4.1188e-17 
     8655.8   3.8955e-17 
     8656.8   3.9114e-17 
     8657.8   4.3586e-17 
     8658.8   4.5484e-17 
     8659.8   4.3466e-17 
     8660.8   4.0517e-17 
     8661.8   3.8938e-17 
     8662.8   4.0774e-17 
     8663.8   4.4556e-17 
     8664.8   4.6506e-17 
     8665.8   3.9958e-17 
     8666.8   3.9365e-17 
     8667.8   4.0355e-17 
     8668.8    4.504e-17 
     8669.8   4.5097e-17 
     8670.8   4.1835e-17 
     8671.8   4.1992e-17 
     8672.8   4.2405e-17 
     8673.8   4.2367e-17 
     8674.8   4.1817e-17 
     8675.8   4.0856e-17 
     8676.8   3.8021e-17 
     8677.8   3.6541e-17 
     8678.8   3.5788e-17 
     8679.8   3.5831e-17 
     8680.8   3.9032e-17 
     8681.8    4.362e-17 
     8682.8   4.6815e-17 
     8683.8   4.7165e-17 
     8684.8    4.803e-17 
     8685.8    5.466e-17 
     8686.8   4.8341e-17 
     8687.8   3.9623e-17 
     8688.8   4.1989e-17 
     8689.8   4.1803e-17 
     8690.8   4.0834e-17 
     8691.8   3.9512e-17 
     8692.8   4.0473e-17 
     8693.8   4.2807e-17 
     8694.8   4.0632e-17 
     8695.8    3.828e-17 
     8696.8   3.5272e-17 
     8697.8   3.9022e-17 
     8698.8     3.96e-17 
     8699.8   3.6007e-17 
     8700.8   3.5914e-17 
     8701.8    3.633e-17 
     8702.8   3.7012e-17 
     8703.8   3.8422e-17 
     8704.8   4.0186e-17 
     8705.8   4.2395e-17 
     8706.8   4.1165e-17 
     8707.8   3.9189e-17 
     8708.8    3.705e-17 
     8709.8   3.3019e-17 
     8710.8   3.1073e-17 
     8711.8   4.3504e-17 
     8712.8   4.5086e-17 
     8713.8   4.3986e-17 
     8714.8   3.9499e-17 
     8715.8   3.8484e-17 
     8716.8   4.0124e-17 
     8717.8   4.0433e-17 
     8718.8   4.2104e-17 
     8719.8   4.5673e-17 
     8720.8   4.3193e-17 
     8721.8   4.1121e-17 
     8722.8   3.8525e-17 
     8723.8   3.8183e-17 
     8724.8   3.8022e-17 
     8725.8   3.6268e-17 
     8726.8   3.7568e-17 
     8727.8   3.8171e-17 
     8728.8   3.4551e-17 
     8729.8   3.4471e-17 
     8730.8   3.4985e-17 
     8731.8    3.746e-17 
     8732.8   3.8108e-17 
     8733.8   3.8179e-17 
     8734.8   3.7607e-17 
     8735.8   3.8364e-17 
     8736.8   4.0111e-17 
     8737.8   4.6617e-17 
     8738.8    4.599e-17 
     8739.8   4.1467e-17 
     8740.8   3.7821e-17 
     8741.8   3.7658e-17 
     8742.8   3.9717e-17 
     8743.8   3.6225e-17 
     8744.8   3.5247e-17 
     8745.8   3.6871e-17 
     8746.8   3.7404e-17 
     8747.8   3.6909e-17 
     8748.8   3.4506e-17 
     8749.8   3.2856e-17 
     8750.8   3.2682e-17 
     8751.8   3.7607e-17 
     8752.8   4.5748e-17 
     8753.8   4.9394e-17 
     8754.8   3.9882e-17 
     8755.8   4.0323e-17 
     8756.8   4.1445e-17 
     8757.8   3.3566e-17 
     8758.8   3.3364e-17 
     8759.8   3.7113e-17 
     8760.8   5.0369e-17 
     8761.8   5.0329e-17 
     8762.8   4.4335e-17 
     8763.8   4.2933e-17 
     8764.8   3.8771e-17 
     8765.8   3.0285e-17 
     8766.8   2.7134e-17 
     8767.8   2.8527e-17 
     8768.8   3.5204e-17 
     8769.8   3.5855e-17 
     8770.8   3.7623e-17 
     8771.8   4.3347e-17 
     8772.8   4.3873e-17 
     8773.8   4.3427e-17 
     8774.8   3.9381e-17 
     8775.8   3.8763e-17 
     8776.8   4.0434e-17 
     8777.8   4.2224e-17 
     8778.8   4.1032e-17 
     8779.8   3.9557e-17 
     8780.8   3.2567e-17 
     8781.8   3.2105e-17 
     8782.8   3.2894e-17 
     8783.8   3.2021e-17 
     8784.8   3.3622e-17 
     8785.8   3.7051e-17 
     8786.8   3.9054e-17 
     8787.8   3.9403e-17 
     8788.8   4.0172e-17 
     8789.8     4.45e-17 
     8790.8   4.7268e-17 
     8791.8   4.8509e-17 
     8792.8   4.2649e-17 
     8793.8   3.5438e-17 
     8794.8   3.0002e-17 
     8795.8   2.8197e-17 
     8796.8   2.8654e-17 
     8797.8   3.6726e-17 
     8798.8   3.9561e-17 
     8799.8   4.0841e-17 
     8800.8   3.7976e-17 
     8801.8   3.9158e-17 
     8802.8   4.0163e-17 
     8803.8   3.8769e-17 
     8804.8   3.9308e-17 
     8805.8   4.0478e-17 
     8806.8    4.065e-17 
     8807.8   3.8235e-17 
     8808.8   3.4305e-17 
     8809.8   3.7945e-17 
     8810.8   3.9215e-17 
     8811.8   3.9698e-17 
     8812.8   4.0409e-17 
     8813.8    3.984e-17 
     8814.8   3.7685e-17 
     8815.8   3.0782e-17 
     8816.8   2.8199e-17 
     8817.8   2.9956e-17 
     8818.8   3.4537e-17 
     8819.8   3.7075e-17 
     8820.8   3.6814e-17 
     8821.8   4.0007e-17 
     8822.8   4.6962e-17 
     8823.8   5.6085e-17 
     8824.8   6.1327e-17 
     8825.8   6.4123e-17 
     8826.8   5.9643e-17 
     8827.8   4.1294e-17 
     8828.8   2.0895e-17 
     8829.8   2.4597e-17 
     8830.8   3.3704e-17 
     8831.8   4.3334e-17 
     8832.8   3.8025e-17 
     8833.8    3.679e-17 
     8834.8     3.85e-17 
     8835.8   4.0567e-17 
     8836.8   4.0033e-17 
     8837.8   3.4904e-17 
     8838.8   2.9298e-17 
     8839.8   2.6101e-17 
     8840.8   2.6713e-17 
     8841.8   2.9681e-17 
     8842.8   3.2497e-17 
     8843.8   3.5828e-17 
     8844.8   3.3347e-17 
     8845.8    3.143e-17 
     8846.8   3.5523e-17 
     8847.8   4.0754e-17 
     8848.8    4.349e-17 
     8849.8   3.7059e-17 
     8850.8   3.6088e-17 
     8851.8   3.5947e-17 
     8852.8   3.0842e-17 
     8853.8    2.773e-17 
     8854.8   2.7343e-17 
     8855.8   3.2846e-17 
     8856.8   3.6184e-17 
     8857.8   3.8187e-17 
     8858.8   3.8289e-17 
     8859.8   3.9136e-17 
     8860.8   4.1573e-17 
     8861.8   4.0128e-17 
     8862.8   3.8892e-17 
     8863.8   3.7304e-17 
     8864.8   3.8383e-17 
     8865.8   3.9145e-17 
     8866.8   4.1493e-17 
     8867.8   3.6222e-17 
     8868.8   2.7544e-17 
     8869.8   2.0603e-17 
     8870.8   2.7061e-17 
     8871.8    3.536e-17 
     8872.8   3.2878e-17 
     8873.8   3.2586e-17 
     8874.8   3.3237e-17 
     8875.8   3.7125e-17 
     8876.8   4.0287e-17 
     8877.8   4.3002e-17 
     8878.8   4.3708e-17 
     8879.8   4.4178e-17 
     8880.8   4.5627e-17 
     8881.8   5.7511e-17 
     8882.8   5.9029e-17 
     8883.8   4.7371e-17 
     8884.8    4.071e-17 
     8885.8   3.7895e-17 
     8886.8   3.7254e-17 
     8887.8   2.8785e-17 
     8888.8   2.2834e-17 
     8889.8   2.9007e-17 
     8890.8   2.8493e-17 
     8891.8   2.8283e-17 
     8892.8   3.4014e-17 
     8893.8   3.3656e-17 
     8894.8   3.1753e-17 
     8895.8   3.0707e-17 
     8896.8   2.6846e-17 
     8897.8   2.3244e-17 
     8898.8   3.3685e-17 
     8899.8   4.1219e-17 
     8900.8   4.5935e-17 
     8901.8   4.7224e-17 
     8902.8   4.4642e-17 
     8903.8   3.6157e-17 
     8904.8   3.2951e-17 
     8905.8   3.0091e-17 
     8906.8   2.7448e-17 
     8907.8   2.8629e-17 
     8908.8   2.9393e-17 
     8909.8   2.9853e-17 
     8910.8   3.3683e-17 
     8911.8   3.8533e-17 
     8912.8   4.4811e-17 
     8913.8   4.7472e-17 
     8914.8   4.8105e-17 
     8915.8    4.651e-17 
     8916.8   4.2877e-17 
     8917.8   3.8315e-17 
     8918.8   2.7169e-17 
     8919.8   2.7206e-17 
     8920.8   3.0323e-17 
     8921.8   3.4567e-17 
     8922.8   3.0734e-17 
     8923.8   2.2232e-17 
     8924.8   2.9215e-17 
     8925.8   3.1977e-17 
     8926.8   3.1082e-17 
     8927.8   3.1538e-17 
     8928.8   3.1943e-17 
     8929.8   3.1985e-17 
     8930.8   3.0215e-17 
     8931.8   2.8861e-17 
     8932.8   2.9361e-17 
     8933.8   3.2446e-17 
     8934.8   3.5698e-17 
     8935.8   4.0329e-17 
     8936.8   4.1912e-17 
     8937.8   4.3301e-17 
     8938.8   4.5054e-17 
     8939.8   3.9739e-17 
     8940.8   3.3531e-17 
     8941.8   3.1356e-17 
     8942.8   3.3412e-17 
     8943.8   3.7295e-17 
     8944.8   3.6287e-17 
     8945.8   3.1677e-17 
     8946.8   2.6904e-17 
     8947.8   3.0087e-17 
     8948.8   3.8646e-17 
     8949.8   5.1164e-17 
     8950.8   5.3646e-17 
     8951.8   5.2158e-17 
     8952.8   4.6576e-17 
     8953.8   4.6107e-17 
     8954.8   4.5598e-17 
     8955.8   4.2352e-17 
     8956.8   4.4026e-17 
     8957.8   4.5381e-17 
     8958.8   4.3665e-17 
     8959.8   3.5946e-17 
     8960.8   2.8798e-17 
     8961.8   2.6975e-17 
     8962.8   2.7409e-17 
     8963.8   2.8102e-17 
     8964.8   2.8625e-17 
     8965.8   3.0595e-17 
     8966.8   3.2544e-17 
     8967.8   3.2612e-17 
     8968.8   3.3883e-17 
     8969.8   3.6398e-17 
     8970.8   3.6891e-17 
     8971.8   3.4711e-17 
     8972.8    2.814e-17 
     8973.8   2.7128e-17 
     8974.8   2.9274e-17 
     8975.8   3.5449e-17 
     8976.8   3.7073e-17 
     8977.8   3.7058e-17 
     8978.8   3.3676e-17 
     8979.8    3.079e-17 
     8980.8   3.0012e-17 
     8981.8    3.605e-17 
     8982.8   4.1302e-17 
     8983.8   4.4061e-17 
     8984.8   4.1371e-17 
     8985.8   3.7456e-17 
     8986.8   3.5016e-17 
     8987.8   3.1725e-17 
     8988.8   3.0839e-17 
     8989.8    3.146e-17 
     8990.8   3.2027e-17 
     8991.8    3.436e-17 
     8992.8   3.7826e-17 
     8993.8   3.7181e-17 
     8994.8   3.5768e-17 
     8995.8   3.3758e-17 
     8996.8   3.7904e-17 
     8997.8   3.8495e-17 
     8998.8   3.4944e-17 
     8999.8   3.0925e-17 
     9000.8   2.8937e-17 
     9001.8   3.1284e-17 
     9002.8   3.0686e-17 
     9003.8    3.035e-17 
     9004.8   3.0039e-17 
     9005.8   2.9431e-17 
     9006.8    2.989e-17 
     9007.8   3.3491e-17 
     9008.8   3.6999e-17 
     9009.8   3.9252e-17 
     9010.8   3.4395e-17 
     9011.8   3.2028e-17 
     9012.8   3.0604e-17 
     9013.8   2.8925e-17 
     9014.8   3.0425e-17 
     9015.8   3.4283e-17 
     9016.8   3.4557e-17 
     9017.8     3.29e-17 
     9018.8    3.041e-17 
     9019.8   3.2825e-17 
     9020.8   3.4128e-17 
     9021.8   3.3127e-17 
     9022.8   3.1957e-17 
     9023.8   3.1301e-17 
     9024.8   3.1056e-17 
     9025.8   3.2553e-17 
     9026.8   3.4468e-17 
     9027.8   3.5392e-17 
     9028.8   3.7584e-17 
     9029.8   3.8603e-17 
     9030.8   3.6615e-17 
     9031.8   3.5733e-17 
     9032.8   3.6059e-17 
     9033.8   3.8926e-17 
     9034.8   3.5323e-17 
     9035.8   2.9693e-17 
     9036.8    3.079e-17 
     9037.8   3.2827e-17 
     9038.8   3.4793e-17 
     9039.8   3.3414e-17 
     9040.8   3.2894e-17 
     9041.8   3.3646e-17 
     9042.8   3.3651e-17 
     9043.8   3.5022e-17 
     9044.8   3.9985e-17 
     9045.8   4.2146e-17 
     9046.8   4.2529e-17 
     9047.8   3.8359e-17 
     9048.8   3.1186e-17 
     9049.8   2.7796e-17 
     9050.8   3.0046e-17 
     9051.8   3.6942e-17 
     9052.8   4.2228e-17 
     9053.8   4.0644e-17 
     9054.8   3.6375e-17 
     9055.8   3.0484e-17 
     9056.8   2.7022e-17 
     9057.8   2.7859e-17 
     9058.8   3.0364e-17 
     9059.8   3.1728e-17 
     9060.8   3.1608e-17 
     9061.8   3.0404e-17 
     9062.8   2.8863e-17 
     9063.8   2.8554e-17 
     9064.8   2.8797e-17 
     9065.8   2.9933e-17 
     9066.8   3.0374e-17 
     9067.8   3.1272e-17 
     9068.8   3.3231e-17 
     9069.8   3.4726e-17 
     9070.8   3.6695e-17 
     9071.8   3.3186e-17 
     9072.8   3.1216e-17 
     9073.8   3.3588e-17 
     9074.8   3.2253e-17 
     9075.8   2.9959e-17 
     9076.8   2.8875e-17 
     9077.8   2.9196e-17 
     9078.8   2.9405e-17 
     9079.8   2.8677e-17 
     9080.8   2.9415e-17 
     9081.8   3.1865e-17 
     9082.8   3.4568e-17 
     9083.8   3.4192e-17 
     9084.8   3.0773e-17 
     9085.8   2.7853e-17 
     9086.8   2.9101e-17 
     9087.8   3.3778e-17 
     9088.8   3.0185e-17 
     9089.8      2.9e-17 
     9090.8   3.0858e-17 
     9091.8   3.2859e-17 
     9092.8   3.3394e-17 
     9093.8   3.3049e-17 
     9094.8   3.1557e-17 
     9095.8   2.9412e-17 
     9096.8   2.7245e-17 
     9097.8   2.7861e-17 
     9098.8   3.1004e-17 
     9099.8     3.73e-17 
     9100.8   4.0577e-17 
     9101.8   4.1717e-17 
     9102.8    3.624e-17 
     9103.8   3.4271e-17 
     9104.8    3.353e-17 
     9105.8   3.2776e-17 
     9106.8   3.0313e-17 
     9107.8    2.722e-17 
     9108.8   2.6464e-17 
     9109.8   3.0089e-17 
     9110.8   3.6143e-17 
     9111.8   3.4699e-17 
     9112.8   3.2558e-17 
     9113.8   3.0449e-17 
     9114.8   3.2335e-17 
     9115.8   3.3067e-17 
     9116.8   3.1816e-17 
     9117.8   2.8985e-17 
     9118.8   2.8186e-17 
     9119.8   3.0142e-17 
     9120.8   3.3796e-17 
     9121.8   3.5735e-17 
     9122.8   3.1628e-17 
     9123.8   3.0126e-17 
     9124.8   2.9369e-17 
     9125.8   3.0272e-17 
     9126.8     3.15e-17 
     9127.8   3.2056e-17 
     9128.8   3.2027e-17 
     9129.8   3.1274e-17 
     9130.8   3.0687e-17 
     9131.8    3.056e-17 
     9132.8   2.9135e-17 
     9133.8   2.7506e-17 
     9134.8   2.7521e-17 
     9135.8   2.9547e-17 
     9136.8   3.1911e-17 
     9137.8   3.3096e-17 
     9138.8    3.427e-17 
     9139.8   3.5047e-17 
     9140.8   3.1563e-17 
     9141.8   2.8407e-17 
     9142.8   2.7466e-17 
     9143.8    3.003e-17 
     9144.8   3.1944e-17 
     9145.8   2.8787e-17 
     9146.8   2.5436e-17 
     9147.8   2.3695e-17 
     9148.8   2.8926e-17 
     9149.8   3.2038e-17 
     9150.8   3.3787e-17 
     9151.8   3.0798e-17 
     9152.8   3.0441e-17 
     9153.8    3.061e-17 
     9154.8    3.156e-17 
     9155.8   3.0812e-17 
     9156.8   2.9431e-17 
     9157.8   2.7464e-17 
     9158.8   2.8336e-17 
     9159.8   3.1137e-17 
     9160.8    3.281e-17 
     9161.8   3.1602e-17 
     9162.8    2.924e-17 
     9163.8   3.1081e-17 
     9164.8    3.304e-17 
     9165.8   3.3833e-17 
     9166.8   3.3284e-17 
     9167.8   3.2702e-17 
     9168.8   3.3066e-17 
     9169.8   3.2461e-17 
     9170.8   3.2033e-17 
     9171.8   3.0421e-17 
     9172.8   2.7407e-17 
     9173.8   2.5004e-17 
     9174.8   2.8653e-17 
     9175.8   3.0875e-17 
     9176.8   3.1958e-17 
     9177.8   3.0515e-17 
     9178.8   2.8971e-17 
     9179.8   2.8112e-17 
     9180.8   2.8523e-17 
     9181.8   2.9879e-17 
     9182.8   3.2397e-17 
     9183.8   3.1799e-17 
     9184.8   2.9508e-17 
     9185.8    2.578e-17 
     9186.8   2.6055e-17 
     9187.8   2.7904e-17 
     9188.8   2.9842e-17 
     9189.8   2.9968e-17 
     9190.8    2.927e-17 
     9191.8   2.6125e-17 
     9192.8   2.5709e-17 
     9193.8   2.5804e-17 
     9194.8   2.7687e-17 
     9195.8    2.661e-17 
     9196.8   2.4863e-17 
     9197.8   2.7947e-17 
     9198.8   2.8301e-17 
     9199.8   2.7797e-17 
