# STATUS =
# OBJECT = 2019ujb
# TELESCOPE = P200
# INSTRUMENT = SEDM
# DATE-OBS = 2020-01-01 00:00:00.000
# MJD = 58849.0
# EXPTIME =
# AIRMASS =
# SLIT =
# DISPERSER =
# SOURCE = DOI 10.3847/1538-4357/aca161
# FILTER =
# RESOLUTION =
# FLUX_STANDARD =
# EXTINCTION_CORRECTED =
# PHOTOMETRY_CALIBRATED =
# TELLURIC_CORRECTED =
# FLUX_UNITS =
# WAVE_UNITS =
# QUALITY =
# MIN_WAVE = 3400.0
# MAX_WAVE = 10000.2
# COMMENT =
 Wavelength         Flux 
   3401.525      4.5e-17 
    3403.05   3.1525e-17 
   3404.575   5.5303e-17 
     3406.1    9.261e-17 
   3407.625    5.608e-17 
    3409.15   4.2906e-17 
   3410.675   4.2395e-17 
     3412.2   5.2748e-17 
   3413.725    5.927e-17 
    3415.25   3.7208e-17 
   3416.775   5.2331e-17 
     3418.3   4.0008e-17 
   3419.825   6.4459e-17 
    3421.35   2.1143e-17 
   3422.875   9.2008e-18 
     3424.4    2.227e-17 
   3425.925    2.997e-17 
    3427.45   2.9599e-17 
   3428.975   3.5948e-17 
     3430.5   4.0224e-17 
   3432.025   6.5182e-17 
    3433.55   2.9923e-17 
   3435.075   4.6011e-17 
     3436.6   3.2936e-17 
   3438.125   3.8919e-17 
    3439.65   5.7104e-17 
   3441.175   6.1803e-17 
     3442.7    6.136e-17 
   3444.225   4.5689e-17 
    3445.75   3.6052e-17 
   3447.275   3.6167e-17 
     3448.8   5.3533e-17 
   3450.325   4.9367e-17 
    3451.85    6.845e-17 
   3453.375   4.8422e-17 
     3454.9   2.2344e-17 
   3456.425   4.2192e-17 
    3457.95   2.4539e-17 
   3459.475   3.8448e-17 
     3461.0    8.914e-17 
   3462.525   5.1711e-17 
    3464.05   4.7898e-17 
   3465.575   5.2465e-17 
     3467.1   2.5507e-17 
   3468.625   5.1489e-17 
    3470.15   3.8691e-17 
   3471.675   3.7626e-17 
     3473.2    5.908e-17 
   3474.725   5.5794e-17 
    3476.25   2.8728e-17 
   3477.775   2.3038e-17 
     3479.3   2.8959e-17 
   3480.825   3.4103e-17 
    3482.35     1.94e-17 
   3483.875   2.1212e-17 
     3485.4   4.0299e-17 
   3486.925    3.687e-17 
    3488.45   3.4477e-17 
   3489.975   4.3377e-17 
     3491.5   4.3834e-17 
   3493.025   3.4598e-17 
    3494.55   2.6344e-17 
   3496.075   3.0978e-17 
     3497.6   3.9157e-17 
   3499.125   4.5014e-17 
    3500.65   4.8417e-17 
   3502.175   3.0573e-17 
     3503.7   3.5023e-17 
   3505.225   4.4459e-17 
    3506.75   4.7444e-17 
   3508.275   3.0318e-17 
     3509.8   3.9704e-17 
   3511.325   3.9186e-17 
    3512.85   4.1333e-17 
   3514.375   3.6642e-17 
     3515.9   3.6039e-17 
   3517.425   4.2735e-17 
    3518.95   6.3557e-17 
   3520.475   2.7049e-17 
     3522.0   3.1733e-17 
   3523.525   3.8323e-17 
    3525.05   3.4647e-17 
   3526.575   3.1784e-17 
     3528.1   2.4233e-17 
   3529.625   3.7385e-17 
    3531.15    1.646e-17 
   3532.675   2.5044e-17 
     3534.2   1.6921e-17 
   3535.725   1.6995e-17 
    3537.25   2.2804e-17 
   3538.775    3.628e-17 
     3540.3   3.4842e-17 
   3541.825    4.427e-17 
    3543.35   1.9915e-17 
   3544.875   2.8409e-17 
     3546.4    3.093e-17 
   3547.925   4.2303e-17 
    3549.45   1.2246e-17 
   3550.975   1.5964e-17 
     3552.5   2.1113e-17 
   3554.025   2.7179e-17 
    3555.55   2.9021e-17 
   3557.075   2.1651e-17 
     3558.6   2.8388e-17 
   3560.125    2.599e-17 
    3561.65   3.5116e-17 
   3563.175   4.2476e-17 
     3564.7   2.0337e-17 
   3566.225   4.6406e-17 
    3567.75   4.3393e-17 
   3569.275   1.7485e-17 
     3570.8   2.8971e-17 
   3572.325    1.777e-17 
    3573.85   7.1826e-18 
   3575.375   1.7704e-17 
     3576.9   3.1392e-17 
   3578.425   4.0267e-17 
    3579.95   4.8228e-17 
   3581.475   3.7022e-17 
     3583.0   2.9405e-17 
   3584.525    3.099e-17 
    3586.05   4.2168e-17 
   3587.575   3.6929e-17 
     3589.1   2.3791e-17 
   3590.625   2.4993e-17 
    3592.15   3.0134e-17 
   3593.675   3.0678e-17 
     3595.2   2.1615e-17 
   3596.725   2.5746e-17 
    3598.25   3.4567e-17 
   3599.775   3.2866e-17 
     3601.3   3.8824e-17 
   3602.825   3.6769e-17 
    3604.35   3.1135e-17 
   3605.875   2.7177e-17 
     3607.4   3.3854e-17 
   3608.925   3.7963e-17 
    3610.45   2.5719e-17 
   3611.975   2.7753e-17 
     3613.5    1.982e-17 
   3615.025   2.5726e-17 
    3616.55   2.0959e-17 
   3618.075   2.1032e-17 
     3619.6    3.012e-17 
   3621.125   2.2207e-17 
    3622.65    2.937e-17 
   3624.175   2.8308e-17 
     3625.7   3.2584e-17 
   3627.225   4.0342e-17 
    3628.75   4.3348e-17 
   3630.275   3.8284e-17 
     3631.8   2.8084e-17 
   3633.325   1.0224e-17 
    3634.85   2.4996e-17 
   3636.375   2.2695e-17 
     3637.9   3.0056e-17 
   3639.425   3.4874e-17 
    3640.95   2.5967e-17 
   3642.475   3.6798e-17 
     3644.0   4.4418e-17 
   3645.525   3.8175e-17 
    3647.05    3.524e-17 
   3648.575   3.3554e-17 
     3650.1    2.903e-17 
   3651.625   3.5155e-17 
    3653.15   2.4287e-17 
   3654.675   1.5043e-17 
     3656.2   2.1688e-17 
   3657.725   2.4074e-17 
    3659.25   3.4841e-17 
   3660.775   2.3154e-17 
     3662.3   3.1953e-17 
   3663.825   4.4132e-17 
    3665.35    3.549e-17 
   3666.875   3.5285e-17 
     3668.4   4.6757e-17 
   3669.925    5.122e-17 
    3671.45   5.3946e-17 
   3672.975   5.0285e-17 
     3674.5   2.9402e-17 
   3676.025   3.8826e-17 
    3677.55   3.4844e-17 
   3679.075   2.6799e-17 
     3680.6   3.8466e-17 
   3682.125   3.0622e-17 
    3683.65   2.1301e-17 
   3685.175   3.8939e-17 
     3686.7   4.2365e-17 
   3688.225   3.4596e-17 
    3689.75   4.0433e-17 
   3691.275   4.0515e-17 
     3692.8   3.6805e-17 
   3694.325   3.9914e-17 
    3695.85   4.0532e-17 
   3697.375   3.4367e-17 
     3698.9   4.0961e-17 
   3700.425   3.0713e-17 
    3701.95   3.6676e-17 
   3703.475   4.5134e-17 
     3705.0   4.3441e-17 
   3706.525   3.7235e-17 
    3708.05   4.0612e-17 
   3709.575   3.7942e-17 
     3711.1   3.9934e-17 
   3712.625   5.2058e-17 
    3714.15   4.4686e-17 
   3715.675   3.1964e-17 
     3717.2   2.8969e-17 
   3718.725   2.4145e-17 
    3720.25   3.9918e-17 
   3721.775   4.1757e-17 
     3723.3    4.469e-17 
   3724.825   3.7879e-17 
    3726.35    3.685e-17 
   3727.875   3.6438e-17 
     3729.4   3.6292e-17 
   3730.925   3.2294e-17 
    3732.45   3.3299e-17 
   3733.975   4.3897e-17 
     3735.5   5.4247e-17 
   3737.025   4.6032e-17 
    3738.55   2.6991e-17 
   3740.075   3.1755e-17 
     3741.6   2.9542e-17 
   3743.125   4.0262e-17 
    3744.65   3.9301e-17 
   3746.175   3.3739e-17 
     3747.7   3.6975e-17 
   3749.225   3.5837e-17 
    3750.75   4.2324e-17 
   3752.275   4.1135e-17 
     3753.8   2.8589e-17 
   3755.325   2.8569e-17 
    3756.85   4.5443e-17 
   3758.375   3.7315e-17 
     3759.9   2.9526e-17 
   3761.425   3.4697e-17 
    3762.95   3.4962e-17 
   3764.475   3.6583e-17 
     3766.0   3.0119e-17 
   3767.525   3.5179e-17 
    3769.05   2.9319e-17 
   3770.575   2.4748e-17 
     3772.1   2.3152e-17 
   3773.625   2.0925e-17 
    3775.15   2.8225e-17 
   3776.675    3.096e-17 
     3778.2   3.2463e-17 
   3779.725   4.4945e-17 
    3781.25   4.1769e-17 
   3782.775   2.9833e-17 
     3784.3   2.7797e-17 
   3785.825    2.111e-17 
    3787.35   3.8014e-17 
   3788.875   2.9939e-17 
     3790.4    2.615e-17 
   3791.925   3.7471e-17 
    3793.45   4.1903e-17 
   3794.975   3.7677e-17 
     3796.5   3.0263e-17 
   3798.025   4.3126e-17 
    3799.55   3.9823e-17 
   3801.075   3.3461e-17 
     3802.6   2.9302e-17 
   3804.125   3.6441e-17 
    3805.65   3.9952e-17 
   3807.175   3.7454e-17 
     3808.7   2.8773e-17 
   3810.225   3.1805e-17 
    3811.75   4.1582e-17 
   3813.275   3.2402e-17 
     3814.8   2.9809e-17 
   3816.325   3.0378e-17 
    3817.85   3.5128e-17 
   3819.375   4.2961e-17 
     3820.9   3.6296e-17 
   3822.425    2.592e-17 
    3823.95   3.3909e-17 
   3825.475   3.5074e-17 
     3827.0   2.7382e-17 
   3828.525   3.4228e-17 
    3830.05   4.3206e-17 
   3831.575   3.2208e-17 
     3833.1   3.6044e-17 
   3834.625   4.0747e-17 
    3836.15   3.7677e-17 
   3837.675   3.4868e-17 
     3839.2   3.3581e-17 
   3840.725   3.3267e-17 
    3842.25   4.1692e-17 
   3843.775   3.4454e-17 
     3845.3   2.2928e-17 
   3846.825   1.8914e-17 
    3848.35   1.9607e-17 
   3849.875   3.7864e-17 
     3851.4   3.3794e-17 
   3852.925    3.346e-17 
    3854.45   3.3826e-17 
   3855.975   3.5232e-17 
     3857.5   3.4473e-17 
   3859.025   3.1985e-17 
    3860.55   4.2149e-17 
   3862.075   3.9709e-17 
     3863.6   4.3504e-17 
   3865.125   3.0335e-17 
    3866.65   3.0784e-17 
   3868.175   4.1991e-17 
     3869.7   3.4124e-17 
   3871.225   2.8283e-17 
    3872.75   3.3021e-17 
   3874.275    3.981e-17 
     3875.8   3.8866e-17 
   3877.325   2.7076e-17 
    3878.85   3.1222e-17 
   3880.375   2.6524e-17 
     3881.9   3.0285e-17 
   3883.425   2.5962e-17 
    3884.95    3.318e-17 
   3886.475   3.9451e-17 
     3888.0   4.1688e-17 
   3889.525   3.8322e-17 
    3891.05   3.3567e-17 
   3892.575   3.0567e-17 
     3894.1     3.18e-17 
   3895.625   2.7447e-17 
    3897.15   2.7789e-17 
   3898.675   3.2524e-17 
     3900.2    3.883e-17 
   3901.725   3.6748e-17 
    3903.25   3.5697e-17 
   3904.775    3.372e-17 
     3906.3   3.1831e-17 
   3907.825   3.7566e-17 
    3909.35   3.9713e-17 
   3910.875   3.9663e-17 
     3912.4   4.3555e-17 
   3913.925   3.3058e-17 
    3915.45   2.6767e-17 
   3916.975   3.4844e-17 
     3918.5   3.5512e-17 
   3920.025   3.8097e-17 
    3921.55   4.1819e-17 
   3923.075   3.6716e-17 
     3924.6   3.6862e-17 
   3926.125   3.6879e-17 
    3927.65   3.2309e-17 
   3929.175   3.3025e-17 
     3930.7     3.05e-17 
   3932.225   3.0377e-17 
    3933.75     3.77e-17 
   3935.275   3.8655e-17 
     3936.8   3.0476e-17 
   3938.325   3.3105e-17 
    3939.85   3.5029e-17 
   3941.375   4.0392e-17 
     3942.9   3.9053e-17 
   3944.425   3.6333e-17 
    3945.95   3.0759e-17 
   3947.475    1.871e-17 
     3949.0   3.6007e-17 
   3950.525   4.6584e-17 
    3952.05   3.1967e-17 
   3953.575   3.5273e-17 
     3955.1   2.9975e-17 
   3956.625   3.3493e-17 
    3958.15   3.9263e-17 
   3959.675   3.5353e-17 
     3961.2   3.0224e-17 
   3962.725   3.0889e-17 
    3964.25    3.131e-17 
   3965.775   2.9698e-17 
     3967.3   2.6755e-17 
   3968.825   3.2011e-17 
    3970.35   2.6912e-17 
   3971.875   3.6215e-17 
     3973.4   3.1461e-17 
   3974.925    4.164e-17 
    3976.45   3.5146e-17 
   3977.975   3.1584e-17 
     3979.5   3.8551e-17 
   3981.025   3.3782e-17 
    3982.55   3.4544e-17 
   3984.075   3.4016e-17 
     3985.6   3.6141e-17 
   3987.125   3.7845e-17 
    3988.65   2.3854e-17 
   3990.175   2.9155e-17 
     3991.7   3.6302e-17 
   3993.225   3.8573e-17 
    3994.75   4.2467e-17 
   3996.275   3.1936e-17 
     3997.8   2.6371e-17 
   3999.325   3.8157e-17 
    4000.85   4.0644e-17 
   4002.375    3.984e-17 
     4003.9   3.9645e-17 
   4005.425   3.7266e-17 
    4006.95   3.4949e-17 
   4008.475   3.6201e-17 
     4010.0   4.6914e-17 
   4011.525   5.0217e-17 
    4013.05   4.2752e-17 
   4014.575   3.5334e-17 
     4016.1   3.6224e-17 
   4017.625   4.4036e-17 
    4019.15   2.9826e-17 
   4020.675   3.6163e-17 
     4022.2   4.2151e-17 
   4023.725   3.4801e-17 
    4025.25   3.3903e-17 
   4026.775   3.9612e-17 
     4028.3   3.5228e-17 
   4029.825   3.5086e-17 
    4031.35   3.8461e-17 
   4032.875   3.9182e-17 
     4034.4   4.7216e-17 
   4035.925     4.88e-17 
    4037.45   4.9133e-17 
   4038.975   4.7579e-17 
     4040.5   4.1291e-17 
   4042.025   3.9795e-17 
    4043.55   4.2185e-17 
   4045.075   3.9754e-17 
     4046.6   4.3616e-17 
   4048.125   2.9742e-17 
    4049.65    4.186e-17 
   4051.175   4.8213e-17 
     4052.7   3.8618e-17 
   4054.225   4.2795e-17 
    4055.75   4.3947e-17 
   4057.275   4.2613e-17 
     4058.8   4.7443e-17 
   4060.325   3.9005e-17 
    4061.85   4.4176e-17 
   4063.375    4.671e-17 
     4064.9   4.7316e-17 
   4066.425   3.7067e-17 
    4067.95   4.1227e-17 
   4069.475   4.1816e-17 
     4071.0   3.6504e-17 
   4072.525   4.3255e-17 
    4074.05   3.7885e-17 
   4075.575   4.5871e-17 
     4077.1   5.0482e-17 
   4078.625   3.8533e-17 
    4080.15   3.6113e-17 
   4081.675   4.2514e-17 
     4083.2   4.6451e-17 
   4084.725   4.3347e-17 
    4086.25   4.4482e-17 
   4087.775   4.9053e-17 
     4089.3   4.0281e-17 
   4090.825    3.801e-17 
    4092.35   4.0395e-17 
   4093.875   3.2692e-17 
     4095.4   3.6579e-17 
   4096.925   4.6379e-17 
    4098.45   4.9473e-17 
   4099.975    4.739e-17 
     4101.5   5.2738e-17 
   4103.025    5.297e-17 
    4104.55   4.0308e-17 
   4106.075   4.3029e-17 
     4107.6   5.1923e-17 
   4109.125   4.7094e-17 
    4110.65   4.1531e-17 
   4112.175    4.279e-17 
     4113.7   4.5672e-17 
   4115.225   4.7862e-17 
    4116.75   4.9473e-17 
   4118.275   4.4574e-17 
     4119.8   5.0238e-17 
   4121.325   5.4427e-17 
    4122.85   4.7704e-17 
   4124.375   4.7428e-17 
     4125.9   5.1491e-17 
   4127.425   4.7789e-17 
    4128.95   4.8972e-17 
   4130.475    4.668e-17 
     4132.0   4.8279e-17 
   4133.525   4.8449e-17 
    4135.05   5.2558e-17 
   4136.575   4.7144e-17 
     4138.1   4.4419e-17 
   4139.625   4.6594e-17 
    4141.15   4.9825e-17 
   4142.675   4.7455e-17 
     4144.2    5.118e-17 
   4145.725   5.6342e-17 
    4147.25   5.1904e-17 
   4148.775   5.3262e-17 
     4150.3    5.416e-17 
   4151.825   5.0407e-17 
    4153.35    5.036e-17 
   4154.875   6.1652e-17 
     4156.4   5.6897e-17 
   4157.925    4.452e-17 
    4159.45   4.8843e-17 
   4160.975   4.9373e-17 
     4162.5    4.293e-17 
   4164.025   4.9813e-17 
    4165.55   5.2832e-17 
   4167.075   5.0121e-17 
     4168.6   5.0196e-17 
   4170.125   4.4782e-17 
    4171.65   5.0116e-17 
   4173.175   4.3969e-17 
     4174.7    4.655e-17 
   4176.225   5.5256e-17 
    4177.75   5.1156e-17 
   4179.275   4.9303e-17 
     4180.8   4.7482e-17 
   4182.325   5.4537e-17 
    4183.85   5.9138e-17 
   4185.375   6.1737e-17 
     4186.9   5.2829e-17 
   4188.425   5.4493e-17 
    4189.95   5.4395e-17 
   4191.475   4.3911e-17 
     4193.0   5.1884e-17 
   4194.525   5.5274e-17 
    4196.05   4.3086e-17 
   4197.575   5.1846e-17 
     4199.1    4.478e-17 
   4200.625   4.1865e-17 
    4202.15   4.5318e-17 
   4203.675   5.0512e-17 
     4205.2   5.4049e-17 
   4206.725   5.8022e-17 
    4208.25   4.9908e-17 
   4209.775   5.1647e-17 
     4211.3   4.1715e-17 
   4212.825   4.4859e-17 
    4214.35   4.7182e-17 
   4215.875   4.7698e-17 
     4217.4   6.0167e-17 
   4218.925    5.502e-17 
    4220.45   3.9963e-17 
   4221.975   4.1138e-17 
     4223.5   5.1093e-17 
   4225.025   4.8404e-17 
    4226.55   4.8324e-17 
   4228.075   5.2548e-17 
     4229.6   4.5176e-17 
   4231.125   4.4542e-17 
    4232.65   5.0161e-17 
   4234.175   4.3206e-17 
     4235.7   4.5215e-17 
   4237.225   5.2497e-17 
    4238.75   4.2948e-17 
   4240.275   4.6961e-17 
     4241.8   5.4821e-17 
   4243.325   4.6454e-17 
    4244.85   4.3603e-17 
   4246.375   6.1903e-17 
     4247.9   6.0154e-17 
   4249.425    5.007e-17 
    4250.95   5.5986e-17 
   4252.475   5.6637e-17 
     4254.0   4.7046e-17 
   4255.525   4.3745e-17 
    4257.05   4.8409e-17 
   4258.575   5.5308e-17 
     4260.1   4.8618e-17 
   4261.625   5.8508e-17 
    4263.15   5.7613e-17 
   4264.675   5.2954e-17 
     4266.2   6.5758e-17 
   4267.725   5.9278e-17 
    4269.25   5.3521e-17 
   4270.775   5.8196e-17 
     4272.3   6.3327e-17 
   4273.825   5.9344e-17 
    4275.35   5.9567e-17 
   4276.875   6.3033e-17 
     4278.4   6.2836e-17 
   4279.925   6.4362e-17 
    4281.45   5.7917e-17 
   4282.975   6.2789e-17 
     4284.5   5.9995e-17 
   4286.025   6.3336e-17 
    4287.55   6.3063e-17 
   4289.075   7.3007e-17 
     4290.6    6.647e-17 
   4292.125   6.2022e-17 
    4293.65   6.1323e-17 
   4295.175    6.057e-17 
     4296.7   6.3633e-17 
   4298.225    6.551e-17 
    4299.75   5.8971e-17 
   4301.275    6.083e-17 
     4302.8   7.0221e-17 
   4304.325   6.6472e-17 
    4305.85   6.1121e-17 
   4307.375   6.2597e-17 
     4308.9   6.6877e-17 
   4310.425    6.645e-17 
    4311.95   7.3855e-17 
   4313.475   8.0162e-17 
     4315.0   7.0719e-17 
   4316.525   6.3294e-17 
    4318.05    6.133e-17 
   4319.575   5.5186e-17 
     4321.1   6.0851e-17 
   4322.625   6.8864e-17 
    4324.15   7.6679e-17 
   4325.675   6.5459e-17 
     4327.2   6.0202e-17 
   4328.725   6.8839e-17 
    4330.25   6.2306e-17 
   4331.775   6.7225e-17 
     4333.3    6.683e-17 
   4334.825   6.8468e-17 
    4336.35   6.7836e-17 
   4337.875   7.5688e-17 
     4339.4   6.8195e-17 
   4340.925   6.0879e-17 
    4342.45   7.0855e-17 
   4343.975    6.369e-17 
     4345.5   6.0028e-17 
   4347.025   5.2808e-17 
    4348.55   5.6022e-17 
   4350.075   6.6302e-17 
     4351.6   6.1818e-17 
   4353.125   6.6074e-17 
    4354.65   6.0576e-17 
   4356.175   5.9131e-17 
     4357.7   6.5154e-17 
   4359.225   5.5827e-17 
    4360.75   5.3804e-17 
   4362.275   6.0914e-17 
     4363.8   5.1221e-17 
   4365.325   5.1254e-17 
    4366.85   5.7407e-17 
   4368.375   5.6039e-17 
     4369.9   5.2314e-17 
   4371.425   6.4582e-17 
    4372.95   4.9412e-17 
   4374.475   4.5388e-17 
     4376.0   5.7977e-17 
   4377.525   5.5393e-17 
    4379.05   5.2299e-17 
   4380.575   5.5742e-17 
     4382.1    5.371e-17 
   4383.625   4.4471e-17 
    4385.15   5.1269e-17 
   4386.675   5.1772e-17 
     4388.2    5.672e-17 
   4389.725   4.2084e-17 
    4391.25   4.2869e-17 
   4392.775   5.4408e-17 
     4394.3   5.6061e-17 
   4395.825   5.0231e-17 
    4397.35    4.296e-17 
   4398.875    5.323e-17 
     4400.4   4.6171e-17 
   4401.925   4.8215e-17 
    4403.45   4.7085e-17 
   4404.975   4.8469e-17 
     4406.5   4.6341e-17 
   4408.025   5.1104e-17 
    4409.55   4.9444e-17 
   4411.075   4.5982e-17 
     4412.6   4.8419e-17 
   4414.125   4.8673e-17 
    4415.65   4.7695e-17 
   4417.175   4.8531e-17 
     4418.7   4.5369e-17 
   4420.225   4.7041e-17 
    4421.75   4.8673e-17 
   4423.275   4.8853e-17 
     4424.8   5.1448e-17 
   4426.325   5.4557e-17 
    4427.85   5.1257e-17 
   4429.375   4.8512e-17 
     4430.9   4.1568e-17 
   4432.425   3.6539e-17 
    4433.95   3.8617e-17 
   4435.475    4.043e-17 
     4437.0   4.6778e-17 
   4438.525    4.676e-17 
    4440.05   5.3742e-17 
   4441.575   4.2617e-17 
     4443.1   4.0685e-17 
   4444.625   3.9438e-17 
    4446.15   3.9604e-17 
   4447.675   4.5272e-17 
     4449.2   4.1874e-17 
   4450.725   3.7024e-17 
    4452.25   4.1758e-17 
   4453.775   4.5598e-17 
     4455.3   4.6125e-17 
   4456.825   4.9083e-17 
    4458.35   5.0645e-17 
   4459.875   5.3075e-17 
     4461.4   4.1983e-17 
   4462.925   4.3055e-17 
    4464.45   4.5714e-17 
   4465.975   4.1802e-17 
     4467.5   3.3728e-17 
   4469.025   4.3742e-17 
    4470.55   4.3942e-17 
   4472.075   3.3697e-17 
     4473.6   4.8934e-17 
   4475.125   4.5504e-17 
    4476.65   4.3928e-17 
   4478.175   4.2939e-17 
     4479.7   5.8443e-17 
   4481.225   5.0662e-17 
    4482.75   4.4227e-17 
   4484.275   5.1303e-17 
     4485.8   5.3421e-17 
   4487.325   5.2169e-17 
    4488.85   4.3491e-17 
   4490.375   4.2937e-17 
     4491.9   4.7426e-17 
   4493.425   4.5959e-17 
    4494.95   5.0563e-17 
   4496.475   4.8703e-17 
     4498.0   4.0982e-17 
   4499.525   5.4722e-17 
    4501.05   4.4457e-17 
   4502.575   3.5737e-17 
     4504.1   4.1483e-17 
   4505.625   4.8981e-17 
    4507.15   4.0939e-17 
   4508.675   4.5736e-17 
     4510.2   4.1788e-17 
   4511.725   4.9107e-17 
    4513.25   6.1804e-17 
   4514.775   5.8303e-17 
     4516.3   4.9447e-17 
   4517.825   5.8692e-17 
    4519.35   5.0095e-17 
   4520.875   5.9435e-17 
     4522.4    6.089e-17 
   4523.925   4.6005e-17 
    4525.45   4.5244e-17 
   4526.975   6.0164e-17 
     4528.5   7.1173e-17 
   4530.025   5.5778e-17 
    4531.55   5.4405e-17 
   4533.075   6.1598e-17 
     4534.6   5.7262e-17 
   4536.125   6.2215e-17 
    4537.65   6.0862e-17 
   4539.175   7.1792e-17 
     4540.7   5.8614e-17 
   4542.225   6.2398e-17 
    4543.75   6.9347e-17 
   4545.275   6.0955e-17 
     4546.8   6.6756e-17 
   4548.325   6.2494e-17 
    4549.85   4.9864e-17 
   4551.375   5.9061e-17 
     4552.9   6.6602e-17 
   4554.425   6.4919e-17 
    4555.95   6.1403e-17 
   4557.475   5.9647e-17 
     4559.0   6.0956e-17 
   4560.525   6.3152e-17 
    4562.05   5.7091e-17 
   4563.575   6.6802e-17 
     4565.1   6.4556e-17 
   4566.625    6.452e-17 
    4568.15   5.0929e-17 
   4569.675   5.7153e-17 
     4571.2   6.0957e-17 
   4572.725   6.2071e-17 
    4574.25    6.053e-17 
   4575.775   5.9672e-17 
     4577.3   7.2102e-17 
   4578.825   6.9416e-17 
    4580.35   6.9107e-17 
   4581.875   6.5511e-17 
     4583.4   6.5773e-17 
   4584.925   7.5632e-17 
    4586.45    7.133e-17 
   4587.975   6.7816e-17 
     4589.5   6.7843e-17 
   4591.025   6.0756e-17 
    4592.55   7.2843e-17 
   4594.075    7.383e-17 
     4595.6   7.4213e-17 
   4597.125   6.1791e-17 
    4598.65    6.406e-17 
   4600.175   6.1023e-17 
     4601.7   6.5082e-17 
   4603.225   7.2698e-17 
    4604.75   6.2619e-17 
   4606.275   6.1589e-17 
     4607.8   6.5046e-17 
   4609.325   6.2754e-17 
    4610.85   5.5529e-17 
   4612.375   6.8062e-17 
     4613.9   7.2925e-17 
   4615.425    6.639e-17 
    4616.95   7.6134e-17 
   4618.475   6.8582e-17 
     4620.0   7.2125e-17 
   4621.525   7.0828e-17 
    4623.05   6.3396e-17 
   4624.575   7.5102e-17 
     4626.1   7.9043e-17 
   4627.625   7.6364e-17 
    4629.15     7.23e-17 
   4630.675   7.2526e-17 
     4632.2   6.3814e-17 
   4633.725    7.059e-17 
    4635.25   7.5137e-17 
   4636.775   6.4933e-17 
     4638.3   6.6568e-17 
   4639.825    7.437e-17 
    4641.35   8.3353e-17 
   4642.875   7.7962e-17 
     4644.4   7.8757e-17 
   4645.925   6.8665e-17 
    4647.45   7.1656e-17 
   4648.975   7.2338e-17 
     4650.5   7.1176e-17 
   4652.025   6.6488e-17 
    4653.55   6.4036e-17 
   4655.075   6.6272e-17 
     4656.6   7.7262e-17 
   4658.125   6.9042e-17 
    4659.65   7.1138e-17 
   4661.175   7.7159e-17 
     4662.7   6.7582e-17 
   4664.225   6.4814e-17 
    4665.75   7.1603e-17 
   4667.275   7.4797e-17 
     4668.8   6.4018e-17 
   4670.325   7.2525e-17 
    4671.85   7.5889e-17 
   4673.375   7.0109e-17 
     4674.9   5.7646e-17 
   4676.425   6.2123e-17 
    4677.95   7.4623e-17 
   4679.475   6.8241e-17 
     4681.0   7.5584e-17 
   4682.525   5.6506e-17 
    4684.05   6.2401e-17 
   4685.575    6.433e-17 
     4687.1    5.862e-17 
   4688.625   6.0672e-17 
    4690.15   5.9887e-17 
   4691.675   6.4607e-17 
     4693.2   6.2108e-17 
   4694.725   6.3591e-17 
    4696.25    6.157e-17 
   4697.775   5.3151e-17 
     4699.3   5.4052e-17 
   4700.825   6.2098e-17 
    4702.35   6.1008e-17 
   4703.875   6.8062e-17 
     4705.4   6.9227e-17 
   4706.925   6.7963e-17 
    4708.45   6.4487e-17 
   4709.975   6.6703e-17 
     4711.5   5.7978e-17 
   4713.025   6.2692e-17 
    4714.55   7.1679e-17 
   4716.075   6.7671e-17 
     4717.6   6.8872e-17 
   4719.125   7.4991e-17 
    4720.65   6.4381e-17 
   4722.175   6.3683e-17 
     4723.7    5.636e-17 
   4725.225   6.5061e-17 
    4726.75   6.5447e-17 
   4728.275   6.4738e-17 
     4729.8   7.3576e-17 
   4731.325   6.3112e-17 
    4732.85    5.477e-17 
   4734.375   6.7703e-17 
     4735.9   7.2856e-17 
   4737.425   7.5088e-17 
    4738.95   6.6372e-17 
   4740.475     7.04e-17 
     4742.0   7.5921e-17 
   4743.525   7.6974e-17 
    4745.05   8.0465e-17 
   4746.575   7.2609e-17 
     4748.1   6.1314e-17 
   4749.625   6.2398e-17 
    4751.15   7.1161e-17 
   4752.675   7.1259e-17 
     4754.2   6.6203e-17 
   4755.725   7.0732e-17 
    4757.25    6.391e-17 
   4758.775   7.0441e-17 
     4760.3   7.4467e-17 
   4761.825   7.3246e-17 
    4763.35   7.4984e-17 
   4764.875   7.1494e-17 
     4766.4   6.2649e-17 
   4767.925   6.9606e-17 
    4769.45   6.4289e-17 
   4770.975   6.6223e-17 
     4772.5   6.8764e-17 
   4774.025   6.4831e-17 
    4775.55   6.7703e-17 
   4777.075   6.2989e-17 
     4778.6   6.2578e-17 
   4780.125   6.8665e-17 
    4781.65   6.8561e-17 
   4783.175   6.0446e-17 
     4784.7   6.4125e-17 
   4786.225    6.017e-17 
    4787.75   5.2929e-17 
   4789.275   4.9435e-17 
     4790.8   5.9575e-17 
   4792.325    5.903e-17 
    4793.85   6.4408e-17 
   4795.375   6.7229e-17 
     4796.9   5.4637e-17 
   4798.425   5.5647e-17 
    4799.95   6.4028e-17 
   4801.475   6.4529e-17 
     4803.0   5.8897e-17 
   4804.525   6.6214e-17 
    4806.05   6.4182e-17 
   4807.575   5.8012e-17 
     4809.1    6.056e-17 
   4810.625    5.697e-17 
    4812.15   6.0804e-17 
   4813.675    5.627e-17 
     4815.2   5.6221e-17 
   4816.725   6.0872e-17 
    4818.25   5.4444e-17 
   4819.775   5.7262e-17 
     4821.3   5.3001e-17 
   4822.825    5.844e-17 
    4824.35    5.897e-17 
   4825.875   5.4395e-17 
     4827.4    5.446e-17 
   4828.925   5.0682e-17 
    4830.45   5.1013e-17 
   4831.975   5.2727e-17 
     4833.5   5.2724e-17 
   4835.025   5.4422e-17 
    4836.55   5.4072e-17 
   4838.075   5.3529e-17 
     4839.6   5.0812e-17 
   4841.125   5.4091e-17 
    4842.65    5.411e-17 
   4844.175   5.3904e-17 
     4845.7   5.5944e-17 
   4847.225   5.2485e-17 
    4848.75   5.7882e-17 
   4850.275   5.8713e-17 
     4851.8   5.5759e-17 
   4853.325   6.0524e-17 
    4854.85   6.5778e-17 
   4856.375   6.1064e-17 
     4857.9   5.5631e-17 
   4859.425   6.0919e-17 
    4860.95   6.0278e-17 
   4862.475   6.3192e-17 
     4864.0   5.5656e-17 
   4865.525   5.8152e-17 
    4867.05   5.6932e-17 
   4868.575   5.8508e-17 
     4870.1   6.3256e-17 
   4871.625   5.7713e-17 
    4873.15   5.4363e-17 
   4874.675   4.7436e-17 
     4876.2   5.6637e-17 
   4877.725   5.4577e-17 
    4879.25   5.5787e-17 
   4880.775   5.0094e-17 
     4882.3   5.3298e-17 
   4883.825   5.7446e-17 
    4885.35   5.9045e-17 
   4886.875   5.8996e-17 
     4888.4   5.1145e-17 
   4889.925   5.2966e-17 
    4891.45   5.9498e-17 
   4892.975   5.5911e-17 
     4894.5    6.126e-17 
   4896.025   6.1761e-17 
    4897.55   5.9524e-17 
   4899.075   6.0497e-17 
     4900.6   5.9065e-17 
   4902.125   5.6517e-17 
    4903.65   6.4916e-17 
   4905.175   5.7802e-17 
     4906.7    5.614e-17 
   4908.225    6.421e-17 
    4909.75   7.0266e-17 
   4911.275   6.0202e-17 
     4912.8   6.3391e-17 
   4914.325   5.8232e-17 
    4915.85   5.7739e-17 
   4917.375   5.0558e-17 
     4918.9   4.9084e-17 
   4920.425   4.8894e-17 
    4921.95   5.1454e-17 
   4923.475   6.1408e-17 
     4925.0   5.3544e-17 
   4926.525   5.3125e-17 
    4928.05   5.8381e-17 
   4929.575   5.8627e-17 
     4931.1   5.8134e-17 
   4932.625   4.4331e-17 
    4934.15   5.2629e-17 
   4935.675   6.1333e-17 
     4937.2   5.9164e-17 
   4938.725    6.213e-17 
    4940.25   6.2895e-17 
   4941.775   5.5599e-17 
     4943.3   5.3133e-17 
   4944.825   5.5698e-17 
    4946.35   5.4076e-17 
   4947.875   5.3968e-17 
     4949.4   5.4714e-17 
   4950.925     4.95e-17 
    4952.45   5.2151e-17 
   4953.975    5.149e-17 
     4955.5    5.875e-17 
   4957.025   6.5159e-17 
    4958.55    5.693e-17 
   4960.075   4.9053e-17 
     4961.6    4.804e-17 
   4963.125    5.159e-17 
    4964.65   5.0084e-17 
   4966.175   5.5351e-17 
     4967.7   5.2599e-17 
   4969.225   4.6392e-17 
    4970.75    4.817e-17 
   4972.275   4.9061e-17 
     4973.8   5.4481e-17 
   4975.325   5.0702e-17 
    4976.85   5.6163e-17 
   4978.375    6.011e-17 
     4979.9   6.5541e-17 
   4981.425   4.7648e-17 
    4982.95   5.1183e-17 
   4984.475   5.8356e-17 
     4986.0      6.6e-17 
   4987.525   6.5079e-17 
    4989.05   5.9514e-17 
   4990.575   6.2339e-17 
     4992.1   5.3568e-17 
   4993.625   5.0237e-17 
    4995.15   5.2274e-17 
   4996.675   5.1845e-17 
     4998.2   5.3087e-17 
   4999.725    5.521e-17 
    5001.25   5.2192e-17 
   5002.775   5.3117e-17 
     5004.3   4.8801e-17 
   5005.825   5.1366e-17 
    5007.35   6.0752e-17 
   5008.875   5.7777e-17 
     5010.4   6.1027e-17 
   5011.925   5.6904e-17 
    5013.45   5.3862e-17 
   5014.975   5.1756e-17 
     5016.5   3.9507e-17 
   5018.025    4.631e-17 
    5019.55   4.6687e-17 
   5021.075   4.4388e-17 
     5022.6   4.9176e-17 
   5024.125   5.2231e-17 
    5025.65   5.3809e-17 
   5027.175   5.8472e-17 
     5028.7   5.1043e-17 
   5030.225   5.4651e-17 
    5031.75   5.2923e-17 
   5033.275   5.9933e-17 
     5034.8   5.3474e-17 
   5036.325   4.9409e-17 
    5037.85   5.9685e-17 
   5039.375   5.6986e-17 
     5040.9   4.8412e-17 
   5042.425   4.9072e-17 
    5043.95   4.4453e-17 
   5045.475   4.6947e-17 
     5047.0   4.2599e-17 
   5048.525   4.4819e-17 
    5050.05   5.0997e-17 
   5051.575   5.9351e-17 
     5053.1   5.0413e-17 
   5054.625   5.0978e-17 
    5056.15   4.9627e-17 
   5057.675    5.187e-17 
     5059.2   4.7092e-17 
   5060.725   4.9845e-17 
    5062.25   5.2797e-17 
   5063.775   4.7887e-17 
     5065.3   4.9245e-17 
   5066.825   4.6973e-17 
    5068.35   4.3652e-17 
   5069.875   4.8706e-17 
     5071.4   4.6357e-17 
   5072.925   4.1235e-17 
    5074.45   5.0517e-17 
   5075.975   4.7915e-17 
     5077.5   5.0847e-17 
   5079.025   4.4634e-17 
    5080.55   4.9343e-17 
   5082.075   3.9068e-17 
     5083.6   4.2296e-17 
   5085.125   4.5763e-17 
    5086.65   4.5064e-17 
   5088.175   4.1169e-17 
     5089.7   3.4257e-17 
   5091.225   3.3418e-17 
    5092.75   5.0615e-17 
   5094.275   4.4695e-17 
     5095.8   3.3303e-17 
   5097.325   4.7211e-17 
    5098.85   5.0004e-17 
   5100.375   4.3978e-17 
     5101.9   4.1475e-17 
   5103.425   4.3135e-17 
    5104.95   4.6763e-17 
   5106.475   3.7392e-17 
     5108.0   3.8341e-17 
   5109.525   4.1522e-17 
    5111.05   4.6649e-17 
   5112.575   4.0207e-17 
     5114.1   4.4535e-17 
   5115.625   4.7694e-17 
    5117.15   4.2374e-17 
   5118.675   4.5238e-17 
     5120.2   4.3684e-17 
   5121.725   3.6941e-17 
    5123.25   3.3777e-17 
   5124.775   3.7756e-17 
     5126.3   3.5973e-17 
   5127.825   4.2095e-17 
    5129.35   4.1089e-17 
   5130.875   4.2675e-17 
     5132.4   3.8682e-17 
   5133.925   4.3633e-17 
    5135.45    4.195e-17 
   5136.975   4.4438e-17 
     5138.5   3.9879e-17 
   5140.025   3.7191e-17 
    5141.55   4.5379e-17 
   5143.075   4.1879e-17 
     5144.6   4.1053e-17 
   5146.125    4.078e-17 
    5147.65   4.2641e-17 
   5149.175   4.5035e-17 
     5150.7   4.7377e-17 
   5152.225   4.6558e-17 
    5153.75    4.076e-17 
   5155.275   4.2528e-17 
     5156.8   4.0793e-17 
   5158.325   3.7915e-17 
    5159.85   4.1295e-17 
   5161.375   3.5783e-17 
     5162.9   4.2449e-17 
   5164.425   4.2622e-17 
    5165.95   3.5762e-17 
   5167.475   4.5573e-17 
     5169.0   5.1468e-17 
   5170.525    4.574e-17 
    5172.05   4.1675e-17 
   5173.575   4.8191e-17 
     5175.1   5.2645e-17 
   5176.625   4.7011e-17 
    5178.15   4.2378e-17 
   5179.675   3.9515e-17 
     5181.2   4.7226e-17 
   5182.725   4.4589e-17 
    5184.25   5.3029e-17 
   5185.775   4.6642e-17 
     5187.3   4.8452e-17 
   5188.825   4.9842e-17 
    5190.35   4.6805e-17 
   5191.875   4.1294e-17 
     5193.4   3.3841e-17 
   5194.925   3.9813e-17 
    5196.45   3.5619e-17 
   5197.975   4.1616e-17 
     5199.5   4.5481e-17 
   5201.025   4.6403e-17 
    5202.55   4.4652e-17 
   5204.075   3.8726e-17 
     5205.6   4.1835e-17 
   5207.125   5.0497e-17 
    5208.65   4.7601e-17 
   5210.175   5.4787e-17 
     5211.7   5.2179e-17 
   5213.225     4.74e-17 
    5214.75   5.0033e-17 
   5216.275   4.7988e-17 
     5217.8   5.3058e-17 
   5219.325   5.0425e-17 
    5220.85   5.7144e-17 
   5222.375   5.1527e-17 
     5223.9   4.8321e-17 
   5225.425   4.4653e-17 
    5226.95   5.2034e-17 
   5228.475   5.7104e-17 
     5230.0   5.3959e-17 
   5231.525   4.7116e-17 
    5233.05   5.8328e-17 
   5234.575   6.1013e-17 
     5236.1   5.3153e-17 
   5237.625   4.4678e-17 
    5239.15   4.8192e-17 
   5240.675   5.1778e-17 
     5242.2    5.476e-17 
   5243.725   5.1372e-17 
    5245.25   4.5594e-17 
   5246.775   4.6786e-17 
     5248.3   4.5188e-17 
   5249.825   4.1304e-17 
    5251.35   5.3454e-17 
   5252.875   5.4758e-17 
     5254.4   5.6721e-17 
   5255.925    4.447e-17 
    5257.45   5.2098e-17 
   5258.975   5.1829e-17 
     5260.5   5.4714e-17 
   5262.025    4.882e-17 
    5263.55   5.7192e-17 
   5265.075   6.7052e-17 
     5266.6   5.8184e-17 
   5268.125   5.1002e-17 
    5269.65   5.7692e-17 
   5271.175   6.3312e-17 
     5272.7   5.5765e-17 
   5274.225   5.4093e-17 
    5275.75   5.5707e-17 
   5277.275   4.5787e-17 
     5278.8   5.8482e-17 
   5280.325   7.0713e-17 
    5281.85   5.7236e-17 
   5283.375   6.4278e-17 
     5284.9   6.2317e-17 
   5286.425     5.73e-17 
    5287.95   6.2444e-17 
   5289.475   6.2553e-17 
     5291.0   5.9671e-17 
   5292.525   4.6848e-17 
    5294.05   6.0855e-17 
   5295.575   7.6047e-17 
     5297.1   6.5938e-17 
   5298.625   4.9713e-17 
    5300.15   5.7678e-17 
   5301.675   5.7257e-17 
     5303.2     6.58e-17 
   5304.725   6.2831e-17 
    5306.25   6.1856e-17 
   5307.775   6.3156e-17 
     5309.3   6.9498e-17 
   5310.825   6.4998e-17 
    5312.35   6.3013e-17 
   5313.875   6.8734e-17 
     5315.4   6.2538e-17 
   5316.925   7.0327e-17 
    5318.45   7.0307e-17 
   5319.975   6.5883e-17 
     5321.5    7.139e-17 
   5323.025   7.2634e-17 
    5324.55   6.8018e-17 
   5326.075    7.813e-17 
     5327.6   8.0002e-17 
   5329.125   5.4408e-17 
    5330.65    5.472e-17 
   5332.175   6.4499e-17 
     5333.7    6.492e-17 
   5335.225   7.0817e-17 
    5336.75     7.16e-17 
   5338.275   7.1607e-17 
     5339.8   7.4757e-17 
   5341.325   7.4457e-17 
    5342.85   6.6218e-17 
   5344.375   7.2826e-17 
     5345.9   6.1201e-17 
   5347.425   6.5272e-17 
    5348.95   6.8632e-17 
   5350.475   6.5919e-17 
     5352.0   6.8349e-17 
   5353.525   6.1739e-17 
    5355.05   6.0854e-17 
   5356.575   6.0185e-17 
     5358.1   7.0686e-17 
   5359.625   6.6946e-17 
    5361.15    6.437e-17 
   5362.675   6.1035e-17 
     5364.2   6.2838e-17 
   5365.725   6.0375e-17 
    5367.25   6.3401e-17 
   5368.775   6.7454e-17 
     5370.3   7.2576e-17 
   5371.825   7.2754e-17 
    5373.35   8.1508e-17 
   5374.875   7.1614e-17 
     5376.4   6.7753e-17 
   5377.925   7.1402e-17 
    5379.45   6.9677e-17 
   5380.975   5.9597e-17 
     5382.5   6.9745e-17 
   5384.025   7.8888e-17 
    5385.55   6.7983e-17 
   5387.075   7.6277e-17 
     5388.6   7.2682e-17 
   5390.125   5.4323e-17 
    5391.65    6.093e-17 
   5393.175   7.8632e-17 
     5394.7   6.5586e-17 
   5396.225   6.8885e-17 
    5397.75   7.7049e-17 
   5399.275   7.2122e-17 
     5400.8   7.0255e-17 
   5402.325   7.2133e-17 
    5403.85   7.1454e-17 
   5405.375   6.9983e-17 
     5406.9   5.9683e-17 
   5408.425   6.6464e-17 
    5409.95   4.9697e-17 
   5411.475   6.8624e-17 
     5413.0   7.0037e-17 
   5414.525   6.7109e-17 
    5416.05   8.2192e-17 
   5417.575   7.1552e-17 
     5419.1   6.3176e-17 
   5420.625   6.0752e-17 
    5422.15   6.6896e-17 
   5423.675   7.1821e-17 
     5425.2   6.0478e-17 
   5426.725   6.8759e-17 
    5428.25   6.9304e-17 
   5429.775   7.2127e-17 
     5431.3   7.0593e-17 
   5432.825   7.4383e-17 
    5434.35    6.467e-17 
   5435.875   6.2987e-17 
     5437.4   6.1904e-17 
   5438.925   5.6702e-17 
    5440.45   6.7669e-17 
   5441.975   6.1155e-17 
     5443.5   7.2625e-17 
   5445.025   6.6939e-17 
    5446.55   6.5057e-17 
   5448.075   7.2333e-17 
     5449.6   7.1661e-17 
   5451.125   6.9507e-17 
    5452.65   6.7836e-17 
   5454.175   5.5851e-17 
     5455.7   5.7777e-17 
   5457.225   5.5844e-17 
    5458.75   8.7056e-17 
   5460.275   8.7645e-17 
     5461.8   6.6902e-17 
   5463.325   7.2634e-17 
    5464.85   6.7184e-17 
   5466.375   7.0771e-17 
     5467.9   7.5288e-17 
   5469.425   6.1615e-17 
    5470.95   5.2149e-17 
   5472.475   5.2855e-17 
     5474.0   7.0625e-17 
   5475.525   6.2318e-17 
    5477.05   5.7898e-17 
   5478.575   6.0355e-17 
     5480.1   8.1989e-17 
   5481.625    7.453e-17 
    5483.15   6.7941e-17 
   5484.675   5.7034e-17 
     5486.2   5.7058e-17 
   5487.725   5.7513e-17 
    5489.25   5.9235e-17 
   5490.775   6.0046e-17 
     5492.3   6.2365e-17 
   5493.825    6.093e-17 
    5495.35   4.7954e-17 
   5496.875   5.8307e-17 
     5498.4    6.007e-17 
   5499.925   5.0871e-17 
    5501.45   5.6393e-17 
   5502.975   6.0625e-17 
     5504.5   6.9595e-17 
   5506.025    8.099e-17 
    5507.55   6.9856e-17 
   5509.075   5.2255e-17 
     5510.6   5.5276e-17 
   5512.125    6.965e-17 
    5513.65   7.4756e-17 
   5515.175   7.1167e-17 
     5516.7    7.696e-17 
   5518.225   6.7872e-17 
    5519.75   6.8051e-17 
   5521.275   6.7417e-17 
     5522.8    6.758e-17 
   5524.325   6.1434e-17 
    5525.85   6.0461e-17 
   5527.375   6.1431e-17 
     5528.9   6.6507e-17 
   5530.425   5.5987e-17 
    5531.95   6.0439e-17 
   5533.475   6.2933e-17 
     5535.0    6.097e-17 
   5536.525   6.2506e-17 
    5538.05   6.7813e-17 
   5539.575   5.7264e-17 
     5541.1   5.9241e-17 
   5542.625    6.531e-17 
    5544.15    6.474e-17 
   5545.675   6.1709e-17 
     5547.2   5.7563e-17 
   5548.725   6.1373e-17 
    5550.25    6.068e-17 
   5551.775    6.009e-17 
     5553.3   6.0869e-17 
   5554.825   6.1056e-17 
    5556.35   5.6854e-17 
   5557.875   6.1003e-17 
     5559.4   6.7217e-17 
   5560.925   6.4802e-17 
    5562.45   5.9632e-17 
   5563.975   6.1968e-17 
     5565.5   6.5608e-17 
   5567.025   6.3634e-17 
    5568.55   6.4913e-17 
   5570.075   5.6455e-17 
     5571.6   4.8338e-17 
   5573.125   6.1328e-17 
    5574.65    7.205e-17 
   5576.175   6.4988e-17 
     5577.7   6.9154e-17 
   5579.225   7.6436e-17 
    5580.75   6.9121e-17 
   5582.275   6.5406e-17 
     5583.8   5.8871e-17 
   5585.325   5.8997e-17 
    5586.85   6.0764e-17 
   5588.375   5.5675e-17 
     5589.9   5.7722e-17 
   5591.425    6.078e-17 
    5592.95   6.3685e-17 
   5594.475   6.1772e-17 
     5596.0   5.6172e-17 
   5597.525   5.3934e-17 
    5599.05   5.5284e-17 
   5600.575   6.0009e-17 
     5602.1   5.8266e-17 
   5603.625   5.5459e-17 
    5605.15   5.7704e-17 
   5606.675   5.8332e-17 
     5608.2   5.8988e-17 
   5609.725   5.7024e-17 
    5611.25   5.7923e-17 
   5612.775   6.1196e-17 
     5614.3   5.9289e-17 
   5615.825   6.6336e-17 
    5617.35   6.6861e-17 
   5618.875   5.5298e-17 
     5620.4    5.027e-17 
   5621.925   6.1514e-17 
    5623.45   5.9908e-17 
   5624.975   5.6954e-17 
     5626.5    6.442e-17 
   5628.025   6.2286e-17 
    5629.55   5.4997e-17 
   5631.075   5.3341e-17 
     5632.6   5.9101e-17 
   5634.125   5.7033e-17 
    5635.65   5.6343e-17 
   5637.175   5.5057e-17 
     5638.7   6.2989e-17 
   5640.225   6.7113e-17 
    5641.75   6.3165e-17 
   5643.275   6.5291e-17 
     5644.8   5.9319e-17 
   5646.325   5.7383e-17 
    5647.85   6.2921e-17 
   5649.375   5.9899e-17 
     5650.9   5.7543e-17 
   5652.425   5.4032e-17 
    5653.95   6.6276e-17 
   5655.475   6.6232e-17 
     5657.0   5.9177e-17 
   5658.525   6.3858e-17 
    5660.05   6.2013e-17 
   5661.575   5.6703e-17 
     5663.1   5.4842e-17 
   5664.625   6.4726e-17 
    5666.15   6.7558e-17 
   5667.675   6.0606e-17 
     5669.2   5.6074e-17 
   5670.725   5.5853e-17 
    5672.25   5.5121e-17 
   5673.775    5.173e-17 
     5675.3    5.874e-17 
   5676.825   5.7572e-17 
    5678.35   5.6507e-17 
   5679.875    6.215e-17 
     5681.4   5.8036e-17 
   5682.925   6.0081e-17 
    5684.45    6.083e-17 
   5685.975   6.2626e-17 
     5687.5   6.2505e-17 
   5689.025   5.4919e-17 
    5690.55   5.4763e-17 
   5692.075   5.8241e-17 
     5693.6   5.7179e-17 
   5695.125   5.9009e-17 
    5696.65   6.1553e-17 
   5698.175   5.7855e-17 
     5699.7   5.6515e-17 
   5701.225   6.0534e-17 
    5702.75   5.6922e-17 
   5704.275   5.3757e-17 
     5705.8   5.4905e-17 
   5707.325   6.0892e-17 
    5708.85   6.2764e-17 
   5710.375   5.7559e-17 
     5711.9   5.9661e-17 
   5713.425   5.8844e-17 
    5714.95    5.936e-17 
   5716.475   5.6617e-17 
     5718.0   6.0166e-17 
   5719.525   6.4226e-17 
    5721.05   5.9188e-17 
   5722.575   5.8124e-17 
     5724.1   5.8959e-17 
   5725.625   6.1249e-17 
    5727.15   5.6536e-17 
   5728.675     5.87e-17 
     5730.2   6.3592e-17 
   5731.725   6.2393e-17 
    5733.25   6.3259e-17 
   5734.775   6.2201e-17 
     5736.3   5.9273e-17 
   5737.825    5.902e-17 
    5739.35   6.3467e-17 
   5740.875   5.9551e-17 
     5742.4   6.1343e-17 
   5743.925   6.3916e-17 
    5745.45   5.9317e-17 
   5746.975   5.8728e-17 
     5748.5   6.3049e-17 
   5750.025   6.3211e-17 
    5751.55   6.2046e-17 
   5753.075   6.2985e-17 
     5754.6   6.3157e-17 
   5756.125   5.7287e-17 
    5757.65   5.2242e-17 
   5759.175   5.6958e-17 
     5760.7   5.9573e-17 
   5762.225   5.6685e-17 
    5763.75   5.9775e-17 
   5765.275   6.3338e-17 
     5766.8   5.9261e-17 
   5768.325   6.2896e-17 
    5769.85   6.5006e-17 
   5771.375   5.7549e-17 
     5772.9     4.77e-17 
   5774.425   5.1538e-17 
    5775.95   5.8713e-17 
   5777.475   5.7836e-17 
     5779.0   5.5367e-17 
   5780.525   5.9286e-17 
    5782.05   5.8587e-17 
   5783.575   5.7192e-17 
     5785.1   5.5181e-17 
   5786.625   5.6229e-17 
    5788.15   5.6804e-17 
   5789.675   5.6704e-17 
     5791.2   5.7036e-17 
   5792.725   5.4217e-17 
    5794.25   5.7337e-17 
   5795.775   5.2353e-17 
     5797.3    5.743e-17 
   5798.825   5.3563e-17 
    5800.35   5.1206e-17 
   5801.875   5.2735e-17 
     5803.4   5.2341e-17 
   5804.925   5.5667e-17 
    5806.45   5.7592e-17 
   5807.975   5.7393e-17 
     5809.5   5.1403e-17 
   5811.025   4.9371e-17 
    5812.55   5.4542e-17 
   5814.075   5.5973e-17 
     5815.6   5.3104e-17 
   5817.125   5.2853e-17 
    5818.65   5.6105e-17 
   5820.175   5.2531e-17 
     5821.7   5.4886e-17 
   5823.225   5.6756e-17 
    5824.75   4.9686e-17 
   5826.275   4.6336e-17 
     5827.8   4.7307e-17 
   5829.325   4.8478e-17 
    5830.85   4.7785e-17 
   5832.375   4.9677e-17 
     5833.9   4.6994e-17 
   5835.425   4.6732e-17 
    5836.95   5.2429e-17 
   5838.475   5.4049e-17 
     5840.0   5.0598e-17 
   5841.525   4.4539e-17 
    5843.05   4.4602e-17 
   5844.575   4.9867e-17 
     5846.1   5.1386e-17 
   5847.625   4.9597e-17 
    5849.15   4.9648e-17 
   5850.675   4.9258e-17 
     5852.2   4.7902e-17 
   5853.725   4.7676e-17 
    5855.25   4.6228e-17 
   5856.775   4.8486e-17 
     5858.3   4.9773e-17 
   5859.825   5.6792e-17 
    5861.35   5.8478e-17 
   5862.875   4.4835e-17 
     5864.4   4.2718e-17 
   5865.925   5.1383e-17 
    5867.45   5.3397e-17 
   5868.975   4.5331e-17 
     5870.5   4.5088e-17 
   5872.025   4.6091e-17 
    5873.55   4.2475e-17 
   5875.075   4.9267e-17 
     5876.6   5.5292e-17 
   5878.125   4.9546e-17 
    5879.65   4.5553e-17 
   5881.175   5.4938e-17 
     5882.7   5.7855e-17 
   5884.225   4.7666e-17 
    5885.75   4.2245e-17 
   5887.275    4.908e-17 
     5888.8   4.9467e-17 
   5890.325    5.701e-17 
    5891.85   5.8287e-17 
   5893.375   5.3044e-17 
     5894.9   4.7754e-17 
   5896.425   4.7347e-17 
    5897.95   5.2106e-17 
   5899.475   4.9353e-17 
     5901.0   5.4905e-17 
   5902.525   5.8083e-17 
    5904.05   5.5483e-17 
   5905.575   5.0874e-17 
     5907.1    5.133e-17 
   5908.625    5.219e-17 
    5910.15   4.9844e-17 
   5911.675   4.9893e-17 
     5913.2   4.7822e-17 
   5914.725   4.7996e-17 
    5916.25   4.8178e-17 
   5917.775   4.8483e-17 
     5919.3   5.0932e-17 
   5920.825   4.7214e-17 
    5922.35    4.646e-17 
   5923.875   5.0027e-17 
     5925.4   5.1887e-17 
   5926.925   4.6095e-17 
    5928.45   4.9345e-17 
   5929.975   5.2366e-17 
     5931.5    4.849e-17 
   5933.025   5.0771e-17 
    5934.55   5.3741e-17 
   5936.075   4.8837e-17 
     5937.6   4.9065e-17 
   5939.125   5.3787e-17 
    5940.65   5.0642e-17 
   5942.175   4.3707e-17 
     5943.7   4.4323e-17 
   5945.225   4.5974e-17 
    5946.75   4.4065e-17 
   5948.275   4.1711e-17 
     5949.8   4.8137e-17 
   5951.325   5.5175e-17 
    5952.85   5.5454e-17 
   5954.375    5.719e-17 
     5955.9   5.2278e-17 
   5957.425   4.7886e-17 
    5958.95   4.4665e-17 
   5960.475   4.4278e-17 
     5962.0   4.7062e-17 
   5963.525   4.5605e-17 
    5965.05   4.9437e-17 
   5966.575   4.8302e-17 
     5968.1    4.753e-17 
   5969.625   4.5451e-17 
    5971.15   4.6365e-17 
   5972.675   4.8529e-17 
     5974.2   4.6368e-17 
   5975.725   4.7805e-17 
    5977.25   4.5277e-17 
   5978.775   4.1706e-17 
     5980.3   4.1336e-17 
   5981.825   4.5415e-17 
    5983.35   4.8783e-17 
   5984.875   5.1674e-17 
     5986.4   5.0184e-17 
   5987.925   4.8478e-17 
    5989.45   4.7156e-17 
   5990.975   4.7972e-17 
     5992.5   5.3052e-17 
   5994.025   5.1604e-17 
    5995.55   4.7315e-17 
   5997.075   4.8944e-17 
     5998.6   4.7426e-17 
   6000.125   4.2876e-17 
    6001.65   4.4467e-17 
   6003.175   4.7143e-17 
     6004.7   4.5728e-17 
   6006.225   4.9728e-17 
    6007.75   5.5671e-17 
   6009.275   5.6113e-17 
     6010.8   5.4889e-17 
   6012.325     5.92e-17 
    6013.85   6.3828e-17 
   6015.375   6.2117e-17 
     6016.9   6.0799e-17 
   6018.425   6.1796e-17 
    6019.95   5.5777e-17 
   6021.475   5.3137e-17 
     6023.0   4.8068e-17 
   6024.525   4.5282e-17 
    6026.05   4.7921e-17 
   6027.575   4.7838e-17 
     6029.1   5.2476e-17 
   6030.625   5.8643e-17 
    6032.15   5.6648e-17 
   6033.675    5.387e-17 
     6035.2   5.3125e-17 
   6036.725   5.0485e-17 
    6038.25    4.723e-17 
   6039.775   5.3204e-17 
     6041.3   5.5474e-17 
   6042.825   5.2432e-17 
    6044.35   5.4421e-17 
   6045.875   5.4951e-17 
     6047.4   5.0178e-17 
   6048.925   4.7232e-17 
    6050.45   4.5448e-17 
   6051.975    4.974e-17 
     6053.5   5.0853e-17 
   6055.025   5.2044e-17 
    6056.55   5.7349e-17 
   6058.075   5.5784e-17 
     6059.6   5.2168e-17 
   6061.125   5.3086e-17 
    6062.65   5.4475e-17 
   6064.175   5.1141e-17 
     6065.7   5.0931e-17 
   6067.225   5.2714e-17 
    6068.75   5.2268e-17 
   6070.275   5.1351e-17 
     6071.8   5.2668e-17 
   6073.325   5.0987e-17 
    6074.85   4.8647e-17 
   6076.375   5.0767e-17 
     6077.9   5.4916e-17 
   6079.425   5.2833e-17 
    6080.95   4.9836e-17 
   6082.475   5.3282e-17 
     6084.0   5.3826e-17 
   6085.525   5.1372e-17 
    6087.05   5.1058e-17 
   6088.575   5.8423e-17 
     6090.1     6.26e-17 
   6091.625   5.9631e-17 
    6093.15   6.1138e-17 
   6094.675   6.0746e-17 
     6096.2   5.5363e-17 
   6097.725   5.0861e-17 
    6099.25   5.3879e-17 
   6100.775   5.4904e-17 
     6102.3    5.445e-17 
   6103.825   5.8144e-17 
    6105.35   5.4453e-17 
   6106.875    4.864e-17 
     6108.4   5.2894e-17 
   6109.925   6.2538e-17 
    6111.45   6.0685e-17 
   6112.975   5.4546e-17 
     6114.5   5.7811e-17 
   6116.025   5.5151e-17 
    6117.55    4.998e-17 
   6119.075   5.9485e-17 
     6120.6   6.1631e-17 
   6122.125   5.5023e-17 
    6123.65   5.3826e-17 
   6125.175   5.8605e-17 
     6126.7    6.047e-17 
   6128.225   5.6033e-17 
    6129.75   5.6906e-17 
   6131.275   5.9205e-17 
     6132.8   5.5643e-17 
   6134.325   5.4412e-17 
    6135.85   6.0476e-17 
   6137.375   6.1198e-17 
     6138.9   5.8152e-17 
   6140.425   6.0274e-17 
    6141.95   5.7278e-17 
   6143.475   5.2047e-17 
     6145.0   5.6636e-17 
   6146.525   6.1334e-17 
    6148.05   5.9212e-17 
   6149.575   6.0304e-17 
     6151.1   6.1149e-17 
   6152.625   5.5488e-17 
    6154.15   5.2842e-17 
   6155.675   5.3922e-17 
     6157.2   5.5993e-17 
   6158.725   5.9394e-17 
    6160.25   5.9844e-17 
   6161.775   6.0544e-17 
     6163.3   6.3633e-17 
   6164.825   6.6371e-17 
    6166.35   6.6629e-17 
   6167.875   6.4674e-17 
     6169.4   6.2483e-17 
   6170.925   5.3696e-17 
    6172.45   5.2634e-17 
   6173.975   5.6867e-17 
     6175.5   6.1299e-17 
   6177.025   5.8953e-17 
    6178.55   5.9971e-17 
   6180.075   6.1525e-17 
     6181.6   6.1808e-17 
   6183.125   6.3305e-17 
    6184.65   6.5525e-17 
   6186.175   6.2572e-17 
     6187.7   5.7505e-17 
   6189.225     6.01e-17 
    6190.75    6.375e-17 
   6192.275   6.3962e-17 
     6193.8   6.7996e-17 
   6195.325   6.3859e-17 
    6196.85   5.4976e-17 
   6198.375   5.9362e-17 
     6199.9   6.5085e-17 
   6201.425   6.0283e-17 
    6202.95   5.7618e-17 
   6204.475   6.4892e-17 
     6206.0    6.972e-17 
   6207.525   6.2607e-17 
    6209.05   5.7871e-17 
   6210.575   6.1848e-17 
     6212.1   6.5492e-17 
   6213.625    6.317e-17 
    6215.15   6.2527e-17 
   6216.675   6.3752e-17 
     6218.2   6.1701e-17 
   6219.725   6.1987e-17 
    6221.25   6.5207e-17 
   6222.775   6.4886e-17 
     6224.3   6.2282e-17 
   6225.825   6.3486e-17 
    6227.35   6.4836e-17 
   6228.875   6.2259e-17 
     6230.4   6.5396e-17 
   6231.925   6.5141e-17 
    6233.45   6.2444e-17 
   6234.975   6.0864e-17 
     6236.5   6.7024e-17 
   6238.025   7.0059e-17 
    6239.55   6.3909e-17 
   6241.075    6.191e-17 
     6242.6   6.3509e-17 
   6244.125   6.0914e-17 
    6245.65   6.2117e-17 
   6247.175     5.95e-17 
     6248.7   5.5905e-17 
   6250.225   5.8342e-17 
    6251.75   6.3773e-17 
   6253.275   6.2628e-17 
     6254.8    6.316e-17 
   6256.325   6.6869e-17 
    6257.85   7.0323e-17 
   6259.375   6.6643e-17 
     6260.9   5.7845e-17 
   6262.425   5.6316e-17 
    6263.95   6.0755e-17 
   6265.475   6.1509e-17 
     6267.0   5.8028e-17 
   6268.525    5.815e-17 
    6270.05   5.9806e-17 
   6271.575   5.8708e-17 
     6273.1   6.4842e-17 
   6274.625   6.3743e-17 
    6276.15   5.8653e-17 
   6277.675   6.0034e-17 
     6279.2   6.2998e-17 
   6280.725     6.15e-17 
    6282.25   5.9877e-17 
   6283.775   6.1956e-17 
     6285.3   6.2662e-17 
   6286.825   6.1418e-17 
    6288.35   6.0969e-17 
   6289.875   5.7477e-17 
     6291.4   5.7302e-17 
   6292.925   5.9773e-17 
    6294.45   6.4155e-17 
   6295.975   6.5083e-17 
     6297.5    5.515e-17 
   6299.025   4.7951e-17 
    6300.55   6.0116e-17 
   6302.075   6.4897e-17 
     6303.6   5.7657e-17 
   6305.125   5.9312e-17 
    6306.65   6.2993e-17 
   6308.175   6.1822e-17 
     6309.7   5.5861e-17 
   6311.225   5.8595e-17 
    6312.75   6.3256e-17 
   6314.275   6.0074e-17 
     6315.8   6.0552e-17 
   6317.325   6.5404e-17 
    6318.85   6.1956e-17 
   6320.375   6.0434e-17 
     6321.9   6.2618e-17 
   6323.425   6.3962e-17 
    6324.95   5.8182e-17 
   6326.475   5.8147e-17 
     6328.0   6.5802e-17 
   6329.525   6.6982e-17 
    6331.05   6.2416e-17 
   6332.575   6.1271e-17 
     6334.1   6.2997e-17 
   6335.625   6.4797e-17 
    6337.15   6.4266e-17 
   6338.675   6.1541e-17 
     6340.2   5.8704e-17 
   6341.725   6.0066e-17 
    6343.25   6.2124e-17 
   6344.775   6.1722e-17 
     6346.3   5.9966e-17 
   6347.825   6.0895e-17 
    6349.35   6.7474e-17 
   6350.875   6.5287e-17 
     6352.4   6.1972e-17 
   6353.925   6.3938e-17 
    6355.45   5.8726e-17 
   6356.975   5.4108e-17 
     6358.5   5.8877e-17 
   6360.025   6.0802e-17 
    6361.55   5.8657e-17 
   6363.075   5.8848e-17 
     6364.6   6.3515e-17 
   6366.125   5.9565e-17 
    6367.65    6.221e-17 
   6369.175     6.74e-17 
     6370.7   6.6684e-17 
   6372.225   5.8217e-17 
    6373.75   5.8138e-17 
   6375.275   6.4497e-17 
     6376.8   6.0684e-17 
   6378.325   6.0526e-17 
    6379.85   6.1011e-17 
   6381.375   6.0053e-17 
     6382.9   5.7286e-17 
   6384.425   5.7667e-17 
    6385.95   5.9256e-17 
   6387.475   6.3198e-17 
     6389.0    6.327e-17 
   6390.525   6.3951e-17 
    6392.05   6.6955e-17 
   6393.575   6.3713e-17 
     6395.1   6.0153e-17 
   6396.625   6.2855e-17 
    6398.15   6.2456e-17 
   6399.675   6.2543e-17 
     6401.2   6.4154e-17 
   6402.725   6.4873e-17 
    6404.25    6.039e-17 
   6405.775    6.116e-17 
     6407.3   6.5487e-17 
   6408.825   6.3326e-17 
    6410.35   6.0406e-17 
   6411.875   6.2819e-17 
     6413.4   6.2317e-17 
   6414.925   5.7693e-17 
    6416.45    5.998e-17 
   6417.975    6.486e-17 
     6419.5   6.1175e-17 
   6421.025    5.668e-17 
    6422.55   6.3069e-17 
   6424.075   6.3334e-17 
     6425.6   5.9357e-17 
   6427.125    6.203e-17 
    6428.65   6.3299e-17 
   6430.175   5.9046e-17 
     6431.7   6.0088e-17 
   6433.225   6.3617e-17 
    6434.75   5.9478e-17 
   6436.275   5.7572e-17 
     6437.8   6.1955e-17 
   6439.325   6.4655e-17 
    6440.85   6.0959e-17 
   6442.375   5.8044e-17 
     6443.9   6.2438e-17 
   6445.425   6.3018e-17 
    6446.95   6.2307e-17 
   6448.475   6.6377e-17 
     6450.0    6.604e-17 
   6451.525   6.2227e-17 
    6453.05   6.2969e-17 
   6454.575   6.5839e-17 
     6456.1   6.4985e-17 
   6457.625   6.8843e-17 
    6459.15   6.9982e-17 
   6460.675   6.5637e-17 
     6462.2   6.0654e-17 
   6463.725   6.2089e-17 
    6465.25   7.0461e-17 
   6466.775   7.1341e-17 
     6468.3   6.5611e-17 
   6469.825   6.4037e-17 
    6471.35   6.4313e-17 
   6472.875   5.8906e-17 
     6474.4   6.0586e-17 
   6475.925   6.2402e-17 
    6477.45    6.488e-17 
   6478.975    6.187e-17 
     6480.5   6.1101e-17 
   6482.025   6.1914e-17 
    6483.55   6.3432e-17 
   6485.075   6.4675e-17 
     6486.6   6.5425e-17 
   6488.125   6.3079e-17 
    6489.65   6.1497e-17 
   6491.175    6.169e-17 
     6492.7   6.4403e-17 
   6494.225   6.4361e-17 
    6495.75   6.3656e-17 
   6497.275   6.4594e-17 
     6498.8    6.663e-17 
   6500.325   6.6977e-17 
    6501.85   6.5912e-17 
   6503.375   6.1064e-17 
     6504.9   5.6491e-17 
   6506.425   5.6578e-17 
    6507.95   5.8969e-17 
   6509.475   5.7472e-17 
     6511.0   5.7653e-17 
   6512.525    6.137e-17 
    6514.05   6.2001e-17 
   6515.575   6.1532e-17 
     6517.1   6.1385e-17 
   6518.625   5.7822e-17 
    6520.15   5.8559e-17 
   6521.675   6.1178e-17 
     6523.2   6.2275e-17 
   6524.725   6.1871e-17 
    6526.25   5.8985e-17 
   6527.775   5.9808e-17 
     6529.3    6.307e-17 
   6530.825   5.8084e-17 
    6532.35   5.7769e-17 
   6533.875   6.3056e-17 
     6535.4   6.1159e-17 
   6536.925   5.7184e-17 
    6538.45   5.5505e-17 
   6539.975   5.9483e-17 
     6541.5   6.3399e-17 
   6543.025   6.3121e-17 
    6544.55    6.568e-17 
   6546.075   6.4006e-17 
     6547.6   5.8198e-17 
   6549.125   5.7459e-17 
    6550.65   6.3161e-17 
   6552.175   6.0053e-17 
     6553.7   5.3478e-17 
   6555.225   5.7275e-17 
    6556.75   5.9353e-17 
   6558.275    6.053e-17 
     6559.8   6.3687e-17 
   6561.325   6.6611e-17 
    6562.85   6.9945e-17 
   6564.375   6.7847e-17 
     6565.9   6.4814e-17 
   6567.425   6.3165e-17 
    6568.95   6.0367e-17 
   6570.475    6.019e-17 
     6572.0   6.1971e-17 
   6573.525   6.1273e-17 
    6575.05   6.3279e-17 
   6576.575   6.7966e-17 
     6578.1   6.6273e-17 
   6579.625   6.1732e-17 
    6581.15   5.9534e-17 
   6582.675   5.9476e-17 
     6584.2   5.4853e-17 
   6585.725   5.3396e-17 
    6587.25   5.9979e-17 
   6588.775   6.2002e-17 
     6590.3   6.1561e-17 
   6591.825   6.0353e-17 
    6593.35   5.5379e-17 
   6594.875   5.3442e-17 
     6596.4   5.5919e-17 
   6597.925    5.808e-17 
    6599.45   5.8845e-17 
   6600.975   6.0148e-17 
     6602.5   6.1167e-17 
   6604.025   5.9095e-17 
    6605.55   5.5927e-17 
   6607.075   5.7402e-17 
     6608.6   5.9256e-17 
   6610.125   5.8419e-17 
    6611.65   5.9606e-17 
   6613.175   5.9001e-17 
     6614.7   5.8649e-17 
   6616.225   5.9405e-17 
    6617.75    5.606e-17 
   6619.275   5.6548e-17 
     6620.8   5.7861e-17 
   6622.325   5.7297e-17 
    6623.85   5.4371e-17 
   6625.375   5.6858e-17 
     6626.9   5.6442e-17 
   6628.425   5.4211e-17 
    6629.95   5.8126e-17 
   6631.475   6.0159e-17 
     6633.0   5.7609e-17 
   6634.525   5.5683e-17 
    6636.05   5.8565e-17 
   6637.575     5.92e-17 
     6639.1   5.5107e-17 
   6640.625   5.7146e-17 
    6642.15    5.952e-17 
   6643.675    5.878e-17 
     6645.2    5.711e-17 
   6646.725   5.9287e-17 
    6648.25   5.4169e-17 
   6649.775   5.1481e-17 
     6651.3   5.5825e-17 
   6652.825   5.5814e-17 
    6654.35   5.3499e-17 
   6655.875   5.4726e-17 
     6657.4   5.8001e-17 
   6658.925   5.9572e-17 
    6660.45   5.6222e-17 
   6661.975   5.5691e-17 
     6663.5   6.0422e-17 
   6665.025   5.9869e-17 
    6666.55     5.59e-17 
   6668.075   5.5036e-17 
     6669.6   5.6387e-17 
   6671.125   5.5133e-17 
    6672.65   5.6161e-17 
   6674.175    5.548e-17 
     6675.7   5.3796e-17 
   6677.225   5.2406e-17 
    6678.75   5.6197e-17 
   6680.275   5.8602e-17 
     6681.8   5.5589e-17 
   6683.325   5.5326e-17 
    6684.85   5.8217e-17 
   6686.375   5.7668e-17 
     6687.9   5.5879e-17 
   6689.425   5.9176e-17 
    6690.95   5.7325e-17 
   6692.475    5.561e-17 
     6694.0   5.6888e-17 
   6695.525   5.5562e-17 
    6697.05   5.4498e-17 
   6698.575   5.0742e-17 
     6700.1   5.2358e-17 
   6701.625   5.5504e-17 
    6703.15    5.617e-17 
   6704.675   5.6583e-17 
     6706.2   5.3797e-17 
   6707.725   5.3601e-17 
    6709.25   5.5352e-17 
   6710.775    5.621e-17 
     6712.3   5.3495e-17 
   6713.825   5.2551e-17 
    6715.35   5.0358e-17 
   6716.875   5.4067e-17 
     6718.4      5.7e-17 
   6719.925   5.6231e-17 
    6721.45   5.6768e-17 
   6722.975   5.5469e-17 
     6724.5   5.3138e-17 
   6726.025   5.4707e-17 
    6727.55   5.5977e-17 
   6729.075   5.2187e-17 
     6730.6   5.2772e-17 
   6732.125   5.8238e-17 
    6733.65   5.7791e-17 
   6735.175   5.2936e-17 
     6736.7   5.1525e-17 
   6738.225   5.5414e-17 
    6739.75   5.4375e-17 
   6741.275   5.0121e-17 
     6742.8   5.0715e-17 
   6744.325   5.0017e-17 
    6745.85    5.061e-17 
   6747.375   5.2025e-17 
     6748.9   5.4097e-17 
   6750.425   5.2622e-17 
    6751.95   5.1284e-17 
   6753.475   5.1178e-17 
     6755.0   5.1631e-17 
   6756.525   5.3589e-17 
    6758.05   5.3643e-17 
   6759.575   5.3733e-17 
     6761.1   5.2086e-17 
   6762.625   5.1043e-17 
    6764.15   5.3564e-17 
   6765.675   5.7556e-17 
     6767.2   5.5011e-17 
   6768.725   5.2794e-17 
    6770.25   5.6378e-17 
   6771.775   5.4968e-17 
     6773.3    5.449e-17 
   6774.825   5.5237e-17 
    6776.35   5.2318e-17 
   6777.875   5.0483e-17 
     6779.4   5.0372e-17 
   6780.925   5.1354e-17 
    6782.45   5.0234e-17 
   6783.975   4.9816e-17 
     6785.5   5.2332e-17 
   6787.025   5.4172e-17 
    6788.55   5.1397e-17 
   6790.075   4.9393e-17 
     6791.6   4.9918e-17 
   6793.125   4.7998e-17 
    6794.65   5.0938e-17 
   6796.175    5.139e-17 
     6797.7    5.004e-17 
   6799.225   5.1562e-17 
    6800.75   5.2672e-17 
   6802.275   5.3866e-17 
     6803.8   5.2384e-17 
   6805.325   5.0525e-17 
    6806.85    5.162e-17 
   6808.375   5.0757e-17 
     6809.9    4.912e-17 
   6811.425   5.1376e-17 
    6812.95   5.3461e-17 
   6814.475   5.1666e-17 
     6816.0   5.1117e-17 
   6817.525   5.0639e-17 
    6819.05   5.0086e-17 
   6820.575   4.9284e-17 
     6822.1   5.0988e-17 
   6823.625   5.3546e-17 
    6825.15   5.2694e-17 
   6826.675   5.2676e-17 
     6828.2   5.4359e-17 
   6829.725   5.5347e-17 
    6831.25   4.8958e-17 
   6832.775   4.2896e-17 
     6834.3    4.919e-17 
   6835.825   5.3496e-17 
    6837.35   5.0619e-17 
   6838.875   5.0039e-17 
     6840.4    5.004e-17 
   6841.925   4.8771e-17 
    6843.45    4.916e-17 
   6844.975   5.2203e-17 
     6846.5   5.1744e-17 
   6848.025   5.0379e-17 
    6849.55   5.0628e-17 
   6851.075    4.877e-17 
     6852.6   4.8336e-17 
   6854.125   5.1687e-17 
    6855.65   5.2897e-17 
   6857.175   4.9138e-17 
     6858.7   4.8516e-17 
   6860.225   5.3382e-17 
    6861.75    5.603e-17 
   6863.275    5.381e-17 
     6864.8   5.5029e-17 
   6866.325   5.2603e-17 
    6867.85   4.4579e-17 
   6869.375   4.4533e-17 
     6870.9   4.9838e-17 
   6872.425   5.1643e-17 
    6873.95   4.9142e-17 
   6875.475   5.0846e-17 
     6877.0   5.1527e-17 
   6878.525   5.0852e-17 
    6880.05   5.2113e-17 
   6881.575   5.2462e-17 
     6883.1   5.1514e-17 
   6884.625   4.7515e-17 
    6886.15   4.5884e-17 
   6887.675   4.7667e-17 
     6889.2   4.4989e-17 
   6890.725   4.5123e-17 
    6892.25   4.7155e-17 
   6893.775    4.757e-17 
     6895.3   4.6152e-17 
   6896.825   4.7513e-17 
    6898.35   4.8731e-17 
   6899.875   5.0396e-17 
     6901.4   4.7267e-17 
   6902.925   5.2714e-17 
    6904.45   5.2794e-17 
   6905.975   4.7558e-17 
     6907.5   4.3851e-17 
   6909.025   4.3683e-17 
    6910.55   4.8056e-17 
   6912.075   4.9661e-17 
     6913.6    5.113e-17 
   6915.125   4.9423e-17 
    6916.65   4.5464e-17 
   6918.175   4.6383e-17 
     6919.7   4.9438e-17 
   6921.225   4.8944e-17 
    6922.75   4.9971e-17 
   6924.275   5.0999e-17 
     6925.8   4.7176e-17 
   6927.325   4.2267e-17 
    6928.85   4.4687e-17 
   6930.375   4.6361e-17 
     6931.9   4.6979e-17 
   6933.425   4.4999e-17 
    6934.95   4.7028e-17 
   6936.475   5.1992e-17 
     6938.0    5.068e-17 
   6939.525   5.0069e-17 
    6941.05   5.1687e-17 
   6942.575    4.758e-17 
     6944.1   4.6147e-17 
   6945.625   4.5579e-17 
    6947.15   4.7885e-17 
   6948.675   4.7725e-17 
     6950.2   4.7103e-17 
   6951.725   4.6919e-17 
    6953.25   4.5452e-17 
   6954.775   4.4583e-17 
     6956.3   4.8526e-17 
   6957.825   5.0139e-17 
    6959.35   4.5208e-17 
   6960.875   4.6506e-17 
     6962.4   4.6251e-17 
   6963.925   4.5543e-17 
    6965.45   4.6826e-17 
   6966.975   4.9862e-17 
     6968.5   4.7062e-17 
   6970.025   4.2384e-17 
    6971.55   4.6238e-17 
   6973.075   5.0405e-17 
     6974.6   5.0531e-17 
   6976.125   4.9369e-17 
    6977.65   4.8299e-17 
   6979.175   4.5663e-17 
     6980.7   4.3817e-17 
   6982.225   4.4939e-17 
    6983.75   4.4847e-17 
   6985.275   3.9569e-17 
     6986.8   3.9547e-17 
   6988.325   4.5888e-17 
    6989.85    5.099e-17 
   6991.375   4.8146e-17 
     6992.9   4.8404e-17 
   6994.425   4.9342e-17 
    6995.95   4.4944e-17 
   6997.475   4.0227e-17 
     6999.0    4.277e-17 
   7000.525   4.7281e-17 
    7002.05   4.7281e-17 
   7003.575   4.8707e-17 
     7005.1   5.2766e-17 
   7006.625   5.1119e-17 
    7008.15   4.8532e-17 
   7009.675   4.9225e-17 
     7011.2   5.0583e-17 
   7012.725   5.1478e-17 
    7014.25   5.0315e-17 
   7015.775   4.8719e-17 
     7017.3   4.5661e-17 
   7018.825   4.4945e-17 
    7020.35   4.7758e-17 
   7021.875   4.9499e-17 
     7023.4   4.8366e-17 
   7024.925   4.8662e-17 
    7026.45   5.0592e-17 
   7027.975   4.8914e-17 
     7029.5   4.8525e-17 
   7031.025   4.7804e-17 
    7032.55   4.1664e-17 
   7034.075   4.0785e-17 
     7035.6   4.5364e-17 
   7037.125   4.8144e-17 
    7038.65    4.795e-17 
   7040.175   4.4789e-17 
     7041.7   4.4737e-17 
   7043.225   4.7699e-17 
    7044.75   4.6641e-17 
   7046.275   4.2768e-17 
     7047.8   4.4849e-17 
   7049.325   4.8045e-17 
    7050.85   4.5174e-17 
   7052.375   4.3725e-17 
     7053.9    4.681e-17 
   7055.425   4.7797e-17 
    7056.95   4.7209e-17 
   7058.475   4.5533e-17 
     7060.0   4.3529e-17 
   7061.525   4.2277e-17 
    7063.05   4.5168e-17 
   7064.575   4.8331e-17 
     7066.1   4.5992e-17 
   7067.625   4.3695e-17 
    7069.15   4.4158e-17 
   7070.675   4.1611e-17 
     7072.2   4.0359e-17 
   7073.725   4.4742e-17 
    7075.25   4.4748e-17 
   7076.775   4.3397e-17 
     7078.3    4.618e-17 
   7079.825    4.848e-17 
    7081.35   4.5411e-17 
   7082.875   4.2644e-17 
     7084.4   4.4295e-17 
   7085.925   4.2066e-17 
    7087.45   4.1422e-17 
   7088.975    4.399e-17 
     7090.5   4.5254e-17 
   7092.025   4.3996e-17 
    7093.55   4.1732e-17 
   7095.075   4.5308e-17 
     7096.6   4.6696e-17 
   7098.125   4.5556e-17 
    7099.65   4.5469e-17 
   7101.175   4.7155e-17 
     7102.7    4.362e-17 
   7104.225    4.052e-17 
    7105.75   4.1069e-17 
   7107.275     4.41e-17 
     7108.8   4.6561e-17 
   7110.325   4.4826e-17 
    7111.85   4.5393e-17 
   7113.375   4.0503e-17 
     7114.9   3.6729e-17 
   7116.425   4.0324e-17 
    7117.95   4.5786e-17 
   7119.475   4.4176e-17 
     7121.0   4.2263e-17 
   7122.525   4.4996e-17 
    7124.05   4.5397e-17 
   7125.575   4.3128e-17 
     7127.1   4.4845e-17 
   7128.625   4.2167e-17 
    7130.15    3.984e-17 
   7131.675   4.2599e-17 
     7133.2    4.615e-17 
   7134.725   4.5569e-17 
    7136.25   4.2269e-17 
   7137.775   4.5162e-17 
     7139.3   4.3661e-17 
   7140.825   4.3056e-17 
    7142.35   4.3714e-17 
   7143.875   4.5815e-17 
     7145.4   4.3909e-17 
   7146.925   4.1146e-17 
    7148.45   3.9948e-17 
   7149.975   4.2813e-17 
     7151.5   4.3485e-17 
   7153.025   4.3034e-17 
    7154.55    4.133e-17 
   7156.075   4.0145e-17 
     7157.6   4.0364e-17 
   7159.125   4.2658e-17 
    7160.65   4.0655e-17 
   7162.175   3.7772e-17 
     7163.7   4.1344e-17 
   7165.225   4.4551e-17 
    7166.75   4.1501e-17 
   7168.275    3.814e-17 
     7169.8   4.3331e-17 
   7171.325   4.5903e-17 
    7172.85   4.1764e-17 
   7174.375   4.0023e-17 
     7175.9   4.0197e-17 
   7177.425    3.943e-17 
    7178.95   4.0651e-17 
   7180.475   4.1986e-17 
     7182.0   3.8715e-17 
   7183.525   3.6426e-17 
    7185.05   3.9819e-17 
   7186.575   4.2599e-17 
     7188.1   4.2809e-17 
   7189.625   3.9925e-17 
    7191.15   3.8148e-17 
   7192.675   4.1052e-17 
     7194.2   3.9438e-17 
   7195.725   3.4705e-17 
    7197.25   3.6813e-17 
   7198.775   3.9128e-17 
     7200.3   3.7344e-17 
   7201.825   3.9072e-17 
    7203.35   4.1554e-17 
   7204.875   4.1029e-17 
     7206.4   3.9391e-17 
   7207.925    3.824e-17 
    7209.45   3.7983e-17 
   7210.975   3.5299e-17 
     7212.5   3.3358e-17 
   7214.025   3.6906e-17 
    7215.55   3.7128e-17 
   7217.075   3.6554e-17 
     7218.6   3.9723e-17 
   7220.125   3.7199e-17 
    7221.65   3.5027e-17 
   7223.175   3.6194e-17 
     7224.7   3.8599e-17 
   7226.225   3.7062e-17 
    7227.75   3.5898e-17 
   7229.275   3.6858e-17 
     7230.8   3.5143e-17 
   7232.325   3.4411e-17 
    7233.85    3.889e-17 
   7235.375   3.7951e-17 
     7236.9   3.3045e-17 
   7238.425   3.5191e-17 
    7239.95     3.87e-17 
   7241.475   4.3766e-17 
     7243.0   4.4281e-17 
   7244.525   3.7768e-17 
    7246.05   3.9854e-17 
   7247.575   3.8998e-17 
     7249.1   3.2872e-17 
   7250.625   3.8037e-17 
    7252.15   4.0628e-17 
   7253.675    3.689e-17 
     7255.2   3.4708e-17 
   7256.725   3.7955e-17 
    7258.25   3.5265e-17 
   7259.775   3.4802e-17 
     7261.3   4.0928e-17 
   7262.825   3.9667e-17 
    7264.35   3.5963e-17 
   7265.875    3.955e-17 
     7267.4   4.0759e-17 
   7268.925    3.888e-17 
    7270.45   3.6966e-17 
   7271.975   3.6858e-17 
     7273.5   4.1715e-17 
   7275.025    3.994e-17 
    7276.55   4.3038e-17 
   7278.075   5.0195e-17 
     7279.6   4.5356e-17 
   7281.125   4.0165e-17 
    7282.65   4.2532e-17 
   7284.175   3.9032e-17 
     7285.7   3.7086e-17 
   7287.225   4.0282e-17 
    7288.75   3.8745e-17 
   7290.275   3.7595e-17 
     7291.8   3.6869e-17 
   7293.325    3.785e-17 
    7294.85   3.8873e-17 
   7296.375   3.6575e-17 
     7297.9   3.8936e-17 
   7299.425   4.1479e-17 
    7300.95   3.8541e-17 
   7302.475   3.7368e-17 
     7304.0   4.0183e-17 
   7305.525   3.9043e-17 
    7307.05   3.3936e-17 
   7308.575   3.6092e-17 
     7310.1   3.9451e-17 
   7311.625   3.5745e-17 
    7313.15   3.5718e-17 
   7314.675   3.6817e-17 
     7316.2    3.364e-17 
   7317.725   3.8718e-17 
    7319.25   4.0315e-17 
   7320.775   3.5783e-17 
     7322.3   3.3315e-17 
   7323.825   3.4237e-17 
    7325.35   3.4013e-17 
   7326.875   3.5253e-17 
     7328.4   3.2673e-17 
   7329.925   3.3192e-17 
    7331.45   3.4216e-17 
   7332.975   3.2937e-17 
     7334.5   3.5067e-17 
   7336.025   3.4498e-17 
    7337.55   3.5394e-17 
   7339.075   3.4386e-17 
     7340.6   3.2159e-17 
   7342.125   3.3327e-17 
    7343.65   2.6716e-17 
   7345.175   2.3548e-17 
     7346.7   3.1066e-17 
   7348.225   3.6011e-17 
    7349.75   3.3923e-17 
   7351.275   3.3673e-17 
     7352.8    3.639e-17 
   7354.325    3.586e-17 
    7355.85   3.4294e-17 
   7357.375     3.76e-17 
     7358.9   3.9793e-17 
   7360.425   3.3931e-17 
    7361.95     3.13e-17 
   7363.475   3.5595e-17 
     7365.0   3.5236e-17 
   7366.525   3.4291e-17 
    7368.05   3.4965e-17 
   7369.575   3.3467e-17 
     7371.1   3.1864e-17 
   7372.625    3.167e-17 
    7374.15   3.6425e-17 
   7375.675   3.6231e-17 
     7377.2   3.4758e-17 
   7378.725   3.7768e-17 
    7380.25   3.7553e-17 
   7381.775   3.5026e-17 
     7383.3   3.5593e-17 
   7384.825    3.757e-17 
    7386.35    3.721e-17 
   7387.875   3.4881e-17 
     7389.4   3.5871e-17 
   7390.925   4.1594e-17 
    7392.45   4.2351e-17 
   7393.975   3.8429e-17 
     7395.5   3.5151e-17 
   7397.025   3.5378e-17 
    7398.55   3.7977e-17 
   7400.075    3.781e-17 
     7401.6   3.5342e-17 
   7403.125   3.3665e-17 
    7404.65   3.4576e-17 
   7406.175   3.3958e-17 
     7407.7   3.2608e-17 
   7409.225   3.1945e-17 
    7410.75   3.3623e-17 
   7412.275   3.4745e-17 
     7413.8   3.5954e-17 
   7415.325    3.919e-17 
    7416.85   4.0456e-17 
   7418.375   3.7521e-17 
     7419.9   3.6255e-17 
   7421.425   3.8399e-17 
    7422.95   4.0372e-17 
   7424.475    3.908e-17 
     7426.0   3.8338e-17 
   7427.525   4.1395e-17 
    7429.05    4.084e-17 
   7430.575    3.973e-17 
     7432.1   3.9046e-17 
   7433.625   3.8802e-17 
    7435.15   4.2046e-17 
   7436.675   4.3557e-17 
     7438.2    4.131e-17 
   7439.725   4.0537e-17 
    7441.25   3.5952e-17 
   7442.775   3.6442e-17 
     7444.3   3.7891e-17 
   7445.825   3.5896e-17 
    7447.35   3.7684e-17 
   7448.875   4.1154e-17 
     7450.4   3.8478e-17 
   7451.925   3.9743e-17 
    7453.45   4.0596e-17 
   7454.975   4.1954e-17 
     7456.5   4.0774e-17 
   7458.025   3.8497e-17 
    7459.55   4.1308e-17 
   7461.075   4.0093e-17 
     7462.6   3.8814e-17 
   7464.125   4.2079e-17 
    7465.65   4.3538e-17 
   7467.175   4.3862e-17 
     7468.7   4.7631e-17 
   7470.225    5.926e-17 
    7471.75   5.9406e-17 
   7473.275   4.2562e-17 
     7474.8   3.6273e-17 
   7476.325   3.9512e-17 
    7477.85   3.9528e-17 
   7479.375   3.7498e-17 
     7480.9    4.008e-17 
   7482.425   4.2352e-17 
    7483.95   4.0535e-17 
   7485.475   4.1111e-17 
     7487.0   4.1312e-17 
   7488.525    4.141e-17 
    7490.05   4.5046e-17 
   7491.575   4.6418e-17 
     7493.1   4.2562e-17 
   7494.625   4.1912e-17 
    7496.15   4.3514e-17 
   7497.675   4.2875e-17 
     7499.2   4.1664e-17 
   7500.725   3.9657e-17 
    7502.25   3.9551e-17 
   7503.775   4.0488e-17 
     7505.3   3.7559e-17 
   7506.825   3.7451e-17 
    7508.35   4.1992e-17 
   7509.875   3.9629e-17 
     7511.4   3.6992e-17 
   7512.925    3.962e-17 
    7514.45   4.0387e-17 
   7515.975   4.0824e-17 
     7517.5   4.0772e-17 
   7519.025   4.1427e-17 
    7520.55    4.332e-17 
   7522.075    4.089e-17 
     7523.6   3.5414e-17 
   7525.125   3.6748e-17 
    7526.65   4.1164e-17 
   7528.175   4.4273e-17 
     7529.7    4.499e-17 
   7531.225   4.2162e-17 
    7532.75   4.1387e-17 
   7534.275   4.2238e-17 
     7535.8   4.2057e-17 
   7537.325   4.1969e-17 
    7538.85   4.0464e-17 
   7540.375   4.1489e-17 
     7541.9    4.539e-17 
   7543.425   4.2908e-17 
    7544.95   4.0032e-17 
   7546.475   3.9888e-17 
     7548.0    4.179e-17 
   7549.525   4.1488e-17 
    7551.05   4.2047e-17 
   7552.575   4.4875e-17 
     7554.1   4.2909e-17 
   7555.625   4.3992e-17 
    7557.15   4.7465e-17 
   7558.675   4.9985e-17 
     7560.2   4.9741e-17 
   7561.725   4.5406e-17 
    7563.25   4.3561e-17 
   7564.775   4.1771e-17 
     7566.3   4.2627e-17 
   7567.825   4.6258e-17 
    7569.35    4.189e-17 
   7570.875   4.1314e-17 
     7572.4    4.934e-17 
   7573.925    4.535e-17 
    7575.45   4.3089e-17 
   7576.975   4.1847e-17 
     7578.5   4.6528e-17 
   7580.025   4.5597e-17 
    7581.55   4.4927e-17 
   7583.075   4.7022e-17 
     7584.6   4.2966e-17 
   7586.125   4.2091e-17 
    7587.65   4.4726e-17 
   7589.175   4.5244e-17 
     7590.7   4.1694e-17 
   7592.225   3.7961e-17 
    7593.75   3.7009e-17 
   7595.275   3.5033e-17 
     7596.8   3.1043e-17 
   7598.325    3.267e-17 
    7599.85   3.4077e-17 
   7601.375   2.9155e-17 
     7602.9   2.8897e-17 
   7604.425   3.1616e-17 
    7605.95   3.4719e-17 
   7607.475   3.4887e-17 
     7609.0   4.3847e-17 
   7610.525   5.4314e-17 
    7612.05    5.269e-17 
   7613.575   4.9081e-17 
     7615.1   5.2664e-17 
   7616.625   5.3972e-17 
    7618.15   5.3811e-17 
   7619.675   5.5695e-17 
     7621.2   4.8932e-17 
   7622.725   3.5221e-17 
    7624.25   3.0267e-17 
   7625.775   3.6487e-17 
     7627.3   4.2118e-17 
   7628.825    4.092e-17 
    7630.35   4.2714e-17 
   7631.875    5.075e-17 
     7633.4    5.107e-17 
   7634.925   4.3364e-17 
    7636.45   4.4674e-17 
   7637.975   4.5762e-17 
     7639.5   3.9801e-17 
   7641.025    4.293e-17 
    7642.55   4.9618e-17 
   7644.075   4.6857e-17 
     7645.6   4.2991e-17 
   7647.125   4.9344e-17 
    7648.65   5.1345e-17 
   7650.175   4.2659e-17 
     7651.7   4.2581e-17 
   7653.225    4.755e-17 
    7654.75   4.4182e-17 
   7656.275   4.3186e-17 
     7657.8   4.9073e-17 
   7659.325    5.171e-17 
    7660.85   4.9175e-17 
   7662.375    4.716e-17 
     7663.9   4.6803e-17 
   7665.425   4.3422e-17 
    7666.95   3.8821e-17 
   7668.475   3.9515e-17 
     7670.0   4.1788e-17 
   7671.525   4.0822e-17 
    7673.05   4.0847e-17 
   7674.575   4.3113e-17 
     7676.1   4.4748e-17 
   7677.625   4.5955e-17 
    7679.15   4.5023e-17 
   7680.675   4.6632e-17 
     7682.2   4.5347e-17 
   7683.725   4.5543e-17 
    7685.25   4.6408e-17 
   7686.775   4.3335e-17 
     7688.3   4.0718e-17 
   7689.825   3.9986e-17 
    7691.35   4.3844e-17 
   7692.875   4.1956e-17 
     7694.4   4.0154e-17 
   7695.925   3.9916e-17 
    7697.45   3.8327e-17 
   7698.975   3.8003e-17 
     7700.5   4.0428e-17 
   7702.025   4.2195e-17 
    7703.55   4.0596e-17 
   7705.075   3.7658e-17 
     7706.6   3.9408e-17 
   7708.125   4.4909e-17 
    7709.65   4.8902e-17 
   7711.175   4.7803e-17 
     7712.7   4.3399e-17 
   7714.225   4.1806e-17 
    7715.75   4.5882e-17 
   7717.275   4.3738e-17 
     7718.8   3.9086e-17 
   7720.325    3.653e-17 
    7721.85   4.2195e-17 
   7723.375    5.109e-17 
     7724.9   4.6667e-17 
   7726.425   3.8121e-17 
    7727.95   4.0316e-17 
   7729.475   4.2848e-17 
     7731.0   4.3385e-17 
   7732.525   4.6492e-17 
    7734.05   4.4643e-17 
   7735.575   4.2321e-17 
     7737.1   4.3448e-17 
   7738.625   4.5634e-17 
    7740.15   4.4862e-17 
   7741.675   4.0815e-17 
     7743.2   4.2763e-17 
   7744.725   4.4304e-17 
    7746.25   4.6999e-17 
   7747.775   5.1508e-17 
     7749.3   5.2252e-17 
   7750.825   5.1319e-17 
    7752.35    4.446e-17 
   7753.875   3.8865e-17 
     7755.4   4.1791e-17 
   7756.925   4.3236e-17 
    7758.45   4.3398e-17 
   7759.975   4.8944e-17 
     7761.5   4.6568e-17 
   7763.025   3.8551e-17 
    7764.55   3.9713e-17 
   7766.075   4.3267e-17 
     7767.6   4.3391e-17 
   7769.125   3.9769e-17 
    7770.65   3.7568e-17 
   7772.175   4.0199e-17 
     7773.7   4.1371e-17 
   7775.225   4.1383e-17 
    7776.75   4.2581e-17 
   7778.275   4.3196e-17 
     7779.8   4.1811e-17 
   7781.325   4.2433e-17 
    7782.85   4.6357e-17 
   7784.375   4.5492e-17 
     7785.9   4.2089e-17 
   7787.425   4.3167e-17 
    7788.95   4.2448e-17 
   7790.475    4.337e-17 
     7792.0   4.7399e-17 
   7793.525   4.6073e-17 
    7795.05   4.0562e-17 
   7796.575   4.0855e-17 
     7798.1   4.1183e-17 
   7799.625   3.9224e-17 
    7801.15   3.9362e-17 
   7802.675   4.2342e-17 
     7804.2   4.1366e-17 
   7805.725   3.9753e-17 
    7807.25   4.2626e-17 
   7808.775   4.3891e-17 
     7810.3   4.1305e-17 
   7811.825   4.0494e-17 
    7813.35   4.3239e-17 
   7814.875   4.2941e-17 
     7816.4   3.9724e-17 
   7817.925   4.1954e-17 
    7819.45   4.0313e-17 
   7820.975   3.8161e-17 
     7822.5   3.6769e-17 
   7824.025   3.8961e-17 
    7825.55   3.7858e-17 
   7827.075   3.9316e-17 
     7828.6   4.1152e-17 
   7830.125   4.2448e-17 
    7831.65   4.1342e-17 
   7833.175   3.9283e-17 
     7834.7   4.1693e-17 
   7836.225   4.0385e-17 
    7837.75   4.0017e-17 
   7839.275   3.9258e-17 
     7840.8   3.9553e-17 
   7842.325   4.2222e-17 
    7843.85   4.0484e-17 
   7845.375   4.0117e-17 
     7846.9     4.11e-17 
   7848.425   4.0943e-17 
    7849.95   3.7053e-17 
   7851.475   3.6008e-17 
     7853.0    4.379e-17 
   7854.525   4.2181e-17 
    7856.05   3.9444e-17 
   7857.575   3.9151e-17 
     7859.1    3.762e-17 
   7860.625   3.9966e-17 
    7862.15   4.5406e-17 
   7863.675   4.6337e-17 
     7865.2   4.8226e-17 
   7866.725    4.987e-17 
    7868.25   4.5344e-17 
   7869.775   3.9342e-17 
     7871.3   4.0734e-17 
   7872.825   4.0283e-17 
    7874.35   3.5338e-17 
   7875.875   3.2611e-17 
     7877.4   3.7552e-17 
   7878.925   4.8253e-17 
    7880.45   5.6329e-17 
   7881.975   5.6709e-17 
     7883.5   5.4679e-17 
   7885.025   5.1781e-17 
    7886.55   4.4643e-17 
   7888.075   4.3447e-17 
     7889.6   4.4399e-17 
   7891.125    3.978e-17 
    7892.65    3.824e-17 
   7894.175   4.0437e-17 
     7895.7   4.1441e-17 
   7897.225   3.9269e-17 
    7898.75   3.9915e-17 
   7900.275   4.1982e-17 
     7901.8   4.0341e-17 
   7903.325    4.069e-17 
    7904.85   3.9401e-17 
   7906.375   3.8637e-17 
     7907.9   4.2811e-17 
   7909.425   4.5806e-17 
    7910.95   5.1084e-17 
   7912.475   5.2214e-17 
     7914.0   4.5586e-17 
   7915.525   4.4786e-17 
    7917.05   4.1537e-17 
   7918.575   3.9244e-17 
     7920.1   4.4891e-17 
   7921.625   5.0686e-17 
    7923.15   4.7643e-17 
   7924.675   3.4195e-17 
     7926.2   3.6678e-17 
   7927.725   4.0307e-17 
    7929.25   3.7079e-17 
   7930.775    3.787e-17 
     7932.3   3.5221e-17 
   7933.825     3.56e-17 
    7935.35   3.5726e-17 
   7936.875   3.9094e-17 
     7938.4    4.165e-17 
   7939.925   4.0306e-17 
    7941.45   3.7186e-17 
   7942.975   3.9049e-17 
     7944.5   3.9785e-17 
   7946.025   4.1421e-17 
    7947.55   4.1125e-17 
   7949.075   4.4116e-17 
     7950.6   4.1484e-17 
   7952.125   3.9777e-17 
    7953.65   4.0857e-17 
   7955.175   4.2941e-17 
     7956.7   4.1292e-17 
   7958.225    4.045e-17 
    7959.75   4.4307e-17 
   7961.275   4.7619e-17 
     7962.8   4.6342e-17 
   7964.325   4.3043e-17 
    7965.85   4.4552e-17 
   7967.375   4.0284e-17 
     7968.9   3.2369e-17 
   7970.425   3.5811e-17 
    7971.95   4.2393e-17 
   7973.475   4.0985e-17 
     7975.0   3.7839e-17 
   7976.525   3.8602e-17 
    7978.05   3.3997e-17 
   7979.575   3.6991e-17 
     7981.1   4.0673e-17 
   7982.625   3.7084e-17 
    7984.15   3.3312e-17 
   7985.675   3.7128e-17 
     7987.2   3.9704e-17 
   7988.725   3.6073e-17 
    7990.25   4.0706e-17 
   7991.775   4.0683e-17 
     7993.3   3.8027e-17 
   7994.825   4.1292e-17 
    7996.35   4.3421e-17 
   7997.875   4.2529e-17 
     7999.4    3.746e-17 
   8000.925   3.8337e-17 
    8002.45    4.347e-17 
   8003.975   4.0869e-17 
     8005.5   3.5147e-17 
   8007.025   3.8141e-17 
    8008.55   4.3217e-17 
   8010.075     4.12e-17 
     8011.6   4.1742e-17 
   8013.125   4.3925e-17 
    8014.65   4.3677e-17 
   8016.175   4.1941e-17 
     8017.7   3.9946e-17 
   8019.225   3.8639e-17 
    8020.75   3.5723e-17 
   8022.275     3.79e-17 
     8023.8   4.7048e-17 
   8025.325   4.4348e-17 
    8026.85   3.2969e-17 
   8028.375   3.0072e-17 
     8029.9   3.6377e-17 
   8031.425   3.8022e-17 
    8032.95    3.765e-17 
   8034.475   3.8986e-17 
     8036.0   3.7959e-17 
   8037.525   3.7958e-17 
    8039.05   3.7055e-17 
   8040.575   4.0102e-17 
     8042.1   3.6631e-17 
   8043.625   3.4602e-17 
    8045.15   3.7305e-17 
   8046.675   3.9829e-17 
     8048.2   3.8081e-17 
   8049.725   3.9024e-17 
    8051.25   4.0548e-17 
   8052.775   4.1305e-17 
     8054.3    3.798e-17 
   8055.825   3.6145e-17 
    8057.35   3.6624e-17 
   8058.875   3.4003e-17 
     8060.4   3.5603e-17 
   8061.925    3.942e-17 
    8063.45   3.5178e-17 
   8064.975   3.3695e-17 
     8066.5   3.7931e-17 
   8068.025   3.8235e-17 
    8069.55   3.4541e-17 
   8071.075   3.4648e-17 
     8072.6    3.701e-17 
   8074.125   3.7121e-17 
    8075.65   3.8562e-17 
   8077.175   4.2513e-17 
     8078.7   4.1003e-17 
   8080.225   3.3664e-17 
    8081.75   3.2359e-17 
   8083.275   3.4462e-17 
     8084.8   3.7099e-17 
   8086.325   3.6597e-17 
    8087.85   3.6171e-17 
   8089.375   3.6548e-17 
     8090.9   3.7061e-17 
   8092.425    3.993e-17 
    8093.95   3.9998e-17 
   8095.475   3.3486e-17 
     8097.0   2.9984e-17 
   8098.525   3.2704e-17 
    8100.05   3.5866e-17 
   8101.575   3.7409e-17 
     8103.1   3.7008e-17 
   8104.625   3.6508e-17 
    8106.15   3.7093e-17 
   8107.675   3.5503e-17 
     8109.2   3.8005e-17 
   8110.725   3.8873e-17 
    8112.25   3.5605e-17 
   8113.775   3.5656e-17 
     8115.3   3.4025e-17 
   8116.825   3.1539e-17 
    8118.35    3.256e-17 
   8119.875   3.4227e-17 
     8121.4   3.1789e-17 
   8122.925   3.2102e-17 
    8124.45   3.8454e-17 
   8125.975   4.0483e-17 
     8127.5   3.8427e-17 
   8129.025    3.607e-17 
    8130.55   3.6427e-17 
   8132.075   3.6088e-17 
     8133.6    3.276e-17 
   8135.125   3.2091e-17 
    8136.65    3.327e-17 
   8138.175   3.4275e-17 
     8139.7   3.2513e-17 
   8141.225   3.1866e-17 
    8142.75   3.4056e-17 
   8144.275   3.4406e-17 
     8145.8   3.5154e-17 
   8147.325   3.7729e-17 
    8148.85   4.0454e-17 
   8150.375   3.7271e-17 
     8151.9   3.1897e-17 
   8153.425   3.5258e-17 
    8154.95   3.4649e-17 
   8156.475   3.3694e-17 
     8158.0   3.3193e-17 
   8159.525   3.5658e-17 
    8161.05   3.6947e-17 
   8162.575   3.9255e-17 
     8164.1   4.0041e-17 
   8165.625    3.757e-17 
    8167.15    3.657e-17 
   8168.675    3.761e-17 
     8170.2   3.8046e-17 
   8171.725   3.7009e-17 
    8173.25   3.6389e-17 
   8174.775   3.7149e-17 
     8176.3   3.4809e-17 
   8177.825   3.6704e-17 
    8179.35    4.026e-17 
   8180.875   3.8728e-17 
     8182.4   3.2823e-17 
   8183.925   3.3101e-17 
    8185.45   3.8348e-17 
   8186.975   3.4657e-17 
     8188.5    3.318e-17 
   8190.025   3.4306e-17 
    8191.55   3.6573e-17 
   8193.075    3.634e-17 
     8194.6   3.3418e-17 
   8196.125   3.4636e-17 
    8197.65   3.2988e-17 
   8199.175   3.1226e-17 
     8200.7   3.4155e-17 
   8202.225   3.8096e-17 
    8203.75   3.6895e-17 
   8205.275   3.6453e-17 
     8206.8   3.7251e-17 
   8208.325   3.4881e-17 
    8209.85   3.2464e-17 
   8211.375   3.2859e-17 
     8212.9   3.5519e-17 
   8214.425   3.4451e-17 
    8215.95    3.257e-17 
   8217.475   3.3195e-17 
     8219.0   3.2511e-17 
   8220.525   3.1273e-17 
    8222.05   3.4454e-17 
   8223.575   3.6548e-17 
     8225.1   3.3375e-17 
   8226.625   3.1548e-17 
    8228.15   3.4555e-17 
   8229.675    3.754e-17 
     8231.2   3.3805e-17 
   8232.725   3.2012e-17 
    8234.25   3.6413e-17 
   8235.775   3.8238e-17 
     8237.3   3.6912e-17 
   8238.825   3.5052e-17 
    8240.35   3.4081e-17 
   8241.875   3.4089e-17 
     8243.4   3.4691e-17 
   8244.925   3.4842e-17 
    8246.45   3.5277e-17 
   8247.975   3.3758e-17 
     8249.5   3.3696e-17 
   8251.025   3.5343e-17 
    8252.55   3.2349e-17 
   8254.075   3.1005e-17 
     8255.6   3.1861e-17 
   8257.125   3.2182e-17 
    8258.65   3.3364e-17 
   8260.175   3.5208e-17 
     8261.7   3.3926e-17 
   8263.225   3.1356e-17 
    8264.75   3.3866e-17 
   8266.275   3.4971e-17 
     8267.8   3.5746e-17 
   8269.325   3.5028e-17 
    8270.85   3.4595e-17 
   8272.375    3.327e-17 
     8273.9   2.8415e-17 
   8275.425   3.1532e-17 
    8276.95    4.023e-17 
   8278.475   3.8355e-17 
     8280.0   3.3838e-17 
   8281.525   3.5106e-17 
    8283.05   3.1168e-17 
   8284.575   2.5628e-17 
     8286.1   2.2191e-17 
   8287.625   3.1161e-17 
    8289.15   4.2652e-17 
   8290.675   4.1285e-17 
     8292.2   4.0414e-17 
   8293.725   3.6438e-17 
    8295.25   3.2487e-17 
   8296.775   2.8664e-17 
     8298.3   2.5919e-17 
   8299.825   3.4055e-17 
    8301.35   3.2832e-17 
   8302.875    3.135e-17 
     8304.4   3.6597e-17 
   8305.925   3.5331e-17 
    8307.45   3.1672e-17 
   8308.975   3.3321e-17 
     8310.5   3.2546e-17 
   8312.025   3.0447e-17 
    8313.55   3.3768e-17 
   8315.075    3.327e-17 
     8316.6   3.1915e-17 
   8318.125   3.4481e-17 
    8319.65   3.3518e-17 
   8321.175   3.5038e-17 
     8322.7   3.7057e-17 
   8324.225   3.4195e-17 
    8325.75    3.227e-17 
   8327.275   3.0505e-17 
     8328.8   2.8268e-17 
   8330.325   3.2262e-17 
    8331.85   3.2918e-17 
   8333.375   2.9664e-17 
     8334.9    3.416e-17 
   8336.425    3.391e-17 
    8337.95    3.042e-17 
   8339.475   3.2245e-17 
     8341.0   3.7311e-17 
   8342.525     3.88e-17 
    8344.05   3.1513e-17 
   8345.575   3.3047e-17 
     8347.1   3.9479e-17 
   8348.625   3.4009e-17 
    8350.15   3.0387e-17 
   8351.675   3.8472e-17 
     8353.2   3.8038e-17 
   8354.725   2.9987e-17 
    8356.25   2.6802e-17 
   8357.775   2.9226e-17 
     8359.3   2.9524e-17 
   8360.825   3.1266e-17 
    8362.35   3.5332e-17 
   8363.875   3.3309e-17 
     8365.4   3.4977e-17 
   8366.925   3.7291e-17 
    8368.45   3.4936e-17 
   8369.975   3.0714e-17 
     8371.5   2.7127e-17 
   8373.025   3.0729e-17 
    8374.55   3.5371e-17 
   8376.075   3.3444e-17 
     8377.6   3.0741e-17 
   8379.125   2.7592e-17 
    8380.65   2.8823e-17 
   8382.175   2.7778e-17 
     8383.7   3.0132e-17 
   8385.225   3.5455e-17 
    8386.75   3.2326e-17 
   8388.275   3.1772e-17 
     8389.8    3.386e-17 
   8391.325   3.5754e-17 
    8392.85   3.2681e-17 
   8394.375   2.7039e-17 
     8395.9   2.0091e-17 
   8397.425   2.2536e-17 
    8398.95   2.8814e-17 
   8400.475   3.4331e-17 
     8402.0   3.7533e-17 
   8403.525   3.2474e-17 
    8405.05   2.9684e-17 
   8406.575   3.1463e-17 
     8408.1   3.3724e-17 
   8409.625   3.3153e-17 
    8411.15   3.1071e-17 
   8412.675   3.3362e-17 
     8414.2   3.4065e-17 
   8415.725   3.0483e-17 
    8417.25   2.7721e-17 
   8418.775   2.5154e-17 
     8420.3   2.8199e-17 
   8421.825   3.2664e-17 
    8423.35   3.4047e-17 
   8424.875   2.7174e-17 
     8426.4   2.2576e-17 
   8427.925   2.3801e-17 
    8429.45   2.7948e-17 
   8430.975   3.2587e-17 
     8432.5    3.285e-17 
   8434.025   3.0283e-17 
    8435.55   2.9337e-17 
   8437.075   3.1832e-17 
     8438.6   3.0587e-17 
   8440.125   2.7872e-17 
    8441.65   2.9564e-17 
   8443.175   2.9909e-17 
     8444.7   2.8519e-17 
   8446.225   2.9921e-17 
    8447.75    3.324e-17 
   8449.275   3.1058e-17 
     8450.8   2.8235e-17 
   8452.325   2.8275e-17 
    8453.85   2.8709e-17 
   8455.375   3.2029e-17 
     8456.9   3.0434e-17 
   8458.425   3.1868e-17 
    8459.95    3.288e-17 
   8461.475   2.9819e-17 
     8463.0        3e-17 
   8464.525   2.8752e-17 
    8466.05    3.072e-17 
   8467.575   3.0471e-17 
     8469.1   2.6822e-17 
   8470.625   2.8284e-17 
    8472.15   2.8467e-17 
   8473.675   2.7355e-17 
     8475.2   3.1741e-17 
   8476.725   3.2023e-17 
    8478.25   3.1063e-17 
   8479.775   3.4022e-17 
     8481.3   3.3664e-17 
   8482.825   3.0795e-17 
    8484.35   2.9841e-17 
   8485.875     3.23e-17 
     8487.4   3.0707e-17 
   8488.925   2.9869e-17 
    8490.45   3.0424e-17 
   8491.975   3.6239e-17 
     8493.5   3.7828e-17 
   8495.025   3.3249e-17 
    8496.55   3.3265e-17 
   8498.075   3.4502e-17 
     8499.6   3.3216e-17 
   8501.125   3.0938e-17 
    8502.65   3.5235e-17 
   8504.175   3.9933e-17 
     8505.7   3.6358e-17 
   8507.225   3.6936e-17 
    8508.75   3.1568e-17 
   8510.275    2.873e-17 
     8511.8   2.8524e-17 
   8513.325   3.0143e-17 
    8514.85   3.0179e-17 
   8516.375   3.0552e-17 
     8517.9   3.5231e-17 
   8519.425   3.7425e-17 
    8520.95   3.3079e-17 
   8522.475    3.237e-17 
     8524.0   3.4577e-17 
   8525.525   3.3586e-17 
    8527.05   3.0018e-17 
   8528.575   3.0431e-17 
     8530.1    3.353e-17 
   8531.625   3.1881e-17 
    8533.15   2.9077e-17 
   8534.675   3.3128e-17 
     8536.2   3.6264e-17 
   8537.725   3.1468e-17 
    8539.25   3.2466e-17 
   8540.775   3.5097e-17 
     8542.3   3.4048e-17 
   8543.825   3.3487e-17 
    8545.35   3.7434e-17 
   8546.875   3.7336e-17 
     8548.4    3.143e-17 
   8549.925   2.8678e-17 
    8551.45   2.7516e-17 
   8552.975   2.8176e-17 
     8554.5   3.0365e-17 
   8556.025   3.3901e-17 
    8557.55   3.3465e-17 
   8559.075   3.1176e-17 
     8560.6   3.2958e-17 
   8562.125   3.4558e-17 
    8563.65   3.1183e-17 
   8565.175   3.0957e-17 
     8566.7   3.4375e-17 
   8568.225   3.5049e-17 
    8569.75    3.385e-17 
   8571.275   3.2317e-17 
     8572.8   3.3818e-17 
   8574.325   3.5045e-17 
    8575.85   3.3223e-17 
   8577.375   2.9729e-17 
     8578.9    3.297e-17 
   8580.425   3.3836e-17 
    8581.95   3.3027e-17 
   8583.475   3.3375e-17 
     8585.0   3.3501e-17 
   8586.525   3.2214e-17 
    8588.05   3.3347e-17 
   8589.575   3.4492e-17 
     8591.1   3.1678e-17 
   8592.625   3.2517e-17 
    8594.15    3.846e-17 
   8595.675   3.7615e-17 
     8597.2   3.5068e-17 
   8598.725   3.3205e-17 
    8600.25   3.4028e-17 
   8601.775   3.2529e-17 
     8603.3   2.8809e-17 
   8604.825   3.1244e-17 
    8606.35   3.3605e-17 
   8607.875   3.1232e-17 
     8609.4   2.9837e-17 
   8610.925   3.2897e-17 
    8612.45   3.4925e-17 
   8613.975   3.3828e-17 
     8615.5   3.0094e-17 
   8617.025    2.912e-17 
    8618.55   3.1687e-17 
   8620.075    3.352e-17 
     8621.6   3.0295e-17 
   8623.125   2.8568e-17 
    8624.65   2.9921e-17 
   8626.175   3.2905e-17 
     8627.7   3.6725e-17 
   8629.225   3.4409e-17 
    8630.75    3.539e-17 
   8632.275   3.6421e-17 
     8633.8   2.9543e-17 
   8635.325   2.7642e-17 
    8636.85   2.9144e-17 
   8638.375   2.8149e-17 
     8639.9   3.0174e-17 
   8641.425    3.222e-17 
    8642.95   3.3388e-17 
   8644.475   2.8464e-17 
     8646.0   2.2722e-17 
   8647.525   2.8032e-17 
    8649.05     3.44e-17 
   8650.575   3.6113e-17 
     8652.1   3.9545e-17 
   8653.625   3.6294e-17 
    8655.15    3.204e-17 
   8656.675   3.4029e-17 
     8658.2   3.0935e-17 
   8659.725   3.0168e-17 
    8661.25   3.2239e-17 
   8662.775   2.9928e-17 
     8664.3   2.8664e-17 
   8665.825    3.216e-17 
    8667.35    3.376e-17 
   8668.875   3.0784e-17 
     8670.4   2.9778e-17 
   8671.925   3.0988e-17 
    8673.45   3.1335e-17 
   8674.975   3.1722e-17 
     8676.5   2.9978e-17 
   8678.025    3.154e-17 
    8679.55   3.2128e-17 
   8681.075    2.916e-17 
     8682.6   2.7549e-17 
   8684.125   2.8738e-17 
    8685.65   2.9848e-17 
   8687.175   3.1336e-17 
     8688.7   2.9091e-17 
   8690.225   3.1743e-17 
    8691.75   3.2267e-17 
   8693.275   2.8602e-17 
     8694.8    2.909e-17 
   8696.325   3.2769e-17 
    8697.85   3.3574e-17 
   8699.375    3.527e-17 
     8700.9   3.2859e-17 
   8702.425   3.0553e-17 
    8703.95   3.3247e-17 
   8705.475   3.0934e-17 
     8707.0   2.9794e-17 
   8708.525   2.9487e-17 
    8710.05   2.9238e-17 
   8711.575   2.8485e-17 
     8713.1   3.0205e-17 
   8714.625   2.9092e-17 
    8716.15   2.6666e-17 
   8717.675   2.6894e-17 
     8719.2   2.8856e-17 
   8720.725   2.8625e-17 
    8722.25   2.9068e-17 
   8723.775   3.0999e-17 
     8725.3   3.3441e-17 
   8726.825   3.1542e-17 
    8728.35   3.1218e-17 
   8729.875   2.8502e-17 
     8731.4   2.6315e-17 
   8732.925   2.5377e-17 
    8734.45   2.4471e-17 
   8735.975     2.63e-17 
     8737.5   2.8154e-17 
   8739.025   2.7306e-17 
    8740.55    2.642e-17 
   8742.075   2.8473e-17 
     8743.6   3.0244e-17 
   8745.125   2.9824e-17 
    8746.65   2.9377e-17 
   8748.175   3.0928e-17 
     8749.7   3.1251e-17 
   8751.225   2.8782e-17 
    8752.75   2.4552e-17 
   8754.275   2.7233e-17 
     8755.8   3.0336e-17 
   8757.325   2.7223e-17 
    8758.85    2.882e-17 
   8760.375   2.5088e-17 
     8761.9    2.442e-17 
   8763.425    3.347e-17 
    8764.95   2.8889e-17 
   8766.475   2.6893e-17 
     8768.0   3.9934e-17 
   8769.525    3.906e-17 
    8771.05   2.7439e-17 
   8772.575   2.7225e-17 
     8774.1     3.01e-17 
   8775.625   3.2842e-17 
    8777.15   3.7907e-17 
   8778.675   3.7661e-17 
     8780.2   2.6287e-17 
   8781.725   1.9852e-17 
    8783.25   2.1091e-17 
   8784.775   2.2371e-17 
     8786.3   2.4407e-17 
   8787.825   2.8894e-17 
    8789.35   3.4186e-17 
   8790.875   3.6382e-17 
     8792.4   3.1739e-17 
   8793.925   3.0779e-17 
    8795.45   2.7558e-17 
   8796.975   2.6301e-17 
     8798.5   2.7453e-17 
   8800.025   2.3866e-17 
    8801.55   2.4385e-17 
   8803.075    2.591e-17 
     8804.6   2.4986e-17 
   8806.125   2.6311e-17 
    8807.65   2.7713e-17 
   8809.175   2.8268e-17 
     8810.7   2.6571e-17 
   8812.225   2.4757e-17 
    8813.75    2.569e-17 
   8815.275   2.9206e-17 
     8816.8   2.9791e-17 
   8818.325   3.0382e-17 
    8819.85   2.9642e-17 
   8821.375   2.6604e-17 
     8822.9   2.9088e-17 
   8824.425   4.2675e-17 
    8825.95   4.2432e-17 
   8827.475   3.2412e-17 
     8829.0   5.4409e-17 
   8830.525   4.3996e-17 
    8832.05   2.2903e-17 
   8833.575   2.5621e-17 
     8835.1   2.4879e-17 
   8836.625    2.093e-17 
    8838.15   2.8114e-17 
   8839.675   2.2658e-17 
     8841.2   2.0678e-17 
   8842.725   2.5462e-17 
    8844.25   2.2921e-17 
   8845.775   2.2768e-17 
     8847.3   2.2319e-17 
   8848.825   2.1011e-17 
    8850.35    1.955e-17 
   8851.875   2.2341e-17 
     8853.4   2.6717e-17 
   8854.925   2.4833e-17 
    8856.45   2.2958e-17 
   8857.975   2.5621e-17 
     8859.5   2.8115e-17 
   8861.025   2.4222e-17 
    8862.55   2.0881e-17 
   8864.075   2.4543e-17 
     8865.6   2.3408e-17 
   8867.125   2.2534e-17 
    8868.65   2.6952e-17 
   8870.175   2.0647e-17 
     8871.7   1.9988e-17 
   8873.225   2.6378e-17 
    8874.75   2.6823e-17 
   8876.275   2.4075e-17 
     8877.8   2.4667e-17 
   8879.325    2.354e-17 
    8880.85   1.7432e-17 
   8882.375   1.8925e-17 
     8883.9   2.9093e-17 
   8885.425   2.6611e-17 
    8886.95   2.1122e-17 
   8888.475   2.3106e-17 
     8890.0   2.3089e-17 
   8891.525   2.4532e-17 
    8893.05   2.6078e-17 
   8894.575   2.6805e-17 
     8896.1   2.6805e-17 
   8897.625   2.3076e-17 
    8899.15   2.3517e-17 
   8900.675   3.0779e-17 
     8902.2   3.0727e-17 
   8903.725    2.888e-17 
    8905.25   2.5955e-17 
   8906.775   2.2247e-17 
     8908.3   1.9715e-17 
   8909.825   2.4922e-17 
    8911.35    2.933e-17 
   8912.875   2.4101e-17 
     8914.4   2.2412e-17 
   8915.925   2.9418e-17 
    8917.45    3.407e-17 
   8918.975   3.3097e-17 
     8920.5   3.7302e-17 
   8922.025   2.5774e-17 
    8923.55   1.6984e-17 
   8925.075    2.103e-17 
     8926.6   2.3879e-17 
   8928.125   2.4961e-17 
    8929.65   2.7344e-17 
   8931.175   2.5175e-17 
     8932.7   2.7078e-17 
   8934.225   3.0714e-17 
    8935.75   2.6475e-17 
   8937.275   2.4622e-17 
     8938.8   2.4049e-17 
   8940.325   1.7254e-17 
    8941.85   1.5426e-17 
   8943.375   2.3765e-17 
     8944.9   3.1431e-17 
   8946.425   2.4735e-17 
    8947.95   1.8459e-17 
   8949.475   2.2645e-17 
     8951.0   2.6472e-17 
   8952.525   2.0903e-17 
    8954.05   1.4605e-17 
   8955.575   2.4531e-17 
     8957.1   2.7295e-17 
   8958.625   2.4482e-17 
    8960.15   3.4661e-17 
   8961.675   2.9284e-17 
     8963.2   1.6462e-17 
   8964.725   2.0719e-17 
    8966.25   2.6455e-17 
   8967.775   2.5434e-17 
     8969.3   2.5069e-17 
   8970.825   2.6043e-17 
    8972.35   2.6344e-17 
   8973.875   2.5498e-17 
     8975.4   2.8321e-17 
   8976.925   2.8951e-17 
    8978.45   2.3875e-17 
   8979.975   2.3776e-17 
     8981.5   2.4129e-17 
   8983.025   2.4992e-17 
    8984.55   2.6587e-17 
   8986.075   3.1534e-17 
     8987.6   2.5688e-17 
   8989.125   2.4802e-17 
    8990.65   2.7685e-17 
   8992.175   2.6707e-17 
     8993.7   3.0749e-17 
   8995.225   2.8731e-17 
    8996.75   2.3336e-17 
   8998.275   2.7688e-17 
     8999.8   2.7389e-17 
   9001.325   2.4251e-17 
    9002.85   3.4746e-17 
   9004.375   2.7559e-17 
     9005.9   2.0483e-17 
   9007.425   2.1306e-17 
    9008.95   2.2202e-17 
   9010.475   2.4552e-17 
     9012.0   2.2568e-17 
   9013.525   2.4298e-17 
    9015.05   2.7445e-17 
   9016.575   2.6534e-17 
     9018.1   2.6033e-17 
   9019.625   2.6047e-17 
    9021.15   2.2402e-17 
   9022.675   2.1458e-17 
     9024.2   2.2788e-17 
   9025.725    2.585e-17 
    9027.25     2.69e-17 
   9028.775   2.4316e-17 
     9030.3   2.4756e-17 
   9031.825   2.3063e-17 
    9033.35   2.2508e-17 
   9034.875   2.1689e-17 
     9036.4   2.8495e-17 
   9037.925   3.0075e-17 
    9039.45   2.9413e-17 
   9040.975   2.6551e-17 
     9042.5    2.106e-17 
   9044.025    2.004e-17 
    9045.55   2.1469e-17 
   9047.075   2.6152e-17 
     9048.6   2.6527e-17 
   9050.125   2.0316e-17 
    9051.65   2.1932e-17 
   9053.175    2.506e-17 
     9054.7    2.429e-17 
   9056.225   2.6244e-17 
    9057.75   2.6027e-17 
   9059.275   2.3155e-17 
     9060.8    2.142e-17 
   9062.325   2.4714e-17 
    9063.85     2.64e-17 
   9065.375   2.0995e-17 
     9066.9   2.1535e-17 
   9068.425   2.5535e-17 
    9069.95   2.6098e-17 
   9071.475   2.5906e-17 
     9073.0   2.5648e-17 
   9074.525   2.4654e-17 
    9076.05   2.3628e-17 
   9077.575   2.3291e-17 
     9079.1   2.2521e-17 
   9080.625   2.4239e-17 
    9082.15   2.5967e-17 
   9083.675   2.6185e-17 
     9085.2   2.5206e-17 
   9086.725   2.4512e-17 
    9088.25     2.19e-17 
   9089.775   2.4747e-17 
     9091.3   2.6734e-17 
   9092.825   2.6494e-17 
    9094.35   2.8441e-17 
   9095.875   2.6877e-17 
     9097.4   2.1714e-17 
   9098.925    2.495e-17 
    9100.45   3.1579e-17 
   9101.975   2.7464e-17 
     9103.5   2.4857e-17 
   9105.025   2.4918e-17 
    9106.55   2.6212e-17 
   9108.075    2.568e-17 
     9109.6   2.7693e-17 
   9111.125   2.8088e-17 
    9112.65   2.7066e-17 
   9114.175   2.6014e-17 
     9115.7   2.4405e-17 
   9117.225   2.5227e-17 
    9118.75   2.5764e-17 
   9120.275   2.6778e-17 
     9121.8   2.9747e-17 
   9123.325     2.77e-17 
    9124.85   2.3471e-17 
   9126.375   2.3156e-17 
     9127.9   2.5518e-17 
   9129.425   2.3173e-17 
    9130.95   2.3694e-17 
   9132.475   2.9173e-17 
     9134.0   2.9332e-17 
   9135.525   2.8931e-17 
    9137.05   3.1874e-17 
   9138.575   3.4695e-17 
     9140.1   3.1711e-17 
   9141.625   2.9202e-17 
    9143.15   3.1057e-17 
   9144.675    2.867e-17 
     9146.2   2.5507e-17 
   9147.725   2.8084e-17 
    9149.25   2.9227e-17 
   9150.775   2.5923e-17 
     9152.3   2.5393e-17 
   9153.825   2.6912e-17 
    9155.35   2.8312e-17 
   9156.875   2.6207e-17 
     9158.4   2.7573e-17 
   9159.925   3.2415e-17 
    9161.45   3.1577e-17 
   9162.975   2.8562e-17 
     9164.5   2.7253e-17 
   9166.025   2.9442e-17 
    9167.55   3.0066e-17 
   9169.075   2.8539e-17 
     9170.6   2.8823e-17 
   9172.125   2.8744e-17 
    9173.65   2.5213e-17 
   9175.175   2.6444e-17 
     9176.7   3.1664e-17 
   9178.225   2.9303e-17 
    9179.75   2.7053e-17 
   9181.275   2.7903e-17 
     9182.8   2.6109e-17 
   9184.325   2.5028e-17 
    9185.85   2.6747e-17 
   9187.375   2.6342e-17 
     9188.9   2.5673e-17 
   9190.425   2.6419e-17 
    9191.95    2.776e-17 
   9193.475   2.7007e-17 
     9195.0   2.7748e-17 
   9196.525   3.1075e-17 
    9198.05   2.9831e-17 
   9199.575   2.7535e-17 
     9201.1   2.7017e-17 
   9202.625    2.475e-17 
    9204.15   2.6771e-17 
   9205.675   2.6312e-17 
     9207.2   2.6923e-17 
   9208.725   2.6778e-17 
    9210.25   2.4996e-17 
   9211.775   2.5037e-17 
     9213.3   2.7326e-17 
   9214.825   2.8618e-17 
    9216.35   3.0201e-17 
   9217.875   2.8614e-17 
     9219.4   3.0213e-17 
   9220.925   2.8741e-17 
    9222.45   2.8122e-17 
   9223.975   2.8955e-17 
     9225.5   2.7167e-17 
   9227.025   2.7238e-17 
    9228.55   2.9582e-17 
   9230.075   2.8351e-17 
     9231.6   2.6996e-17 
   9233.125   2.6759e-17 
    9234.65   2.7493e-17 
   9236.175   2.8684e-17 
     9237.7   2.6132e-17 
   9239.225   2.7616e-17 
    9240.75   3.2091e-17 
   9242.275   3.1285e-17 
     9243.8   2.8622e-17 
   9245.325   2.9351e-17 
    9246.85   2.9366e-17 
   9248.375   2.9082e-17 
     9249.9   2.9635e-17 
   9251.425   2.7166e-17 
    9252.95    2.434e-17 
   9254.475   2.6412e-17 
     9256.0   2.8609e-17 
   9257.525   2.6323e-17 
    9259.05   2.5289e-17 
   9260.575   2.6448e-17 
     9262.1   2.7306e-17 
   9263.625   2.7616e-17 
    9265.15   2.8289e-17 
   9266.675   3.1827e-17 
     9268.2   3.1022e-17 
   9269.725   2.5391e-17 
    9271.25    2.671e-17 
   9272.775   3.1413e-17 
     9274.3     3.01e-17 
   9275.825   2.7138e-17 
    9277.35   2.7165e-17 
   9278.875   2.5535e-17 
     9280.4   2.4085e-17 
   9281.925   2.7169e-17 
    9283.45    2.805e-17 
   9284.975   2.8509e-17 
     9286.5   3.2674e-17 
   9288.025   3.6357e-17 
    9289.55   3.2623e-17 
   9291.075   2.8719e-17 
     9292.6   3.0907e-17 
   9294.125   3.1107e-17 
    9295.65   3.1796e-17 
   9297.175   3.0068e-17 
     9298.7   3.3697e-17 
   9300.225   3.6151e-17 
    9301.75   3.0457e-17 
   9303.275   3.1273e-17 
     9304.8   4.6074e-17 
   9306.325   3.5149e-17 
    9307.85   3.1308e-17 
   9309.375   2.6967e-17 
     9310.9   3.1359e-17 
   9312.425   2.5394e-17 
    9313.95   7.3035e-17 
   9315.475   1.8124e-16 
     9317.0    8.168e-17 
   9318.525   5.7098e-18 
    9320.05   2.3076e-17 
   9321.575   5.2235e-17 
     9323.1   4.5926e-17 
   9324.625   5.1187e-17 
    9326.15   5.1533e-17 
   9327.675   3.0322e-17 
     9329.2    2.474e-17 
   9330.725   3.7884e-17 
    9332.25   3.1772e-17 
   9333.775   1.9696e-17 
     9335.3   3.6096e-17 
   9336.825   4.3074e-17 
    9338.35   4.5369e-17 
   9339.875   5.2209e-17 
     9341.4   3.9109e-17 
   9342.925   2.9314e-17 
    9344.45   3.0103e-17 
   9345.975    3.891e-17 
     9347.5   4.8371e-17 
   9349.025   4.3139e-17 
    9350.55   3.4455e-17 
   9352.075   3.1543e-17 
     9353.6   3.1665e-17 
   9355.125   2.8823e-17 
    9356.65   2.8888e-17 
   9358.175   3.4855e-17 
     9359.7   3.5256e-17 
   9361.225     3.47e-17 
    9362.75   3.6825e-17 
   9364.275   3.1645e-17 
     9365.8   2.4669e-17 
   9367.325   2.3819e-17 
    9368.85    2.209e-17 
   9370.375   2.0522e-17 
     9371.9   4.2862e-17 
   9373.425   6.6358e-17 
    9374.95   5.9088e-17 
   9376.475   4.8234e-17 
     9378.0   2.4623e-17 
   9379.525   1.3396e-17 
    9381.05   2.1043e-17 
   9382.575   2.7306e-17 
     9384.1   3.3306e-17 
   9385.625   3.3769e-17 
    9387.15   3.0173e-17 
   9388.675   3.3202e-17 
     9390.2   3.0853e-17 
   9391.725   3.0156e-17 
    9393.25   2.7309e-17 
   9394.775   2.2408e-17 
     9396.3   2.3422e-17 
   9397.825   2.7188e-17 
    9399.35   3.3513e-17 
   9400.875   4.0301e-17 
     9402.4   3.2169e-17 
   9403.925   2.9973e-17 
    9405.45   2.5956e-17 
   9406.975   2.8786e-17 
     9408.5   2.9485e-17 
   9410.025   2.5904e-17 
    9411.55   2.7051e-17 
   9413.075   3.2903e-17 
     9414.6   3.2351e-17 
   9416.125    2.592e-17 
    9417.65     3.38e-17 
   9419.175   4.2923e-17 
     9420.7   3.5772e-17 
   9422.225   1.8356e-17 
    9423.75   1.6059e-17 
   9425.275   1.8753e-17 
     9426.8   2.1604e-17 
   9428.325   2.8453e-17 
    9429.85   3.3445e-17 
   9431.375   3.6024e-17 
     9432.9   3.2234e-17 
   9434.425   2.8663e-17 
    9435.95   2.6875e-17 
   9437.475   1.8241e-17 
     9439.0   3.7456e-17 
   9440.525   5.7922e-17 
    9442.05   4.5713e-17 
   9443.575   2.2843e-17 
     9445.1   3.0205e-17 
   9446.625   3.9062e-17 
    9448.15    3.329e-17 
   9449.675   3.2233e-17 
     9451.2   3.3928e-17 
   9452.725   3.4212e-17 
    9454.25   3.3148e-17 
   9455.775   2.6918e-17 
     9457.3   1.6521e-17 
   9458.825   1.0049e-17 
    9460.35   5.5126e-18 
   9461.875    9.959e-18 
     9463.4   2.3505e-17 
   9464.925   2.9281e-17 
    9466.45   3.0125e-17 
   9467.975   2.8825e-17 
     9469.5   2.8593e-17 
   9471.025   3.0519e-17 
    9472.55    2.437e-17 
   9474.075   2.1381e-17 
     9475.6   2.4312e-17 
   9477.125   3.4257e-17 
    9478.65   3.3749e-17 
   9480.175    4.796e-18 
     9481.7   1.1446e-17 
   9483.225   2.7286e-17 
    9484.75   3.1272e-17 
   9486.275    3.271e-17 
     9487.8   2.8602e-17 
   9489.325   2.7757e-17 
    9490.85   2.7354e-17 
   9492.375   2.4196e-17 
     9493.9   2.4471e-17 
   9495.425   2.3649e-17 
    9496.95   2.5633e-17 
   9498.475   3.3824e-17 
     9500.0   4.4012e-17 
   9501.525   3.1763e-17 
    9503.05   1.9999e-17 
   9504.575   2.9179e-17 
     9506.1   3.1909e-17 
   9507.625   2.2366e-17 
    9509.15   2.6076e-17 
   9510.675   2.9582e-17 
     9512.2   2.2307e-17 
   9513.725   1.7996e-17 
    9515.25   2.5898e-17 
   9516.775   3.2661e-17 
     9518.3   3.1563e-17 
   9519.825   3.4489e-17 
    9521.35   3.7839e-17 
   9522.875   3.3003e-17 
     9524.4   2.8268e-17 
   9525.925   3.2429e-17 
    9527.45   2.9976e-17 
   9528.975   2.4143e-17 
     9530.5   2.6578e-17 
   9532.025   2.7109e-17 
    9533.55   2.3945e-17 
   9535.075   2.2747e-17 
     9536.6   2.4486e-17 
   9538.125   2.3358e-17 
    9539.65   1.9551e-17 
   9541.175   2.2023e-17 
     9542.7   2.8361e-17 
   9544.225   2.4744e-17 
    9545.75   1.6822e-17 
   9547.275    2.146e-17 
     9548.8   3.1048e-17 
   9550.325   3.9432e-17 
    9551.85   3.1582e-17 
   9553.375   2.4736e-17 
     9554.9   2.5638e-17 
   9556.425   1.7934e-17 
    9557.95   1.9839e-17 
   9559.475   2.5619e-17 
     9561.0   2.3924e-17 
   9562.525   2.5911e-17 
    9564.05    2.645e-17 
   9565.575   9.5607e-18 
     9567.1   1.0131e-17 
   9568.625   2.7002e-17 
    9570.15   1.5272e-17 
   9571.675   9.9956e-18 
     9573.2   2.1942e-17 
   9574.725   2.8699e-17 
    9576.25   2.5238e-17 
   9577.775   1.6351e-17 
     9579.3   1.5744e-17 
   9580.825   2.0279e-17 
    9582.35   2.2062e-17 
   9583.875   2.3416e-17 
     9585.4   2.2419e-17 
   9586.925   1.9714e-17 
    9588.45   1.8583e-17 
   9589.975   2.3559e-17 
     9591.5   2.5882e-17 
   9593.025   2.4184e-17 
    9594.55   2.6294e-17 
   9596.075   2.6779e-17 
     9597.6   2.0861e-17 
   9599.125    1.878e-17 
    9600.65   2.2089e-17 
   9602.175   2.5696e-17 
     9603.7   2.9174e-17 
   9605.225   3.1662e-17 
    9606.75    3.931e-17 
   9608.275   4.1332e-17 
     9609.8   2.4676e-17 
   9611.325   1.4482e-17 
    9612.85   2.3197e-17 
   9614.375    2.377e-17 
     9615.9   2.1867e-17 
   9617.425   1.8462e-17 
    9618.95   1.8002e-17 
   9620.475   1.9875e-17 
     9622.0   1.5867e-17 
   9623.525    2.192e-17 
    9625.05    2.518e-17 
   9626.575   2.2572e-17 
     9628.1   2.0339e-17 
   9629.625   1.9771e-17 
    9631.15   1.7989e-17 
   9632.675   1.8992e-17 
     9634.2   2.3086e-17 
   9635.725   1.9205e-17 
    9637.25   1.4305e-17 
   9638.775   1.8423e-17 
     9640.3   1.9492e-17 
   9641.825   1.6617e-17 
    9643.35   1.1919e-17 
   9644.875   1.6267e-17 
     9646.4   1.9989e-17 
   9647.925   1.9955e-17 
    9649.45   2.1886e-17 
   9650.975   2.1273e-17 
     9652.5    1.889e-17 
   9654.025   2.1031e-17 
    9655.55   2.2479e-17 
   9657.075   1.7433e-17 
     9658.6   1.7051e-17 
   9660.125   2.1295e-17 
    9661.65   1.8899e-17 
   9663.175     1.55e-17 
     9664.7   1.2654e-17 
   9666.225   9.5649e-18 
    9667.75    1.045e-17 
   9669.275   1.7591e-17 
     9670.8    2.036e-17 
   9672.325   1.5709e-17 
    9673.85   1.8201e-17 
   9675.375   1.9501e-17 
     9676.9     1.59e-17 
   9678.425    1.532e-17 
    9679.95   1.5654e-17 
   9681.475   1.8051e-17 
     9683.0   1.7108e-17 
   9684.525     1.35e-17 
    9686.05   1.8053e-17 
   9687.575   2.8549e-17 
     9689.1    2.983e-17 
   9690.625   2.1913e-17 
    9692.15    2.184e-17 
   9693.675    2.115e-17 
     9695.2   1.6162e-17 
   9696.725   2.2747e-17 
    9698.25   2.5583e-17 
   9699.775   2.1122e-17 
     9701.3   2.1315e-17 
   9702.825   2.1348e-17 
    9704.35   1.8354e-17 
   9705.875   1.4203e-17 
     9707.4   7.9261e-18 
   9708.925   4.7256e-18 
    9710.45   6.9227e-18 
   9711.975   1.8501e-17 
     9713.5   2.6597e-17 
   9715.025   2.5228e-17 
    9716.55   2.3483e-17 
   9718.075   2.2575e-17 
     9719.6   2.4637e-17 
   9721.125   2.3808e-17 
    9722.65   1.1661e-17 
   9724.175   1.0776e-17 
     9725.7      2.1e-17 
   9727.225   2.1598e-17 
    9728.75   1.9157e-17 
   9730.275   1.9274e-17 
     9731.8   1.7747e-17 
   9733.325   1.0695e-17 
    9734.85   1.0005e-17 
   9736.375   1.6442e-17 
     9737.9   2.2032e-17 
   9739.425   2.3199e-17 
    9740.95   2.0931e-17 
   9742.475   1.4034e-17 
     9744.0   1.7013e-17 
   9745.525   2.1917e-17 
    9747.05    2.646e-17 
   9748.575   2.2328e-17 
     9750.1   1.2004e-17 
   9751.625   1.6675e-17 
    9753.15   2.1849e-17 
   9754.675   1.4763e-17 
     9756.2   1.6543e-17 
   9757.725   2.4374e-17 
    9759.25   1.9828e-17 
   9760.775    1.177e-17 
     9762.3   1.7417e-17 
   9763.825   2.4371e-17 
    9765.35   2.1178e-17 
   9766.875   1.5018e-17 
     9768.4   1.7088e-17 
   9769.925   1.9668e-17 
    9771.45   1.7429e-17 
   9772.975   1.7493e-17 
     9774.5   1.8079e-17 
   9776.025   1.4714e-17 
    9777.55   1.4482e-17 
   9779.075    1.899e-17 
     9780.6   2.0692e-17 
   9782.125   2.0664e-17 
    9783.65   1.9628e-17 
   9785.175   1.7831e-17 
     9786.7   2.1891e-17 
   9788.225   3.0907e-17 
    9789.75   2.5444e-17 
   9791.275   1.3201e-17 
     9792.8   1.6755e-17 
   9794.325   1.5942e-17 
    9795.85   6.3758e-18 
   9797.375   1.2576e-18 
     9798.9    6.081e-18 
   9800.425   1.9496e-17 
    9801.95   1.9438e-17 
   9803.475   1.6924e-17 
     9805.0    1.801e-17 
   9806.525   1.0242e-17 
    9808.05   1.5451e-17 
   9809.575   1.9362e-17 
     9811.1   1.0781e-17 
   9812.625   1.1797e-17 
    9814.15   1.4627e-17 
   9815.675   2.0729e-17 
     9817.2   2.3026e-17 
   9818.725   2.7332e-17 
    9820.25   2.4373e-17 
   9821.775   2.2353e-17 
     9823.3   1.6209e-17 
   9824.825   1.2585e-17 
    9826.35   1.8446e-17 
   9827.875   2.0645e-17 
     9829.4   2.1266e-17 
   9830.925   1.9675e-17 
    9832.45   2.5817e-17 
   9833.975   2.6788e-17 
     9835.5   1.8754e-17 
   9837.025   1.8053e-17 
    9838.55   2.4358e-17 
   9840.075   2.2129e-17 
     9841.6   1.9017e-17 
   9843.125   2.0259e-17 
    9844.65   1.4714e-17 
   9846.175   1.5781e-18 
     9847.7  -1.7108e-18 
   9849.225   2.4789e-17 
    9850.75   3.4123e-17 
   9852.275   2.2966e-17 
     9853.8   2.5181e-17 
   9855.325    2.854e-17 
    9856.85   2.0843e-17 
   9858.375   1.5027e-17 
     9859.9   1.7614e-17 
   9861.425   1.7164e-17 
    9862.95   1.5978e-17 
   9864.475   2.0918e-17 
     9866.0   2.5185e-17 
   9867.525    2.514e-17 
    9869.05   3.8128e-17 
   9870.575   3.8917e-17 
     9872.1   2.5915e-17 
   9873.625   1.6733e-17 
    9875.15   1.4262e-17 
   9876.675    1.624e-17 
     9878.2   1.7991e-17 
   9879.725   1.9051e-17 
    9881.25   2.5075e-17 
   9882.775   2.7328e-17 
     9884.3   1.6662e-17 
   9885.825   1.6209e-17 
    9887.35   1.8166e-17 
   9888.875   9.1448e-18 
     9890.4   1.0109e-17 
   9891.925   1.5226e-17 
    9893.45   2.6889e-17 
   9894.975   3.8248e-17 
     9896.5   2.5632e-17 
   9898.025   1.4709e-17 
    9899.55   1.5452e-17 
   9901.075   1.9877e-17 
     9902.6   2.3164e-17 
   9904.125   1.6929e-17 
    9905.65   1.2813e-17 
   9907.175     1.99e-17 
     9908.7   2.4411e-17 
   9910.225   2.2371e-17 
    9911.75   2.7821e-17 
   9913.275   3.4646e-17 
     9914.8   2.1769e-17 
   9916.325   3.0891e-17 
    9917.85   2.0809e-17 
   9919.375   1.4461e-17 
     9920.9   1.9287e-17 
   9922.425   2.6019e-17 
    9923.95     2.79e-17 
   9925.475   2.5185e-17 
     9927.0   2.3141e-17 
   9928.525   3.2032e-17 
    9930.05   3.5797e-17 
   9931.575   2.8189e-17 
     9933.1   1.9748e-17 
   9934.625   2.4572e-17 
    9936.15   1.6788e-17 
   9937.675   1.0227e-17 
     9939.2   1.7314e-17 
   9940.725   2.0609e-17 
    9942.25   3.2196e-17 
   9943.775   2.3791e-17 
     9945.3   1.4384e-17 
   9946.825   2.1515e-17 
    9948.35   1.9532e-17 
   9949.875   1.0151e-17 
     9951.4   7.0288e-18 
   9952.925   1.1538e-17 
    9954.45   2.1528e-17 
   9955.975   1.4595e-17 
     9957.5   1.6821e-17 
   9959.025   3.1407e-17 
    9960.55   1.5877e-17 
   9962.075   2.4232e-17 
     9963.6   2.7338e-17 
   9965.125   1.4462e-17 
    9966.65   7.5417e-18 
   9968.175   9.6702e-18 
     9969.7   1.9041e-17 
   9971.225   2.1969e-17 
    9972.75    1.535e-17 
   9974.275   1.3071e-17 
     9975.8   1.7006e-17 
   9977.325   2.3027e-17 
    9978.85   2.3788e-17 
   9980.375   2.2894e-17 
     9981.9   2.7452e-17 
   9983.425   2.5823e-17 
    9984.95   1.9805e-17 
   9986.475   2.0464e-17 
     9988.0   2.1604e-17 
   9989.525   1.6854e-17 
    9991.05   1.2381e-17 
   9992.575   1.5515e-17 
     9994.1   2.1212e-17 
   9995.625   2.0197e-17 
    9997.15   1.9061e-17 
   9998.675   1.4971e-17 
    10000.2   1.1599e-17 
