# STATUS =
# OBJECT = PS112cil
# TELESCOPE = MMT
# INSTRUMENT = Blue_Channel
# DATE-OBS =
# MJD = 56304.3
# EXPTIME = 2700
# AIRMASS = 1.1
# SLIT =
# DISPERSER = 300GPM
# SOURCE = 2018ApJ...852...81L
# FILTER = none
# RESOLUTION =
# FLUX_STANDARD =
# EXTINCTION_CORRECTED = True
# PHOTOMETRY_CALIBRATED =
# TELLURIC_CORRECTED =
# FLUX_UNITS =
# WAVE_UNITS = AA
# QUALITY =
# MIN_WAVE =
# MAX_WAVE =
# COMMENT = Obtained from private comm. with Lunnan
 Wavelength            Flux 
    3312.94     0.028493854 
    3314.88     0.022344929 
    3316.82     0.023763237 
    3318.76     0.026108342 
     3320.7     0.031433786 
    3322.64      0.02124606 
    3324.58     0.030745085 
    3326.52     0.017751627 
    3328.46     0.016716286 
     3330.4     0.022628731 
    3332.34     0.017726763 
    3334.28     0.015923104 
    3336.22     0.014597029 
    3338.16     0.025377194 
     3340.1     0.032499603 
    3342.04     0.029153121 
    3343.98     0.019646265 
    3345.92     0.024974222 
    3347.86      0.02250701 
     3349.8     0.022136767 
    3351.74     0.014902598 
    3353.68     0.017873074 
    3355.62     0.021627035 
    3357.56     0.030814623 
     3359.5     0.028013879 
    3361.44     0.017227738 
    3363.38     0.022518252 
    3365.32     0.025094178 
    3367.26     0.030152164 
     3369.2     0.034179074 
    3371.14     0.031126622 
    3373.08     0.023020929 
    3375.02     0.023441207 
    3376.96     0.022060546 
     3378.9     0.020418819 
    3380.84     0.018417683 
    3382.78     0.017899096 
    3384.72     0.031083885 
    3386.66     0.029403413 
     3388.6     0.020823352 
    3390.54     0.019727761 
    3392.48     0.023622536 
    3394.42     0.022670579 
    3396.36     0.016510487 
     3398.3     0.019218283 
    3400.24     0.025797245 
    3402.18     0.023862797 
    3404.12     0.023149154 
    3406.06      0.01565781 
     3408.0     0.022909705 
    3409.94     0.028720485 
    3411.88     0.022937983 
    3413.82     0.027688495 
    3415.76     0.025913891 
     3417.7     0.024565499 
    3419.64     0.024276184 
    3421.58     0.022626923 
    3423.52     0.023795281 
    3425.46     0.019144793 
     3427.4      0.02596432 
    3429.34     0.023116617 
    3431.28      0.02515935 
    3433.22     0.020986611 
    3435.16     0.020046332 
     3437.1     0.016941786 
    3439.04     0.013847664 
    3440.98     0.020257418 
    3442.92     0.030880524 
    3444.86     0.018156713 
     3446.8     0.015196328 
    3448.74     0.018659208 
    3450.68     0.021669115 
    3452.62     0.019656419 
    3454.56     0.017764766 
     3456.5     0.021295246 
    3458.44     0.025252375 
    3460.38     0.025741257 
    3462.32     0.029261367 
    3464.26     0.018677446 
     3466.2     0.017696874 
    3468.14     0.016644547 
    3470.08     0.010838405 
    3472.02     0.012225664 
    3473.96     0.015472354 
     3475.9     0.018512464 
    3477.84     0.019272264 
    3479.78     0.014898568 
    3481.72     0.012328158 
    3483.66    0.0091275979 
     3485.6     0.010988457 
    3487.54     0.016835746 
    3489.48     0.018749392 
    3491.42     0.014764306 
    3493.36     0.012686515 
     3495.3     0.017825651 
    3497.24     0.013908534 
    3499.18     0.012258318 
    3501.12     0.010211564 
    3503.06    0.0092736171 
     3505.0     0.011012743 
    3506.94    0.0081455878 
    3508.88    0.0070365291 
    3510.82     0.013125121 
    3512.76     0.014859141 
     3514.7     0.013060151 
    3516.64     0.015888622 
    3518.58     0.018401261 
    3520.52     0.016451029 
    3522.46     0.010143501 
     3524.4     0.013545536 
    3526.34       0.0128578 
    3528.28     0.016245955 
    3530.22     0.013103743 
    3532.16    0.0093434695 
     3534.1     0.015050507 
    3536.04     0.016734255 
    3537.98     0.017487414 
    3539.92     0.015340712 
    3541.86     0.011595959 
     3543.8     0.011878418 
    3545.74     0.013228761 
    3547.68     0.014925793 
    3549.62      0.01135285 
    3551.56    0.0080680991 
     3553.5      0.01056296 
    3555.44     0.018135958 
    3557.38      0.01654178 
    3559.32     0.014894123 
    3561.26     0.020475167 
     3563.2     0.019200762 
    3565.14     0.021385394 
    3567.08     0.019894793 
    3569.02     0.014434884 
    3570.96     0.020839042 
     3572.9     0.018066007 
    3574.84     0.010688323 
    3576.78     0.013801778 
    3578.72     0.011585539 
    3580.66     0.012137377 
     3582.6     0.015678751 
    3584.54      0.01690259 
    3586.48     0.017425636 
    3588.42     0.017974927 
    3590.36     0.020197203 
     3592.3     0.021245059 
    3594.24     0.019168545 
    3596.18     0.020148467 
    3598.12     0.020881237 
    3600.06     0.019272842 
     3602.0     0.015577533 
    3603.94     0.017049728 
    3605.88     0.024980955 
    3607.82     0.025421731 
    3609.76     0.018433444 
     3611.7     0.022229413 
    3613.64     0.029134057 
    3615.58     0.023617593 
    3617.52     0.025350277 
    3619.46     0.027498694 
     3621.4     0.027197962 
    3623.34     0.018298268 
    3625.28     0.021136101 
    3627.22     0.024012627 
    3629.16     0.036059407 
     3631.1     0.028221876 
    3633.04      0.01774288 
    3634.98     0.021489966 
    3636.92      0.02047657 
    3638.86     0.018525849 
     3640.8     0.017946342 
    3642.74     0.025874841 
    3644.68     0.030632879 
    3646.62     0.027286941 
    3648.56     0.025131878 
     3650.5     0.020595107 
    3652.44     0.026126564 
    3654.38     0.028295749 
    3656.32      0.02315706 
    3658.26     0.022124534 
     3660.2     0.022619626 
    3662.14     0.025468432 
    3664.08      0.02604388 
    3666.02     0.029423204 
    3667.96     0.025720276 
     3669.9     0.021145956 
    3671.84     0.023136442 
    3673.78     0.030376054 
    3675.72     0.033272858 
    3677.66     0.028783369 
     3679.6     0.032073787 
    3681.54     0.030410602 
    3683.48     0.032192004 
    3685.42     0.027396243 
    3687.36     0.028816224 
     3689.3     0.026853886 
    3691.24     0.035467611 
    3693.18     0.029869667 
    3695.12     0.032713212 
    3697.06      0.02399991 
     3699.0      0.02803915 
    3700.94     0.031157529 
    3702.88      0.02729317 
    3704.82     0.028362979 
    3706.76     0.027491464 
     3708.7     0.029361328 
    3710.64     0.029155488 
    3712.58      0.02493789 
    3714.52     0.031918567 
    3716.46     0.027042718 
     3718.4     0.032311312 
    3720.34     0.024700653 
    3722.28     0.031975882 
    3724.22     0.029747824 
    3726.16       0.0305324 
     3728.1     0.027092335 
    3730.04     0.029749928 
    3731.98     0.028694103 
    3733.92     0.034928974 
    3735.86     0.027401168 
     3737.8     0.019967398 
    3739.74     0.027199698 
    3741.68     0.023494142 
    3743.62      0.02572305 
    3745.56      0.02850965 
     3747.5     0.031136415 
    3749.44     0.032598858 
    3751.38     0.026295282 
    3753.32     0.028739986 
    3755.26     0.024737731 
     3757.2     0.027354163 
    3759.14     0.029220322 
    3761.08     0.028826667 
    3763.02     0.029057778 
    3764.96     0.022770692 
     3766.9     0.027411014 
    3768.84     0.033081827 
    3770.78     0.026998278 
    3772.72     0.018892528 
    3774.66     0.023673267 
     3776.6     0.033460836 
    3778.54     0.030552992 
    3780.48     0.027590442 
    3782.42     0.023786156 
    3784.36     0.024034037 
     3786.3     0.026195537 
    3788.24     0.028497585 
    3790.18     0.027617743 
    3792.12     0.030984515 
    3794.06     0.032605542 
     3796.0     0.030762593 
    3797.94     0.029456443 
    3799.88     0.030906111 
    3801.82     0.029986119 
    3803.76     0.026998321 
     3805.7     0.025524664 
    3807.64     0.021730702 
    3809.58       0.0243819 
    3811.52     0.028182841 
    3813.46     0.027991045 
     3815.4     0.028608475 
    3817.34     0.027978618 
    3819.28     0.023070021 
    3821.22     0.024186009 
    3823.16     0.030628645 
     3825.1     0.033557238 
    3827.04     0.027277282 
    3828.98     0.022884405 
    3830.92     0.028409038 
    3832.86     0.027956887 
     3834.8     0.026700366 
    3836.74     0.027275833 
    3838.68     0.026908568 
    3840.62     0.028689328 
    3842.56     0.024784681 
     3844.5      0.02470931 
    3846.44     0.025963895 
    3848.38     0.022306543 
    3850.32     0.025599887 
    3852.26      0.02640701 
     3854.2     0.025388311 
    3856.14     0.028733995 
    3858.08     0.027853028 
    3860.02     0.025921139 
    3861.96     0.025789618 
     3863.9     0.026765001 
    3865.84     0.031402887 
    3867.78     0.028309861 
    3869.72     0.026509431 
    3871.66     0.027525647 
     3873.6     0.031025415 
    3875.54     0.026340769 
    3877.48     0.023276969 
    3879.42     0.025010129 
    3881.36     0.024164756 
     3883.3     0.026920331 
    3885.24     0.028403389 
    3887.18     0.026537512 
    3889.12     0.025828308 
    3891.06     0.023749967 
     3893.0     0.024086305 
    3894.94     0.023613428 
    3896.88     0.025905382 
    3898.82     0.027582364 
    3900.76     0.021707236 
     3902.7     0.020464009 
    3904.64     0.025587803 
    3906.58     0.026091895 
    3908.52      0.02390143 
    3910.46     0.023158515 
     3912.4     0.023542037 
    3914.34     0.026224107 
    3916.28     0.029264236 
    3918.22     0.022347789 
    3920.16     0.021633234 
     3922.1      0.01932182 
    3924.04     0.021536019 
    3925.98     0.029618656 
    3927.92     0.029203285 
    3929.86     0.023949755 
     3931.8     0.021445423 
    3933.74     0.026430716 
    3935.68     0.025211789 
    3937.62     0.022521767 
    3939.56      0.02319357 
     3941.5     0.020387438 
    3943.44     0.020669894 
    3945.38     0.023198891 
    3947.32     0.024888979 
    3949.26     0.023599143 
     3951.2     0.025468577 
    3953.14     0.023605499 
    3955.08     0.021656877 
    3957.02     0.027464902 
    3958.96     0.026427089 
     3960.9      0.02309529 
    3962.84     0.022381209 
    3964.78     0.026562569 
    3966.72     0.025360164 
    3968.66     0.026144808 
     3970.6     0.023801036 
    3972.54     0.022504217 
    3974.48     0.025194561 
    3976.42     0.023774076 
    3978.36     0.025223308 
     3980.3     0.027330937 
    3982.24     0.025551195 
    3984.18     0.021948683 
    3986.12     0.024205501 
    3988.06      0.02770491 
     3990.0     0.022688479 
    3991.94     0.022510236 
    3993.88     0.021893308 
    3995.82     0.026067559 
    3997.76     0.026527533 
     3999.7     0.022293395 
    4001.64     0.026055039 
    4003.58     0.025431992 
    4005.52     0.020129302 
    4007.46     0.022135662 
     4009.4      0.02676509 
    4011.34     0.026352318 
    4013.28     0.024372373 
    4015.22     0.021491603 
    4017.16     0.022275395 
     4019.1     0.023982954 
    4021.04     0.022367583 
    4022.98     0.021309508 
    4024.92     0.023403418 
    4026.86     0.024162193 
     4028.8     0.021231745 
    4030.74     0.018763046 
    4032.68     0.021604896 
    4034.62     0.026893392 
    4036.56      0.02754824 
     4038.5     0.024699396 
    4040.44     0.023083218 
    4042.38     0.022684341 
    4044.32     0.025567583 
    4046.26     0.029797852 
     4048.2     0.026120231 
    4050.14     0.026317427 
    4052.08     0.025879837 
    4054.02     0.024188058 
    4055.96     0.020957087 
     4057.9      0.02244395 
    4059.84     0.024707935 
    4061.78      0.02491528 
    4063.72     0.026068126 
    4065.66     0.027234807 
     4067.6     0.024482263 
    4069.54     0.023498612 
    4071.48     0.026190771 
    4073.42     0.024768137 
    4075.36     0.022290381 
     4077.3     0.020381788 
    4079.24     0.021245988 
    4081.18     0.021931347 
    4083.12     0.022148447 
    4085.06     0.020784039 
     4087.0     0.022624583 
    4088.94     0.024302229 
    4090.88      0.01980869 
    4092.82     0.024079867 
    4094.76     0.026791723 
     4096.7      0.02419165 
    4098.64     0.029302604 
    4100.58     0.028525835 
    4102.52     0.022235371 
    4104.46     0.021178227 
     4106.4     0.021664471 
    4108.34     0.022293763 
    4110.28       0.0213033 
    4112.22      0.02544325 
    4114.16     0.026717837 
     4116.1     0.020271263 
    4118.04      0.02122278 
    4119.98     0.020155489 
    4121.92     0.019278862 
    4123.86     0.023158827 
     4125.8      0.02001946 
    4127.74     0.017913988 
    4129.68     0.021598502 
    4131.62     0.023458077 
    4133.56     0.020512517 
     4135.5     0.018425766 
    4137.44     0.020511369 
    4139.38     0.021926304 
    4141.32     0.024786078 
    4143.26     0.028230659 
     4145.2     0.025074079 
    4147.14     0.023628451 
    4149.08      0.02479889 
    4151.02     0.020945617 
    4152.96     0.020855953 
     4154.9     0.023713077 
    4156.84     0.022318972 
    4158.78     0.020935144 
    4160.72     0.023535295 
    4162.66     0.020912102 
     4164.6     0.017529138 
    4166.54     0.021310817 
    4168.48     0.024059431 
    4170.42       0.0240921 
    4172.36      0.02239953 
     4174.3     0.023699187 
    4176.24     0.020805274 
    4178.18     0.022055756 
    4180.12     0.023217071 
    4182.06     0.018692397 
     4184.0     0.020713296 
    4185.94     0.021695501 
    4187.88     0.020438833 
    4189.82     0.020957334 
    4191.76     0.019427999 
     4193.7     0.021907012 
    4195.64     0.024053117 
    4197.58     0.019803502 
    4199.52     0.019433663 
    4201.46     0.025665778 
     4203.4      0.02878648 
    4205.34     0.026697697 
    4207.28     0.026157133 
    4209.22     0.022158267 
    4211.16     0.017321883 
     4213.1      0.02274186 
    4215.04     0.024277375 
    4216.98      0.02049688 
    4218.92     0.020615055 
    4220.86     0.023122876 
     4222.8     0.025967707 
    4224.74     0.023408101 
    4226.68     0.023157248 
    4228.62     0.025504845 
    4230.56     0.023906849 
     4232.5      0.02346113 
    4234.44      0.02122175 
    4236.38     0.021679433 
    4238.32     0.022940215 
    4240.26     0.022531499 
     4242.2     0.021853123 
    4244.14     0.022651299 
    4246.08     0.022866099 
    4248.02     0.022043271 
    4249.96     0.025704288 
     4251.9     0.021326506 
    4253.84     0.019787531 
    4255.78     0.022962176 
    4257.72     0.022212857 
    4259.66     0.025344533 
     4261.6     0.026212845 
    4263.54     0.022616161 
    4265.48     0.020346216 
    4267.42     0.020269843 
    4269.36     0.019753812 
     4271.3     0.017708137 
    4273.24     0.017168179 
    4275.18      0.01984202 
    4277.12     0.024471666 
    4279.06     0.025780652 
     4281.0      0.02086938 
    4282.94      0.01934519 
    4284.88     0.019107368 
    4286.82     0.017100652 
    4288.76     0.017891717 
     4290.7      0.01791322 
    4292.64      0.01912313 
    4294.58     0.021499591 
    4296.52     0.021103892 
    4298.46     0.018469801 
     4300.4       0.0168945 
    4302.34       0.0197919 
    4304.28     0.020625851 
    4306.22     0.020809955 
    4308.16     0.022892505 
     4310.1     0.021150278 
    4312.04     0.020505482 
    4313.98     0.023016429 
    4315.92     0.022742537 
    4317.86     0.022755983 
     4319.8     0.023638555 
    4321.74     0.024475669 
    4323.68      0.02312281 
    4325.62     0.021021613 
    4327.56     0.020065455 
     4329.5      0.01858929 
    4331.44     0.021042868 
    4333.38     0.025184605 
    4335.32     0.023014509 
    4337.26     0.022366974 
     4339.2     0.024519067 
    4341.14     0.024001818 
    4343.08     0.021405205 
    4345.02     0.019489723 
    4346.96      0.02160119 
     4348.9     0.021867804 
    4350.84     0.023150054 
    4352.78     0.024748804 
    4354.72     0.022111855 
    4356.66     0.017685165 
     4358.6     0.019823558 
    4360.54     0.021435149 
    4362.48     0.024525106 
    4364.42     0.025241208 
    4366.36     0.024448647 
     4368.3     0.020136584 
    4370.24     0.017188949 
    4372.18      0.02197603 
    4374.12     0.021661706 
    4376.06     0.015072518 
     4378.0     0.018649403 
    4379.94      0.02108806 
    4381.88     0.020477837 
    4383.82     0.022284212 
    4385.76     0.019380931 
     4387.7     0.017004811 
    4389.64     0.020448495 
    4391.58     0.020312069 
    4393.52     0.016276567 
    4395.46     0.016027369 
     4397.4     0.015442574 
    4399.34     0.018231882 
    4401.28     0.020945733 
    4403.22     0.018512158 
    4405.16     0.015639153 
     4407.1      0.01882503 
    4409.04     0.020881874 
    4410.98     0.020441148 
    4412.92     0.021676633 
    4414.86     0.021706814 
     4416.8     0.020922337 
    4418.74     0.023508513 
    4420.68     0.023678689 
    4422.62     0.020528122 
    4424.56     0.019582205 
     4426.5     0.018160794 
    4428.44     0.020621725 
    4430.38     0.022064248 
    4432.32      0.02116869 
    4434.26     0.017220745 
     4436.2     0.015101367 
    4438.14     0.020062861 
    4440.08     0.019540696 
    4442.02     0.020738226 
    4443.96     0.022851759 
     4445.9      0.02067555 
    4447.84     0.020390117 
    4449.78     0.021453587 
    4451.72     0.021812624 
    4453.66     0.020942152 
     4455.6     0.019738816 
    4457.54     0.020750654 
    4459.48      0.02425939 
    4461.42     0.024735103 
    4463.36     0.022255114 
     4465.3     0.022805453 
    4467.24     0.022742446 
    4469.18     0.019150385 
    4471.12     0.022889985 
    4473.06     0.022040138 
     4475.0     0.017795165 
    4476.94     0.019196282 
    4478.88     0.017434184 
    4480.82     0.016676864 
    4482.76     0.019103598 
     4484.7     0.022536671 
    4486.64     0.022129104 
    4488.58        0.018788 
    4490.52     0.019354716 
    4492.46       0.0199475 
     4494.4     0.018534925 
    4496.34      0.01910162 
    4498.28     0.020524676 
    4500.22     0.021206683 
    4502.16     0.020138424 
     4504.1     0.018114143 
    4506.04     0.017859741 
    4507.98     0.021408096 
    4509.92     0.017643081 
    4511.86     0.020783295 
     4513.8     0.025034346 
    4515.74     0.020320403 
    4517.68     0.018448375 
    4519.62     0.017558147 
    4521.56     0.020176502 
     4523.5     0.022387738 
    4525.44     0.021367011 
    4527.38     0.020328768 
    4529.32     0.020147214 
    4531.26     0.019783918 
     4533.2     0.016731934 
    4535.14     0.016765303 
    4537.08     0.018326401 
    4539.02      0.01888924 
    4540.96     0.017824968 
     4542.9     0.018007433 
    4544.84     0.020277921 
    4546.78     0.019262635 
    4548.72     0.019601118 
    4550.66     0.022949048 
     4552.6     0.019667214 
    4554.54     0.018046271 
    4556.48     0.018774082 
    4558.42     0.021411931 
    4560.36     0.023706162 
     4562.3     0.022773041 
    4564.24     0.023959702 
    4566.18     0.023038119 
    4568.12     0.021697417 
    4570.06     0.023146001 
     4572.0     0.019969455 
    4573.94     0.016359174 
    4575.88     0.019030896 
    4577.82     0.021425407 
    4579.76     0.016965206 
     4581.7     0.017118326 
    4583.64     0.020746182 
    4585.58     0.019204797 
    4587.52     0.014529597 
    4589.46     0.017941809 
     4591.4     0.021988348 
    4593.34     0.019445006 
    4595.28     0.020232377 
    4597.22     0.016653483 
    4599.16     0.016219397 
     4601.1     0.017120013 
    4603.04     0.014533072 
    4604.98     0.019323883 
    4606.92     0.020220434 
    4608.86     0.023584232 
     4610.8     0.022244608 
    4612.74     0.018453547 
    4614.68     0.018081016 
    4616.62     0.018338572 
    4618.56     0.017681761 
     4620.5     0.017572751 
    4622.44     0.016421144 
    4624.38     0.020422553 
    4626.32     0.020612659 
    4628.26     0.017848932 
     4630.2     0.018743888 
    4632.14     0.023032742 
    4634.08     0.022360732 
    4636.02     0.019240048 
    4637.96     0.020867058 
     4639.9     0.017118809 
    4641.84     0.017839681 
    4643.78     0.017225011 
    4645.72     0.018015506 
    4647.66     0.020582153 
     4649.6     0.020717581 
    4651.54      0.01984746 
    4653.48     0.018981384 
    4655.42     0.021323898 
    4657.36     0.019457596 
     4659.3     0.022649847 
    4661.24     0.022669421 
    4663.18     0.022772045 
    4665.12     0.018082612 
    4667.06      0.01575914 
     4669.0     0.021041762 
    4670.94     0.019632232 
    4672.88     0.015319926 
    4674.82     0.017373639 
    4676.76     0.018545486 
     4678.7     0.016557663 
    4680.64     0.015824444 
    4682.58     0.018409426 
    4684.52     0.019500006 
    4686.46     0.019711362 
     4688.4     0.018956336 
    4690.34     0.018802922 
    4692.28     0.019111953 
    4694.22     0.019114727 
    4696.16     0.020200418 
     4698.1     0.021939381 
    4700.04     0.022341409 
    4701.98     0.019734697 
    4703.92     0.017371369 
    4705.86     0.018767361 
     4707.8     0.020495535 
    4709.74     0.020160167 
    4711.68     0.023073673 
    4713.62     0.022299253 
    4715.56     0.018283088 
     4717.5     0.019420139 
    4719.44      0.02115347 
    4721.38      0.01957926 
    4723.32     0.018330991 
    4725.26     0.019107784 
     4727.2     0.022175818 
    4729.14      0.02140366 
    4731.08      0.02035148 
    4733.02     0.021002133 
    4734.96     0.020921772 
     4736.9     0.018755822 
    4738.84     0.019074174 
    4740.78     0.021776258 
    4742.72     0.019183812 
    4744.66     0.018845408 
     4746.6     0.022868142 
    4748.54     0.023249149 
    4750.48     0.019521065 
    4752.42     0.017719135 
    4754.36     0.015124971 
     4756.3     0.015717234 
    4758.24     0.021327001 
    4760.18     0.015442118 
    4762.12     0.015703355 
    4764.06     0.019076708 
     4766.0      0.01787682 
    4767.94       0.0181661 
    4769.88     0.019701403 
    4771.82     0.020993485 
    4773.76     0.022696163 
     4775.7     0.023196298 
    4777.64     0.021654126 
    4779.58     0.016655126 
    4781.52     0.014757187 
    4783.46     0.017308658 
     4785.4     0.018716145 
    4787.34     0.019913322 
    4789.28     0.021854773 
    4791.22     0.021387841 
    4793.16     0.020952991 
     4795.1     0.020394259 
    4797.04     0.018910411 
    4798.98     0.019454395 
    4800.92     0.020090944 
    4802.86     0.020737894 
     4804.8     0.019943289 
    4806.74     0.021289536 
    4808.68     0.018738906 
    4810.62     0.015980153 
    4812.56      0.01644126 
     4814.5     0.020252436 
    4816.44     0.019953833 
    4818.38     0.017661631 
    4820.32     0.019436836 
    4822.26     0.020767191 
     4824.2     0.019622342 
    4826.14     0.017403724 
    4828.08     0.016367836 
    4830.02     0.017569526 
    4831.96     0.018606176 
     4833.9     0.015562578 
    4835.84     0.017211288 
    4837.78     0.020451403 
    4839.72     0.017589821 
    4841.66     0.018284961 
     4843.6     0.018411746 
    4845.54       0.0149685 
    4847.48     0.015850507 
    4849.42     0.020838302 
    4851.36      0.01737429 
     4853.3      0.01676852 
    4855.24     0.020242065 
    4857.18     0.019812917 
    4859.12     0.015064972 
    4861.06     0.015131835 
     4863.0     0.014608008 
    4864.94     0.015313785 
    4866.88     0.016796362 
    4868.82     0.018553817 
    4870.76     0.019496543 
     4872.7     0.018534443 
    4874.64     0.018284572 
    4876.58     0.016980721 
    4878.52     0.018117918 
    4880.46     0.019450489 
     4882.4     0.019485736 
    4884.34     0.016904439 
    4886.28     0.017565762 
    4888.22     0.017942599 
    4890.16     0.016822764 
     4892.1     0.014667201 
    4894.04     0.017879536 
    4895.98      0.01730445 
    4897.92     0.015827259 
    4899.86     0.016034371 
     4901.8     0.016245311 
    4903.74     0.017376718 
    4905.68     0.020622179 
    4907.62     0.015359333 
    4909.56     0.016606718 
     4911.5     0.016721427 
    4913.44     0.019284459 
    4915.38     0.014810377 
    4917.32     0.015353743 
    4919.26     0.015955109 
     4921.2     0.018347113 
    4923.14     0.016958434 
    4925.08     0.018276425 
    4927.02     0.020198807 
    4928.96     0.014416308 
     4930.9     0.015443205 
    4932.84     0.015013598 
    4934.78     0.014947646 
    4936.72     0.012487977 
    4938.66     0.016309259 
     4940.6     0.016404414 
    4942.54     0.016645056 
    4944.48     0.014656039 
    4946.42     0.011797952 
    4948.36     0.012057041 
     4950.3     0.015376894 
    4952.24     0.015807738 
    4954.18     0.015742812 
    4956.12     0.013999466 
    4958.06     0.012639749 
     4960.0     0.015000311 
    4961.94      0.01660217 
    4963.88     0.017131669 
    4965.82     0.014920364 
    4967.76     0.014257464 
     4969.7     0.016113534 
    4971.64      0.01838952 
    4973.58     0.017514169 
    4975.52     0.018855251 
    4977.46     0.019365321 
     4979.4     0.020062127 
    4981.34     0.017191333 
    4983.28     0.014820653 
    4985.22     0.010521631 
    4987.16     0.011824112 
     4989.1     0.013072343 
    4991.04     0.010577024 
    4992.98     0.011413581 
    4994.92     0.013593735 
    4996.86     0.016657075 
     4998.8      0.01658431 
    5000.74     0.015359648 
    5002.68     0.016279589 
    5004.62     0.016691236 
    5006.56     0.020477951 
     5008.5     0.017760719 
    5010.44     0.011208794 
    5012.38     0.016127169 
    5014.32     0.017660825 
    5016.26     0.014772172 
     5018.2     0.017538881 
    5020.14     0.018059807 
    5022.08     0.017422276 
    5024.02     0.019221925 
    5025.96     0.018485694 
     5027.9     0.019404164 
    5029.84     0.013131027 
    5031.78     0.012596726 
    5033.72     0.015448692 
    5035.66     0.017320059 
     5037.6     0.016882225 
    5039.54     0.016307942 
    5041.48     0.013668804 
    5043.42     0.013479559 
    5045.36     0.012014572 
     5047.3     0.015689633 
    5049.24     0.017845835 
    5051.18     0.013748335 
    5053.12     0.013163934 
    5055.06     0.019505898 
     5057.0     0.017415204 
    5058.94     0.013480196 
    5060.88     0.013518838 
    5062.82     0.015841503 
    5064.76     0.015242894 
     5066.7     0.013215611 
    5068.64     0.016095917 
    5070.58     0.015277227 
    5072.52     0.013880568 
    5074.46     0.017569992 
     5076.4     0.016313984 
    5078.34     0.016613294 
    5080.28     0.016225638 
    5082.22     0.017075175 
    5084.16     0.013537975 
     5086.1    0.0088470724 
    5088.04    0.0077499909 
    5089.98     0.012754403 
    5091.92     0.013321466 
    5093.86     0.014286591 
     5095.8     0.015495857 
    5097.74     0.015356788 
    5099.68     0.016978964 
    5101.62     0.016559612 
    5103.56      0.01550345 
     5105.5     0.014616371 
    5107.44     0.011694858 
    5109.38    0.0088135374 
    5111.32     0.012950291 
    5113.26     0.018587735 
     5115.2     0.016472224 
    5117.14     0.013518033 
    5119.08     0.013880469 
    5121.02     0.013328507 
    5122.96     0.013129757 
     5124.9     0.013249791 
    5126.84     0.015847483 
    5128.78     0.017013766 
    5130.72     0.016245888 
    5132.66     0.013795376 
     5134.6     0.011279759 
    5136.54      0.01531168 
    5138.48     0.017239226 
    5140.42     0.017299568 
    5142.36     0.018380003 
     5144.3      0.01563379 
    5146.24      0.01747722 
    5148.18     0.018952723 
    5150.12     0.012790347 
    5152.06     0.013086878 
     5154.0     0.016314663 
    5155.94     0.015590798 
    5157.88     0.015147496 
    5159.82     0.015382022 
    5161.76     0.016592208 
     5163.7     0.015690471 
    5165.64     0.014286015 
    5167.58     0.012593916 
    5169.52     0.015155115 
    5171.46     0.016770563 
     5173.4     0.015124365 
    5175.34     0.012516012 
    5177.28     0.011720128 
    5179.22     0.012827342 
    5181.16     0.016496196 
     5183.1      0.01639479 
    5185.04     0.013904401 
    5186.98      0.01338272 
    5188.92     0.012148683 
    5190.86     0.011702516 
     5192.8     0.013442744 
    5194.74     0.016430344 
    5196.68     0.014882099 
    5198.62     0.012659854 
    5200.56     0.015674553 
     5202.5     0.014058589 
    5204.44     0.014903456 
    5206.38     0.014532352 
    5208.32     0.014054038 
    5210.26     0.015245985 
     5212.2     0.014659199 
    5214.14     0.013724881 
    5216.08     0.017314113 
    5218.02     0.018278514 
    5219.96     0.022128149 
     5221.9     0.019308145 
    5223.84      0.01570705 
    5225.78     0.015904151 
    5227.72     0.013120228 
    5229.66     0.011715014 
     5231.6     0.012794037 
    5233.54     0.014860125 
    5235.48     0.017039929 
    5237.42     0.017116101 
    5239.36     0.013830501 
     5241.3     0.011171133 
    5243.24      0.01201562 
    5245.18     0.013833517 
    5247.12      0.01239605 
    5249.06     0.013926845 
     5251.0     0.017619146 
    5252.94     0.013999332 
    5254.88     0.013206566 
    5256.82      0.01380319 
    5258.76     0.015587067 
     5260.7     0.015905772 
    5262.64     0.013681971 
    5264.58     0.010091134 
    5266.52     0.012733529 
    5268.46      0.01417066 
     5270.4     0.013517656 
    5272.34     0.014984098 
    5274.28     0.016734436 
    5276.22     0.015335256 
    5278.16      0.01515669 
     5280.1     0.012752933 
    5282.04     0.012020695 
    5283.98     0.016586352 
    5285.92     0.013927905 
    5287.86     0.011006142 
     5289.8     0.012683632 
    5291.74     0.015063729 
    5293.68       0.0160594 
    5295.62     0.015302767 
    5297.56     0.012082399 
     5299.5     0.015013353 
    5301.44     0.017738762 
    5303.38     0.014645384 
    5305.32     0.014436471 
    5307.26     0.016991882 
     5309.2     0.013769502 
    5311.14    0.0089512248 
    5313.08     0.011962448 
    5315.02     0.014997487 
    5316.96     0.014883981 
     5318.9     0.014782211 
    5320.84     0.015045105 
    5322.78     0.013159483 
    5324.72     0.015667027 
    5326.66     0.018103276 
     5328.6     0.016578547 
    5330.54     0.017141166 
    5332.48     0.020879954 
    5334.42     0.018263655 
    5336.36     0.019584183 
     5338.3     0.016256811 
    5340.24     0.011730618 
    5342.18     0.015537449 
    5344.12     0.018047305 
    5346.06     0.015740105 
     5348.0      0.01579209 
    5349.94     0.013835502 
    5351.88     0.014738969 
    5353.82     0.015988116 
    5355.76     0.018469508 
     5357.7     0.015135266 
    5359.64     0.011498194 
    5361.58     0.010639625 
    5363.52     0.013378477 
    5365.46     0.016945939 
     5367.4     0.016981697 
    5369.34     0.012550316 
    5371.28     0.011373394 
    5373.22     0.013741662 
    5375.16     0.013158929 
     5377.1     0.015490831 
    5379.04     0.015318412 
    5380.98     0.012767948 
    5382.92     0.013702576 
    5384.86     0.013559599 
     5386.8      0.01261931 
    5388.74     0.014414511 
    5390.68     0.017301239 
    5392.62     0.017259335 
    5394.56     0.015467598 
     5396.5     0.013611874 
    5398.44     0.014539907 
    5400.38     0.016974596 
    5402.32     0.018776005 
    5404.26     0.016159597 
     5406.2     0.015602793 
    5408.14     0.015918608 
    5410.08     0.014972824 
    5412.02     0.015883916 
    5413.96     0.018611619 
     5415.9     0.017812025 
    5417.84      0.01659906 
    5419.78     0.014142422 
    5421.72     0.012325409 
    5423.66      0.01757328 
     5425.6     0.018015293 
    5427.54     0.013901889 
    5429.48     0.016272539 
    5431.42     0.015608992 
    5433.36     0.015584209 
     5435.3     0.011731983 
    5437.24     0.010221483 
    5439.18     0.012969961 
    5441.12     0.016787798 
    5443.06     0.017541619 
     5445.0      0.01450574 
    5446.94     0.014387956 
    5448.88     0.015785207 
    5450.82      0.01480433 
    5452.76     0.014125193 
     5454.7     0.013300976 
    5456.64     0.013175029 
    5458.58     0.016456518 
    5460.52     0.019211154 
    5462.46     0.016598125 
     5464.4     0.014229289 
    5466.34     0.016599302 
    5468.28      0.01530751 
    5470.22      0.01331328 
    5472.16     0.014091476 
     5474.1     0.012340597 
    5476.04     0.015109707 
    5477.98     0.016603657 
    5479.92     0.018987045 
    5481.86     0.018273509 
     5483.8     0.012065622 
    5485.74     0.014014999 
    5487.68     0.011926086 
    5489.62     0.008038397 
    5491.56     0.010408653 
     5493.5     0.013912603 
    5495.44     0.013501077 
    5497.38     0.011473829 
    5499.32     0.010081164 
    5501.26     0.011956631 
     5503.2     0.014325298 
    5505.14      0.01591285 
    5507.08     0.015742626 
    5509.02     0.014904559 
    5510.96     0.012210713 
     5512.9     0.011784966 
    5514.84     0.013664882 
    5516.78     0.015269318 
    5518.72      0.01801188 
    5520.66     0.019539019 
     5522.6     0.017340389 
    5524.54     0.010327525 
    5526.48     0.006390728 
    5528.42     0.010476508 
    5530.36       0.0139286 
     5532.3     0.012990458 
    5534.24      0.01500633 
    5536.18     0.014946725 
    5538.12     0.012238143 
    5540.06     0.016304355 
     5542.0     0.015772122 
    5543.94     0.014280532 
    5545.88     0.017003046 
    5547.82     0.015276559 
    5549.76      0.01367964 
     5551.7     0.010929256 
    5553.64     0.012750959 
    5555.58     0.015198738 
    5557.52     0.013749429 
    5559.46     0.011906986 
     5561.4     0.010657254 
    5563.34     0.014522237 
    5565.28     0.018715751 
    5567.22     0.017685541 
    5569.16     0.012906428 
     5571.1      0.01099657 
    5573.04     0.011865251 
    5574.98     0.018594821 
    5576.92     0.012089196 
    5578.86    0.0082926836 
     5580.8     0.012585955 
    5582.74     0.013003575 
    5584.68      0.01722616 
    5586.62     0.014392688 
    5588.56     0.013786302 
     5590.5     0.015751599 
    5592.44     0.013417187 
    5594.38      0.01157241 
    5596.32     0.016181329 
    5598.26     0.017485029 
     5600.2      0.01632466 
    5602.14     0.014550162 
    5604.08     0.010516284 
    5606.02     0.014762329 
    5607.96     0.016637617 
     5609.9     0.012964262 
    5611.84     0.010114277 
    5613.78    0.0081669863 
    5615.72    0.0075370064 
    5617.66    0.0063807203 
     5619.6     0.010709391 
    5621.54     0.015023183 
    5623.48     0.015846564 
    5625.42     0.011797855 
    5627.36    0.0099555684 
     5629.3      0.01252336 
    5631.24     0.012387746 
    5633.18      0.01268834 
    5635.12     0.014916498 
    5637.06      0.01569882 
     5639.0     0.015096532 
    5640.94     0.012280436 
    5642.88     0.012665865 
    5644.82     0.015776428 
    5646.76     0.016830768 
     5648.7     0.013932238 
    5650.64     0.011880503 
    5652.58     0.013222337 
    5654.52      0.01299653 
    5656.46     0.012121393 
     5658.4     0.014927031 
    5660.34      0.01501783 
    5662.28     0.011439351 
    5664.22    0.0088375468 
    5666.16    0.0060818604 
     5668.1    0.0076515783 
    5670.04     0.011501881 
    5671.98     0.016097445 
    5673.92     0.018037908 
    5675.86     0.015121727 
     5677.8      0.01317786 
    5679.74     0.011127179 
    5681.68    0.0094298655 
    5683.62     0.012374726 
    5685.56    0.0052690165 
     5687.5    0.0062988832 
    5689.44     0.013785651 
    5691.38      0.01540724 
    5693.32     0.013720772 
    5695.26     0.012025556 
     5697.2     0.012408548 
    5699.14    0.0096110788 
    5701.08     0.012287424 
    5703.02     0.014613249 
    5704.96     0.016323526 
     5706.9     0.013850815 
    5708.84    0.0084997696 
    5710.78    0.0068209462 
    5712.72    0.0095272826 
    5714.66     0.012258699 
     5716.6     0.012374112 
    5718.54     0.013037135 
    5720.48     0.012857818 
    5722.42     0.012756891 
    5724.36     0.014027048 
     5726.3     0.010412656 
    5728.24    0.0091437287 
    5730.18     0.012183681 
    5732.12     0.013111974 
    5734.06     0.011958868 
     5736.0     0.014192892 
    5737.94     0.012995488 
    5739.88     0.011509538 
    5741.82     0.013345301 
    5743.76     0.010446901 
     5745.7     0.013589387 
    5747.64     0.018983284 
    5749.58     0.017921569 
    5751.52     0.013882948 
    5753.46     0.012706124 
     5755.4     0.013467993 
    5757.34     0.011091272 
    5759.28     0.012965756 
    5761.22     0.010314067 
    5763.16    0.0091627214 
     5765.1     0.014654584 
    5767.04     0.011660356 
    5768.98     0.012726174 
    5770.92    0.0096753256 
    5772.86    0.0061751727 
     5774.8     0.010357255 
    5776.74     0.011565041 
    5778.68     0.010679815 
    5780.62     0.013363321 
    5782.56     0.013189248 
     5784.5    0.0089871037 
    5786.44     0.010143271 
    5788.38     0.012562479 
    5790.32     0.017464281 
    5792.26     0.015798734 
     5794.2     0.010106544 
    5796.14     0.011548279 
    5798.08     0.015716463 
    5800.02     0.017769263 
    5801.96     0.016720551 
     5803.9     0.012891082 
    5805.84    0.0065106186 
    5807.78     0.012483423 
    5809.72     0.020829111 
    5811.66     0.015485504 
     5813.6     0.017316423 
    5815.54     0.014405481 
    5817.48    0.0090277637 
    5819.42     0.013577844 
    5821.36     0.011959388 
     5823.3    0.0091081187 
    5825.24     0.010110198 
    5827.18     0.013167581 
    5829.12     0.013956685 
    5831.06     0.010685633 
     5833.0    0.0095786015 
    5834.94     0.012905932 
    5836.88     0.016047997 
    5838.82     0.013124498 
    5840.76      0.01696354 
     5842.7      0.01617454 
    5844.64    0.0090255582 
    5846.58     0.015992105 
    5848.52     0.010981107 
    5850.46    0.0041634257 
     5852.4     0.011174974 
    5854.34     0.019206543 
    5856.28     0.020959501 
    5858.22     0.015867959 
    5860.16    0.0087599027 
     5862.1     0.006608456 
    5864.04     0.011182462 
    5865.98      0.01248434 
    5867.92     0.010696136 
    5869.86     0.013560203 
     5871.8     0.020887305 
    5873.74     0.015256051 
    5875.68    0.0066175358 
    5877.62     0.013705723 
    5879.56     0.017576259 
     5881.5     0.012037457 
    5883.44     0.012649317 
    5885.38     0.010957358 
    5887.32    0.0075940488 
    5889.26    0.0082160101 
     5891.2     0.010027536 
    5893.14     0.012094988 
    5895.08      0.01817893 
    5897.02     0.017336418 
    5898.96     0.011699203 
     5900.9     0.013762118 
    5902.84     0.015123097 
    5904.78      0.01305903 
    5906.72     0.013117734 
    5908.66     0.011955949 
     5910.6    0.0079907291 
    5912.54      0.01329727 
    5914.48     0.012671989 
    5916.42     0.014000559 
    5918.36     0.019537329 
     5920.3     0.017096642 
    5922.24      0.01497456 
    5924.18     0.013877285 
    5926.12     0.017432975 
    5928.06     0.016672724 
     5930.0     0.011882626 
    5931.94    0.0073793053 
    5933.88     0.013826834 
    5935.82     0.016243833 
    5937.76     0.010569873 
     5939.7    0.0070928832 
    5941.64     0.011852054 
    5943.58     0.018117517 
    5945.52     0.014832701 
    5947.46     0.010812952 
     5949.4     0.013543994 
    5951.34     0.010189915 
    5953.28     0.011040168 
    5955.22     0.015319219 
    5957.16     0.019143253 
     5959.1      0.01304488 
    5961.04     0.010358468 
    5962.98      0.01601876 
    5964.92      0.01924703 
    5966.86     0.015860043 
     5968.8     0.015546269 
    5970.74     0.016937401 
    5972.68    0.0095862764 
    5974.62     0.009187801 
    5976.56     0.012616959 
     5978.5     0.013473322 
    5980.44     0.014635309 
    5982.38     0.015822342 
    5984.32       0.0124485 
    5986.26      0.01058234 
     5988.2     0.014758042 
    5990.14     0.012999317 
    5992.08     0.012615469 
    5994.02     0.010138243 
    5995.96    0.0089867402 
     5997.9     0.009552566 
    5999.84     0.017988603 
    6001.78     0.013091028 
    6003.72     0.010061972 
    6005.66     0.018251042 
     6007.6     0.014692257 
    6009.54     0.011326004 
    6011.48     0.011311255 
    6013.42    0.0077017732 
    6015.36     0.011756121 
     6017.3     0.017891242 
    6019.24      0.01290523 
    6021.18    0.0051094808 
    6023.12     0.016600774 
    6025.06     0.015472387 
     6027.0    0.0093507842 
    6028.94    0.0087588706 
    6030.88     0.010957162 
    6032.82     0.014374512 
    6034.76     0.013071399 
     6036.7    0.0080121538 
    6038.64    0.0080804452 
    6040.58    0.0089911052 
    6042.52     0.010322176 
    6044.46    0.0086625871 
     6046.4     0.007193239 
    6048.34     0.015330511 
    6050.28     0.015853144 
    6052.22     0.010845797 
    6054.16    0.0087147777 
     6056.1    0.0048960418 
    6058.04    0.0058398844 
    6059.98      0.01376435 
    6061.92     0.012043321 
    6063.86    0.0081154414 
     6065.8     0.012230053 
    6067.74    0.0099903826 
    6069.68    0.0050433632 
    6071.62     0.013893024 
    6073.56      0.01838494 
     6075.5     0.014195232 
    6077.44     0.010903058 
    6079.38     0.011860913 
    6081.32     0.013138449 
    6083.26     0.016987794 
     6085.2     0.013095694 
    6087.14     0.010306371 
    6089.08     0.013538948 
    6091.02     0.013547342 
    6092.96     0.010098797 
     6094.9    0.0045905157 
    6096.84     0.010039066 
    6098.78     0.017562553 
    6100.72     0.016980495 
    6102.66     0.012957051 
     6104.6      0.01104965 
    6106.54     0.015309839 
    6108.48     0.011684843 
    6110.42     0.012603573 
    6112.36     0.015019924 
     6114.3     0.013490864 
    6116.24     0.012487062 
    6118.18    0.0095173211 
    6120.12     0.016331414 
    6122.06     0.014263102 
     6124.0    0.0099229723 
    6125.94    0.0049393707 
    6127.88    0.0089086661 
    6129.82       0.0130397 
    6131.76    0.0086535488 
     6133.7     0.010273549 
    6135.64     0.012207459 
    6137.58      0.01237604 
    6139.52    0.0077039009 
    6141.46     0.009062169 
     6143.4    0.0051748416 
    6145.34    0.0044030034 
    6147.28     0.007786008 
    6149.22      0.01073107 
    6151.16     0.010238191 
     6153.1    0.0052141137 
    6155.04    0.0035932369 
    6156.98    0.0076283374 
    6158.92    0.0085990129 
    6160.86     0.015530754 
     6162.8     0.021091411 
    6164.74    0.0098760949 
    6166.68    0.0049157753 
    6168.62     0.011973348 
    6170.56     0.011467571 
     6172.5    0.0081370084 
    6174.44     0.011647968 
    6176.38     0.010571396 
    6178.32    0.0089669568 
    6180.26      0.01131624 
     6182.2     0.008532543 
    6184.14    0.0082306088 
    6186.08    0.0083203788 
    6188.02    0.0061210817 
    6189.96    0.0090274265 
     6191.9     0.014136889 
    6193.84     0.014587908 
    6195.78      0.01523342 
    6197.72     0.011279215 
    6199.66    0.0049808989 
     6201.6    0.0097768387 
    6203.54    0.0071517519 
    6205.48    0.0051190714 
    6207.42     0.012818442 
    6209.36     0.013368863 
     6211.3    0.0072760262 
    6213.24     0.008062841 
    6215.18    0.0080101718 
    6217.12    0.0093693517 
    6219.06     0.013694783 
     6221.0    0.0092897729 
    6222.94    0.0080654449 
    6224.88      0.00857802 
    6226.82     0.013261748 
    6228.76     0.012800215 
     6230.7    0.0034783362 
    6232.64    0.0068251354 
    6234.58     0.011496454 
    6236.52     0.010814234 
    6238.46    0.0073778881 
     6240.4    0.0069428995 
    6242.34     0.012193601 
    6244.28     0.014346192 
    6246.22    0.0061006745 
    6248.16    0.0035613711 
     6250.1     0.010397265 
    6252.04     0.015650008 
    6253.98    0.0082997002 
    6255.92    0.0033050842 
    6257.86     0.009048831 
     6259.8     0.011211877 
    6261.74     0.013628099 
    6263.68    0.0086356169 
    6265.62    0.0095882625 
    6267.56     0.012414473 
     6269.5     0.006644692 
    6271.44    0.0056693205 
    6273.38     0.012060964 
    6275.32     0.013161816 
    6277.26     0.010827528 
     6279.2    0.0068296103 
    6281.14    0.0057320045 
    6283.08     0.011273566 
    6285.02     0.018876149 
    6286.96      0.01567137 
     6288.9    0.0087426266 
    6290.84    0.0043196294 
    6292.78    0.0041218941 
    6294.72    0.0084411434 
    6296.66      0.01431491 
     6298.6     0.016557701 
    6300.54    0.0098092667 
    6302.48    0.0065126379 
    6304.42    0.0030407036 
    6306.36    0.0085369105 
     6308.3     0.017285565 
    6310.24     0.011952079 
    6312.18    0.0055036985 
    6314.12    0.0064324543 
    6316.06     0.013049179 
     6318.0      0.01058412 
    6319.94    0.0073652485 
    6321.88     0.013496203 
    6323.82     0.011917432 
    6325.76    0.0061067915 
     6327.7     0.006437941 
    6329.64    0.0070433372 
    6331.58    0.0030263154 
    6333.52   0.00048056921 
    6335.46    0.0090861646 
     6337.4     0.011014265 
    6339.34     0.011419778 
    6341.28     0.010087809 
    6343.22    0.0099243805 
    6345.16     0.014726555 
     6347.1     0.014119139 
    6349.04     0.010365269 
    6350.98    0.0079594821 
    6352.92    0.0077722655 
    6354.86     0.007681924 
     6356.8    0.0067776067 
    6358.74    0.0073157972 
    6360.68    0.0094917921 
    6362.62     0.010065497 
    6364.56     0.010264703 
     6366.5     0.011775112 
    6368.44    0.0069779925 
    6370.38    0.0083148703 
    6372.32    0.0076122736 
    6374.26     0.013760094 
     6376.2     0.011552579 
    6378.14    0.0042067321 
    6380.08     0.010865381 
    6382.02    0.0092424657 
    6383.96    0.0072506983 
     6385.9     0.010855858 
    6387.84     0.011796616 
    6389.78     0.010943584 
    6391.72    0.0075215353 
    6393.66    0.0049577203 
     6395.6     0.008374453 
    6397.54     0.010626208 
    6399.48     0.008661263 
    6401.42    0.0090778375 
    6403.36     0.012155598 
     6405.3    0.0075450109 
    6407.24    0.0061255366 
    6409.18     0.010000161 
    6411.12    0.0077379472 
    6413.06    0.0093376046 
     6415.0    0.0078920871 
    6416.94    0.0087275094 
    6418.88    0.0099678651 
    6420.82    0.0085813265 
    6422.76    0.0065949862 
     6424.7    0.0046265764 
    6426.64      0.01085458 
    6428.58     0.012437634 
    6430.52    0.0097330051 
    6432.46    0.0060604762 
     6434.4    0.0097588329 
    6436.34     0.011833782 
    6438.28    0.0097760251 
    6440.22     0.010597917 
    6442.16     0.010478282 
     6444.1     0.011370644 
    6446.04     0.010358868 
    6447.98     0.012115466 
    6449.92    0.0082935169 
    6451.86    0.0079201356 
     6453.8    0.0098328988 
    6455.74     0.012242295 
    6457.68     0.013076668 
    6459.62    0.0075933413 
    6461.56    0.0098120842 
     6463.5     0.012589809 
    6465.44    0.0020596422 
    6467.38   -0.0010439307 
    6469.32    0.0096997151 
    6471.26     0.012685362 
     6473.2    0.0090669374 
    6475.14     0.011828219 
    6477.08    0.0066538755 
    6479.02    0.0030831107 
    6480.96    0.0091634948 
     6482.9    0.0092267904 
    6484.84    0.0072490731 
    6486.78     0.012012096 
    6488.72    0.0081222513 
    6490.66    0.0077427622 
     6492.6     0.010006189 
    6494.54    0.0094684285 
    6496.48    0.0049551763 
    6498.42    0.0058545099 
    6500.36    0.0059669665 
     6502.3    0.0038733415 
    6504.24    0.0055541178 
    6506.18    0.0091258522 
    6508.12    0.0082928519 
    6510.06    0.0068936103 
     6512.0    0.0059853342 
    6513.94    0.0070716826 
    6515.88     0.014053105 
    6517.82     0.013340414 
    6519.76    0.0074630855 
     6521.7    0.0055857097 
    6523.64    0.0074144872 
    6525.58    0.0097531876 
    6527.52     0.011772481 
    6529.46    0.0069207832 
     6531.4    0.0083081284 
    6533.34     0.011917787 
    6535.28    0.0068666358 
    6537.22     0.011141639 
    6539.16     0.009931219 
     6541.1    0.0076315705 
    6543.04    0.0097952152 
    6544.98     0.011627104 
    6546.92    0.0096935549 
    6548.86     0.011073202 
     6550.8    0.0086986359 
    6552.74    0.0092241234 
    6554.68     0.013260697 
    6556.62     0.012720858 
    6558.56     0.014041382 
     6560.5     0.010549606 
    6562.44    0.0082725041 
    6564.38    0.0068420724 
    6566.32    0.0059217729 
    6568.26    0.0086818521 
     6570.2     0.011134379 
    6572.14     0.013255282 
    6574.08     0.008750908 
    6576.02    0.0043016313 
    6577.96    0.0090098207 
     6579.9     0.015766933 
    6581.84     0.008520122 
    6583.78    0.0027803378 
    6585.72    0.0081075419 
    6587.66     0.011223127 
     6589.6     0.011435744 
    6591.54     0.011814778 
    6593.48    0.0098808362 
    6595.42     0.011844515 
    6597.36     0.012948862 
     6599.3    0.0063083282 
    6601.24    0.0090138283 
    6603.18     0.012978243 
    6605.12     0.012128344 
    6607.06    0.0059539969 
     6609.0     0.010469283 
    6610.94     0.014982155 
    6612.88    0.0084700833 
    6614.82    0.0033362486 
    6616.76      0.00796611 
     6618.7     0.012676262 
    6620.64    0.0069317871 
    6622.58    0.0099088191 
    6624.52     0.010762956 
    6626.46     0.007106828 
     6628.4    0.0080026015 
    6630.34     0.007469541 
    6632.28    0.0099368053 
    6634.22     0.009983141 
    6636.16    0.0093570156 
     6638.1    0.0086109284 
    6640.04    0.0078136811 
    6641.98    0.0065129299 
    6643.92    0.0082795794 
    6645.86    0.0067634306 
     6647.8     0.005338967 
    6649.74    0.0075861493 
    6651.68    0.0046679583 
    6653.62    0.0082350349 
    6655.56     0.013911839 
     6657.5    0.0092410975 
    6659.44     0.008510797 
    6661.38     0.013809517 
    6663.32     0.013588532 
    6665.26     0.009133206 
     6667.2     0.014689958 
    6669.14     0.015941076 
    6671.08    0.0093928336 
    6673.02    0.0079913782 
    6674.96      0.01026172 
     6676.9     0.010903026 
    6678.84    0.0086484487 
    6680.78    0.0072642726 
    6682.72    0.0077526092 
    6684.66     0.010743153 
     6686.6     0.014420383 
    6688.54    0.0085766799 
    6690.48    0.0039418474 
    6692.42    0.0049109531 
    6694.36    0.0054643069 
     6696.3    0.0063303273 
    6698.24    0.0057905007 
    6700.18    0.0072308646 
    6702.12    0.0015327109 
    6704.06    0.0060225961 
     6706.0    0.0083898501 
    6707.94     0.010037092 
    6709.88     0.013792442 
    6711.82     0.011424662 
    6713.76    0.0086695176 
     6715.7     0.012132679 
    6717.64     0.011806051 
    6719.58    0.0010027266 
    6721.52    0.0040662119 
    6723.46     0.015030298 
     6725.4     0.010596583 
    6727.34    0.0034904834 
    6729.28    0.0088087653 
    6731.22     0.014159648 
    6733.16    0.0086752787 
     6735.1    0.0092767808 
    6737.04     0.010350073 
    6738.98     0.010022491 
    6740.92     0.010911657 
    6742.86     0.012072621 
     6744.8    0.0078417801 
    6746.74    0.0064570097 
    6748.68     0.007089051 
    6750.62     0.009790611 
    6752.56    0.0072238854 
     6754.5    0.0050472178 
    6756.44     0.007824038 
    6758.38    0.0067615096 
    6760.32    0.0029793567 
    6762.26    0.0024419206 
     6764.2    0.0046512094 
    6766.14    0.0097609493 
    6768.08    0.0075425481 
    6770.02    0.0070418124 
    6771.96     0.010006462 
     6773.9    0.0071232068 
    6775.84    0.0091012191 
    6777.78      0.01002924 
    6779.72    0.0091988762 
    6781.66    0.0067665344 
     6783.6    0.0077033662 
    6785.54    0.0099560099 
    6787.48     0.010891789 
    6789.42    0.0096501278 
    6791.36    0.0090245145 
     6793.3     0.012638399 
    6795.24     0.011488672 
    6797.18    0.0060345783 
    6799.12    0.0070245778 
    6801.06    0.0092942498 
     6803.0     0.011563324 
    6804.94    0.0093433744 
    6806.88    0.0019640966 
    6808.82    0.0032038227 
    6810.76     0.010708306 
     6812.7     0.012356552 
    6814.64      0.01114205 
    6816.58     0.006591488 
    6818.52    0.0070334042 
    6820.46      0.01361923 
     6822.4    0.0081778061 
    6824.34    0.0076257619 
    6826.28     0.011296854 
    6828.22    0.0059740268 
    6830.16    0.0079290692 
     6832.1     0.010785619 
    6834.04    0.0093198845 
    6835.98     0.013347825 
    6837.92     0.020617168 
    6839.86     0.018482532 
     6841.8     0.015286082 
    6843.74      0.01333951 
    6845.68     0.010084624 
    6847.62    0.0053574033 
    6849.56   0.00045844278 
     6851.5    0.0081291553 
    6853.44     0.015674344 
    6855.38     0.010497889 
    6857.32   -0.0011207244 
    6859.26   -0.0054262497 
     6861.2    -0.001576701 
    6863.14    0.0062487262 
    6865.08     0.013746753 
    6867.02     0.014872896 
    6868.96    0.0081828264 
     6870.9      0.00733609 
    6872.84     0.011540533 
    6874.78    0.0075268258 
    6876.72  -0.00062739891 
    6878.66    0.0027923504 
     6880.6    0.0072951757 
    6882.54    0.0053629375 
    6884.48    0.0079478254 
    6886.42     0.010169183 
    6888.36     0.010075728 
     6890.3    0.0075277924 
    6892.24    0.0064970385 
    6894.18     0.012011352 
    6896.12    0.0098587564 
    6898.06    0.0082301051 
     6900.0      0.01215615 
    6901.94    0.0084573939 
    6903.88    0.0038198503 
    6905.82    0.0080704404 
    6907.76     0.016590613 
     6909.7     0.014603993 
    6911.64     0.013389107 
    6913.58      0.01927812 
    6915.52     0.011625997 
    6917.46    0.0020505385 
     6919.4    0.0066859324 
    6921.34    0.0089308685 
    6923.28    0.0083413217 
    6925.22    0.0088204679 
    6927.16    0.0098411523 
     6929.1    0.0099352829 
    6931.04    0.0071558381 
    6932.98     0.013149364 
    6934.92     0.016255268 
    6936.86     0.016304939 
     6938.8    0.0090752173 
    6940.74   0.00089655187 
    6942.68     0.010370449 
    6944.62     0.010225593 
    6946.56    0.0055638653 
     6948.5    0.0091370675 
    6950.44     0.012112579 
    6952.38    0.0075619886 
    6954.32    0.0021171159 
    6956.26    0.0068611375 
     6958.2    0.0099256295 
    6960.14     0.010149679 
    6962.08    0.0038816949 
    6964.02    0.0077747844 
    6965.96    0.0069395043 
     6967.9    0.0024150587 
    6969.84      0.01054198 
    6971.78     0.014063159 
    6973.72      0.01257352 
    6975.66    0.0069732577 
     6977.6     0.008203057 
    6979.54    0.0028487987 
    6981.48   0.00034887829 
    6983.42    0.0027688347 
    6985.36    0.0095089881 
     6987.3     0.010140276 
    6989.24     0.010109042 
    6991.18     0.011097209 
    6993.12    0.0063863269 
    6995.06    0.0036922061 
     6997.0    0.0068930455 
    6998.94     0.009544174 
    7000.88     0.007314725 
    7002.82     0.010240237 
    7004.76     0.012559706 
     7006.7    0.0039534473 
    7008.64    0.0079787345 
    7010.58     0.015495703 
    7012.52     0.017422376 
    7014.46    0.0095718907 
     7016.4    0.0054994716 
    7018.34     0.010244486 
    7020.28    0.0038297841 
    7022.22    0.0084729796 
    7024.16     0.012984584 
     7026.1    0.0097410263 
    7028.04     0.012630996 
    7029.98     0.004218369 
    7031.92    0.0018556576 
    7033.86    0.0079018741 
     7035.8    0.0073700176 
    7037.74   0.00067825587 
    7039.68    0.0084243923 
    7041.62    0.0087577132 
    7043.56    0.0071004133 
     7045.5    0.0069773648 
    7047.44      0.01419788 
    7049.38     0.010041025 
    7051.32    0.0062170405 
    7053.26    0.0055660656 
     7055.2    0.0049094678 
    7057.14     0.008811699 
    7059.08    0.0087198986 
    7061.02     0.010438948 
    7062.96     0.015299563 
     7064.9    0.0076394216 
    7066.84    0.0050543057 
    7068.78    0.0056134497 
    7070.72    0.0045569515 
    7072.66  -0.00097322949 
     7074.6    0.0052775306 
    7076.54    0.0086626104 
    7078.48     0.003556555 
    7080.42    0.0099701621 
    7082.36    0.0065670313 
     7084.3     0.014030165 
    7086.24     0.016589035 
    7088.18    0.0027520626 
    7090.12    0.0029001913 
    7092.06    0.0080404783 
     7094.0    0.0084742792 
    7095.94    0.0059500456 
    7097.88   -0.0014033765 
    7099.82    0.0069438515 
    7101.76    0.0060956975 
     7103.7    0.0044172885 
    7105.64    0.0065183259 
    7107.58     0.012907649 
    7109.52     0.015812851 
    7111.46     0.014135415 
     7113.4   0.00087337025 
    7115.34    0.0022865719 
    7117.28     0.011462525 
    7119.22     0.012545587 
    7121.16   0.00074095918 
     7123.1    0.0074407069 
    7125.04    0.0058579097 
    7126.98   -0.0012168416 
    7128.92    0.0042674091 
    7130.86    0.0082504188 
     7132.8     0.010014769 
    7134.74     0.010142673 
    7136.68    0.0017914307 
    7138.62    0.0078463542 
    7140.56     0.011604037 
     7142.5    0.0099637538 
    7144.44    0.0084095507 
    7146.38     0.008030781 
    7148.32    0.0073092923 
    7150.26    0.0066600879 
     7152.2    0.0073184493 
    7154.14     0.015288026 
    7156.08     0.018486188 
    7158.02    0.0066679977 
    7159.96    0.0010911863 
     7161.9     0.015932365 
    7163.84     0.013434521 
    7165.78    0.0072795869 
    7167.72    0.0065178883 
    7169.66    0.0094481539 
     7171.6    0.0081652856 
    7173.54     0.012260258 
    7175.48    0.0073203291 
    7177.42     0.004065861 
    7179.36    0.0082904698 
     7181.3     0.005003378 
    7183.24    0.0063726683 
    7185.18    0.0079215284 
    7187.12    0.0022122131 
    7189.06    0.0083919432 
     7191.0     0.010995596 
    7192.94     0.006699422 
    7194.88    0.0060449651 
    7196.82    0.0020507433 
    7198.76     0.010155367 
     7200.7    0.0051258454 
    7202.64    0.0070499644 
    7204.58     0.012681662 
    7206.52    0.0058912507 
    7208.46    0.0091834707 
     7210.4     0.010242065 
    7212.34     0.012851167 
    7214.28     0.015924823 
    7216.22    0.0062854292 
    7218.16    0.0042094561 
     7220.1    0.0095771257 
    7222.04     0.012419305 
    7223.98    0.0093217126 
    7225.92  -0.00087984643 
    7227.86    0.0022919738 
     7229.8     0.013222143 
    7231.74    0.0076246247 
    7233.68     0.010195547 
    7235.62     0.014976984 
    7237.56     0.016576632 
     7239.5     0.013344831 
    7241.44   -0.0026833213 
    7243.38    0.0082602847 
    7245.32     0.013808098 
    7247.26    0.0077310107 
     7249.2     0.011206038 
    7251.14    0.0095744441 
    7253.08     0.010262111 
    7255.02    0.0075392602 
    7256.96    0.0048237801 
     7258.9    0.0094972574 
    7260.84     0.008208732 
    7262.78    0.0064529139 
    7264.72     0.011864471 
    7266.66    0.0078810605 
     7268.6    0.0042624093 
    7270.54    0.0067018238 
    7272.48     0.014438578 
    7274.42    0.0096935375 
    7276.36  -0.00050011103 
     7278.3    0.0087178704 
    7280.24     0.014160199 
    7282.18     0.010412714 
    7284.12     0.015339588 
    7286.06     0.013200815 
     7288.0    0.0082565766 
    7289.94     0.018874177 
    7291.88    0.0094500585 
    7293.82    0.0029758281 
    7295.76     0.011590885 
     7297.7    0.0040195157 
    7299.64    0.0058678947 
    7301.58     0.010923684 
    7303.52     0.013461592 
    7305.46      0.01675401 
     7307.4    0.0093734751 
    7309.34     0.014774225 
    7311.28    0.0072919044 
    7313.22    -0.007583537 
    7315.16    0.0023348222 
     7317.1     0.016727675 
    7319.04     0.013632123 
    7320.98    0.0049982784 
    7322.92     0.017836966 
    7324.86     0.016042957 
     7326.8    0.0075493291 
    7328.74    0.0086032086 
    7330.68    0.0062897417 
    7332.62    0.0056807546 
    7334.56    0.0012657135 
     7336.5    0.0049561391 
    7338.44     0.014731593 
    7340.38    0.0089884495 
    7342.32     0.015849426 
    7344.26     0.020015033 
     7346.2      0.01983503 
    7348.14      0.00419008 
    7350.08    0.0048576265 
    7352.02     0.014008307 
    7353.96    0.0046960953 
     7355.9    0.0021238197 
    7357.84     0.015552875 
    7359.78    0.0047900953 
    7361.72  -0.00011731423 
    7363.66     0.011597877 
     7365.6      0.01266803 
    7367.54    0.0017784967 
    7369.48   0.00096855487 
    7371.42   -0.0068517385 
    7373.36   -0.0066192955 
     7375.3    0.0093734775 
    7377.24    0.0036055319 
    7379.18    0.0019527383 
    7381.12     0.012769894 
    7383.06     0.010673906 
     7385.0    0.0097101264 
    7386.94    0.0037657474 
    7388.88    0.0012477671 
    7390.82    0.0038823432 
    7392.76    0.0060793588 
     7394.7    0.0035042035 
    7396.64     0.003135994 
    7398.58     0.012648233 
    7400.52     0.012724564 
    7402.46     0.013125151 
     7404.4    0.0034735494 
    7406.34   0.00090742851 
    7408.28    0.0064298603 
    7410.22     0.021099714 
    7412.16     0.012125768 
     7414.1    0.0097649168 
    7416.04      0.01811797 
    7417.98      0.01727455 
    7419.92    0.0093360564 
    7421.86    0.0049921186 
     7423.8    0.0074188906 
    7425.74    0.0035750803 
    7427.68    -0.003972161 
    7429.62    0.0041138896 
    7431.56     0.012220824 
     7433.5    0.0085888911 
    7435.44    0.0088610984 
    7437.38    0.0064194756 
    7439.32    0.0060154943 
    7441.26    0.0050527272 
     7443.2    0.0073648481 
    7445.14     0.013254575 
    7447.08    0.0085238463 
    7449.02    0.0085502247 
    7450.96    0.0053540245 
     7452.9    0.0048497057 
    7454.84    0.0057344601 
    7456.78     0.004167595 
    7458.72    0.0033235261 
    7460.66    0.0076785373 
     7462.6    0.0088165277 
    7464.54    0.0067212902 
    7466.48    0.0083596798 
    7468.42    0.0097911566 
    7470.36     0.013587099 
     7472.3     0.012472282 
    7474.24  -0.00049589649 
    7476.18    -0.011078212 
    7478.12    0.0030587385 
    7480.06     0.017993068 
     7482.0      0.01179783 
    7483.94    0.0059611879 
    7485.88    0.0080977878 
    7487.82    0.0099425587 
    7489.76    0.0029662716 
     7491.7     0.011768745 
    7493.64    0.0059051917 
    7495.58    0.0010181113 
    7497.52    0.0014318515 
    7499.46    0.0063244195 
     7501.4    0.0077811419 
    7503.34    0.0085953975 
    7505.28     0.006002018 
    7507.22    0.0037227457 
    7509.16    0.0040198896 
     7511.1    0.0031903706 
    7513.04      0.01306534 
    7514.98    0.0077946993 
    7516.92   -0.0028883002 
    7518.86    0.0046527909 
     7520.8    0.0049335321 
    7522.74    0.0026305877 
    7524.68    0.0076080204 
    7526.62  -0.00063056076 
    7528.56    0.0051676316 
     7530.5     0.003126887 
    7532.44    0.0012128503 
    7534.38     0.013413194 
    7536.32     0.011796599 
    7538.26    0.0031578467 
     7540.2   -0.0016479069 
    7542.14  -0.00069303705 
    7544.08    0.0090996421 
    7546.02    0.0077352683 
    7547.96    0.0098621777 
     7549.9    0.0085346923 
    7551.84    0.0045621748 
    7553.78    0.0085643071 
    7555.72    0.0010029723 
    7557.66      0.00587765 
     7559.6    0.0068667282 
    7561.54    0.0079307724 
    7563.48     0.015021943 
    7565.42    0.0034880552 
    7567.36    0.0079025392 
     7569.3     0.014968608 
    7571.24    0.0042840747 
    7573.18    0.0067366521 
    7575.12       0.0117561 
    7577.06    0.0083613287 
     7579.0     0.013365133 
    7580.94      0.01568146 
    7582.88     0.012662321 
    7584.82    0.0069035345 
    7586.76  -0.00089267081 
     7588.7    0.0058884985 
    7590.64     0.010172709 
    7592.58    0.0061775693 
    7594.52    0.0043817208 
    7596.46    0.0059646156 
     7598.4     0.017678261 
    7600.34    0.0057652645 
    7602.28   -0.0027894405 
    7604.22    0.0095526231 
    7606.16   -0.0010953577 
     7608.1     -0.00156065 
    7610.04    0.0040680395 
    7611.98  -0.00027530533 
    7613.92    0.0086149263 
    7615.86      0.01505001 
     7617.8    0.0055360176 
    7619.74    0.0074779857 
    7621.68    0.0094429586 
    7623.62    0.0059865289 
    7625.56    0.0080588321 
     7627.5    0.0021962599 
    7629.44    0.0073847994 
    7631.38    0.0064841807 
    7633.32    0.0094218525 
    7635.26     0.010257723 
     7637.2    0.0022749731 
    7639.14    0.0033782074 
    7641.08    0.0073565951 
    7643.02     0.012019718 
    7644.96    0.0060971772 
     7646.9    0.0059852262 
    7648.84    0.0039097763 
    7650.78    0.0011465649 
    7652.72    0.0076310533 
    7654.66    0.0058796347 
     7656.6    0.0083137218 
    7658.54     0.010987736 
    7660.48    0.0085679079 
    7662.42    0.0036959551 
    7664.36    0.0069453255 
     7666.3     0.012240435 
    7668.24    0.0094753113 
    7670.18    0.0030597942 
    7672.12    0.0051792064 
    7674.06     0.011331633 
     7676.0    0.0052017091 
    7677.94   -0.0026639688 
    7679.88    0.0052666698 
    7681.82     0.011637646 
    7683.76    0.0083309102 
     7685.7  -0.00061561204 
    7687.64   -0.0047937951 
    7689.58    0.0060886709 
    7691.52    0.0028260337 
    7693.46  -0.00066405803 
     7695.4    0.0084177235 
    7697.34    0.0047486987 
    7699.28   -0.0044921533 
    7701.22    0.0040946721 
    7703.16     0.012160402 
     7705.1    0.0078143116 
    7707.04   -0.0017315391 
    7708.98     0.004514973 
    7710.92    0.0083017378 
    7712.86    0.0093579321 
     7714.8     0.011618688 
    7716.74     0.012056431 
    7718.68    0.0083072879 
    7720.62     0.016560765 
    7722.56     0.018560436 
     7724.5    0.0049760948 
    7726.44   -0.0030282443 
    7728.38    0.0004326645 
    7730.32  -0.00065670908 
    7732.26     0.014634683 
     7734.2     0.018018138 
    7736.14     0.016166908 
    7738.08     0.014303222 
    7740.02    0.0078985053 
    7741.96    0.0043979948 
     7743.9     0.013515361 
    7745.84     0.018912693 
    7747.78     0.012696577 
    7749.72    0.0040223856 
    7751.66     0.018296799 
     7753.6     0.024722397 
    7755.54     0.029384035 
    7757.48     0.016003403 
    7759.42    0.0034130211 
    7761.36    0.0067432239 
     7763.3     0.017114087 
    7765.24     0.016849024 
    7767.18   0.00090270709 
    7769.12     0.008493881 
    7771.06     0.014466147 
     7773.0     0.010687766 
    7774.94    0.0056992993 
    7776.88    0.0089334427 
    7778.82    0.0069583861 
    7780.76    0.0045112362 
     7782.7    0.0046150685 
    7784.64    0.0074413432 
    7786.58     0.011875764 
    7788.52     0.020180061 
    7790.46    0.0086659431 
     7792.4  -9.3890308e-05 
    7794.34     0.012586694 
    7796.28    0.0098538048 
    7798.22   0.00040330513 
    7800.16   -0.0026668183 
     7802.1   -0.0017413753 
    7804.04    0.0029903191 
    7805.98    0.0083969558 
    7807.92    0.0091995602 
    7809.86    0.0079414846 
     7811.8    0.0078052591 
    7813.74    0.0094037783 
    7815.68     0.018769414 
    7817.62     0.017783705 
    7819.56    0.0066259835 
     7821.5   -0.0058950431 
    7823.44   -0.0075777787 
    7825.38  -0.00060012904 
    7827.32   0.00087195856 
    7829.26    0.0029628144 
     7831.2    0.0057851834 
    7833.14    0.0052086037 
    7835.08    0.0045197234 
    7837.02    0.0034153262 
    7838.96      0.00693965 
     7840.9     0.013898187 
    7842.84     0.015876303 
    7844.78     0.021442342 
    7846.72     0.016779872 
    7848.66    0.0074454459 
     7850.6     0.011249523 
    7852.54     0.012893073 
    7854.48     0.016371777 
    7856.42     0.020565312 
    7858.36     0.015944563 
     7860.3     0.012266682 
    7862.24     0.018143306 
    7864.18     0.020014902 
    7866.12     0.012402532 
    7868.06   -0.0022177825 
     7870.0   -0.0052823248 
    7871.94     0.013983085 
    7873.88      0.01258063 
    7875.82    0.0021883582 
    7877.76     0.010625474 
     7879.7    0.0028680064 
    7881.64  -0.00027674872 
    7883.58    0.0089971789 
    7885.52    0.0084486645 
    7887.46   -0.0030293543 
     7889.4   -0.0065176777 
    7891.34     0.005121327 
    7893.28     0.020544963 
    7895.22     0.021517482 
    7897.16      0.01378792 
     7899.1     0.010044393 
    7901.04     0.007807161 
    7902.98     0.010400061 
    7904.92     0.014487428 
    7906.86     0.018635341 
     7908.8     0.016232271 
    7910.74    0.0072828621 
    7912.68    0.0096300014 
    7914.62   -0.0054215299 
    7916.56    -0.006994762 
     7918.5    0.0070490218 
    7920.44     0.015404105 
    7922.38    0.0060214636 
    7924.32    0.0023839102 
    7926.26    0.0011332416 
     7928.2    -0.003114053 
    7930.14      0.01281784 
    7932.08     0.010700939 
    7934.02   -0.0056640946 
    7935.96  -0.00025004009 
     7937.9    0.0037943267 
    7939.84    0.0017780115 
    7941.78    0.0047939192 
    7943.72     0.009051019 
    7945.66     0.021599168 
     7947.6     0.014619741 
    7949.54   -0.0027455518 
    7951.48    0.0029961035 
    7953.42    0.0087019766 
    7955.36     0.003415485 
     7957.3    0.0058273538 
    7959.24    -0.004664726 
    7961.18     -0.01402186 
    7963.12  -0.00088431243 
    7965.06    0.0046406403 
     7967.0    0.0065520069 
    7968.94     0.010073126 
    7970.88    0.0035638174 
    7972.82   -0.0028567745 
    7974.76    0.0078885515 
     7976.7     0.016494917 
    7978.64    0.0028469101 
    7980.58    0.0023740867 
    7982.52   0.00096086179 
    7984.46    0.0031645517 
     7986.4     0.010677426 
    7988.34    0.0087590578 
    7990.28     0.018484741 
    7992.22     0.020803888 
    7994.16     0.011491176 
     7996.1     0.025139852 
    7998.04     0.011339405 
    7999.98   -0.0086884745 
    8001.92    0.0070480841 
    8003.86     0.017498258 
     8005.8    0.0071323824 
    8007.74    0.0018122481 
    8009.68    0.0045677248 
    8011.62    0.0081091959 
    8013.56    0.0021269546 
     8015.5  -0.00027026075 
    8017.44     0.013337588 
    8019.38     0.017483956 
    8021.32    0.0085622291 
    8023.26   -0.0036313636 
     8025.2   -0.0037197874 
    8027.14    0.0038867759 
    8029.08    0.0011904227 
    8031.02   -0.0056822088 
    8032.96   -0.0012183346 
     8034.9    0.0015395193 
    8036.84    0.0028277538 
    8038.78    0.0054029235 
    8040.72     0.004138475 
    8042.66    0.0038998713 
     8044.6    0.0044589613 
    8046.54    0.0096163448 
    8048.48     0.012660323 
    8050.42    0.0065813411 
    8052.36    0.0052769277 
     8054.3     0.013629571 
    8056.24     0.010005273 
    8058.18    -0.004176971 
    8060.12   0.00041784249 
    8062.06     0.014743205 
     8064.0    0.0057672391 
    8065.94    -0.003585107 
    8067.88    0.0028977023 
    8069.82    0.0037412302 
    8071.76    0.0015011057 
     8073.7   -0.0016534901 
    8075.64    0.0046267388 
    8077.58     0.017583404 
    8079.52    0.0058250873 
    8081.46   -0.0071081244 
     8083.4    0.0020515826 
    8085.34    0.0072253405 
    8087.28    0.0079789694 
    8089.22    0.0081793787 
    8091.16    0.0029037086 
     8093.1   0.00066315557 
    8095.04    0.0024646408 
    8096.98    0.0093719434 
    8098.92     0.018633643 
    8100.86    0.0079984023 
     8102.8     0.010725394 
    8104.74     0.019207201 
    8106.68     0.011924048 
    8108.62    0.0035271215 
    8110.56    0.0087903189 
     8112.5     0.012980346 
    8114.44     0.012815782 
    8116.38    0.0096794253 
    8118.32    0.0077316016 
    8120.26     0.013396855 
     8122.2    0.0035077393 
    8124.14    -0.011350394 
    8126.08   -0.0023253467 
    8128.02    0.0038833885 
    8129.96    0.0093001214 
     8131.9  -9.1696201e-05 
    8133.84    0.0036815117 
    8135.78     0.010863362 
    8137.72     0.004138528 
    8139.66    0.0031941031 
     8141.6      0.01288272 
    8143.54     0.018025202 
    8145.48     0.012658815 
    8147.42   0.00081613248 
    8149.36   -0.0018695112 
     8151.3   -0.0093993704 
    8153.24   -0.0043316376 
    8155.18    0.0094549487 
    8157.12     0.010271772 
    8159.06    0.0077877069 
     8161.0    0.0021579641 
    8162.94   -0.0025618511 
    8164.88   0.00096972805 
    8166.82    0.0093233813 
    8168.76     0.011252355 
     8170.7   -0.0012781549 
    8172.64   -0.0033641488 
    8174.58  -0.00029933206 
    8176.52      0.01156048 
    8178.46     0.024324099 
     8180.4     0.017620857 
    8182.34     0.018820641 
    8184.28    0.0023569562 
    8186.22    0.0010011886 
    8188.16     0.010201255 
     8190.1     0.021131957 
    8192.04    0.0092447985 
    8193.98    0.0043936405 
    8195.92  -0.00042733793 
    8197.86     0.014840398 
     8199.8     0.033662917 
    8201.74     0.022538231 
    8203.68   -0.0067211858 
    8205.62   0.00036134865 
    8207.56     0.014366914 
     8209.5    0.0055617445 
    8211.44   -0.0022315764 
    8213.38   -0.0011248424 
    8215.32    0.0058650107 
    8217.26    0.0047399445 
     8219.2  -0.00070537868 
    8221.14     0.007874659 
    8223.08     0.014012363 
    8225.02    0.0062407686 
    8226.96   -0.0018713138 
     8228.9    0.0073644482 
    8230.84     0.010370611 
    8232.78    -0.001069882 
    8234.72    0.0076847846 
    8236.66     0.004981573 
     8238.6   -0.0050430756 
    8240.54    0.0028796882 
    8242.48     0.008616462 
    8244.42     0.004070762 
    8246.36     0.008531933 
     8248.3    0.0095400146 
    8250.24    0.0043527182 
    8252.18    0.0088480577 
    8254.12     0.019617843 
    8256.06     0.010045708 
     8258.0   -0.0011607546 
    8259.94    0.0034150224 
    8261.88    0.0050957401 
    8263.82    0.0045751864 
    8265.76     0.010388669 
     8267.7       0.0113036 
    8269.64    0.0075520155 
    8271.58     0.010791561 
    8273.52     0.021540915 
    8275.46     0.019775223 
     8277.4    0.0023022041 
    8279.34      0.01523399 
    8281.28     0.029111964 
    8283.22     0.020932394 
    8285.16    0.0056088249 
     8287.1    0.0090725936 
    8289.04     0.011624277 
    8290.98   -0.0039382634 
    8292.92     0.010998394 
    8294.86    0.0014784131 
     8296.8   -0.0041611252 
    8298.74    -0.012530314 
    8300.68     0.010572128 
    8302.62    0.0032795248 
    8304.56     0.013720927 
     8306.5   -0.0045565279 
    8308.44    -0.013692239 
    8310.38    0.0013223976 
    8312.32   -0.0018506882 
    8314.26    0.0050590354 
     8316.2     0.015359813 
    8318.14   -0.0051632221 
    8320.08   -0.0069158983 
    8322.02     0.013742302 
    8323.96     0.006002954 
     8325.9      0.00171212 
    8327.84    0.0038460685 
    8329.78     0.012154626 
    8331.72   0.00048749323 
    8333.66     0.010932722 
     8335.6    0.0080313473 
    8337.54     0.020027519 
    8339.48     0.014560118 
    8341.42     0.030505343 
    8343.36     0.022490737 
     8345.3     0.017996413 
    8347.24      0.01776052 
    8349.18   -0.0015563178 
    8351.12    0.0055525079 
    8353.06     0.012305957 
     8355.0     0.017183783 
    8356.94     0.012530411 
    8358.88   -0.0022106557 
    8360.82     0.015382956 
    8362.76     0.011458303 
     8364.7     0.012893565 
    8366.64     0.003361718 
    8368.58     0.010927697 
    8370.52    0.0091099148 
    8372.46    0.0037757053 
     8374.4    0.0012517307 
    8376.34     0.016745256 
    8378.28    0.0049274126 
    8380.22    -0.011452069 
    8382.16    -0.015191098 
     8384.1    -0.014923758 
    8386.04   -0.0032062172 
    8387.98  -0.00082205476 
    8389.92   -0.0095942727 
    8391.86     0.010721512 
     8393.8    0.0066613071 
    8395.74     0.014056169 
    8397.68    0.0037343774 
    8399.62   -0.0089156596 
    8401.56    0.0030393841 
     8403.5   -0.0015941824 
    8405.44   -0.0010323685 
    8407.38    0.0011069762 
    8409.32     0.016568726 
    8411.26    0.0098214125 
     8413.2    -0.010553211 
    8415.14    0.0042915406 
    8417.08     0.013977758 
    8419.02    0.0083571182 
    8420.96   -0.0061274872 
     8422.9      0.02035406 
    8424.84    0.0094766329 
    8426.78   0.00050383677 
    8428.72     0.025581601 
    8430.66     0.019597466 
     8432.6    0.0076163259 
    8434.54   -0.0058828988 
    8436.48    0.0083888743 
    8438.42    0.0072204097 
    8440.36  -0.00018576213 
     8442.3     0.013893015 
    8444.24       0.0159246 
    8446.18     0.023715346 
    8448.12     0.017495405 
    8450.06    0.0024216427 
     8452.0     0.019105415 
    8453.94     0.021699865 
    8455.88    -0.015113562 
    8457.82   -0.0046597044 
    8459.76   -0.0013897587 
     8461.7   -0.0044392731 
    8463.64     0.021710998 
    8465.58   -0.0019613512 
    8467.52    0.0089655433 
    8469.46     0.010523632 
     8471.4    0.0016295793 
    8473.34     0.010037287 
    8475.28    0.0062245274 
    8477.22    0.0096056403 
    8479.16    0.0054119787 
     8481.1    0.0022901137 
    8483.04     0.011084857 
    8484.98    0.0041994097 
    8486.92     0.014353768 
    8488.86    0.0066975279 
     8490.8   -0.0084955908 
    8492.74     0.011952738 
    8494.68     0.031561469 
    8496.62     0.014217258 
    8498.56     0.010451579 
     8500.5    -0.024066647 
    8502.44   -0.0039563697 
    8504.38     0.022234372 
    8506.32     0.027691679 
    8508.26     0.018923951 
     8510.2    0.0036237293 
    8512.14    0.0020810177 
    8514.08     0.014704427 
    8516.02     0.024660251 
    8517.96    0.0026518647 
     8519.9     0.014925895 
    8521.84  -0.00021726523 
