# STATUS =
# OBJECT = LSQ14an
# TELESCOPE = VLT-UT1
# INSTRUMENT = FORS2
# DATE-OBS = 2015-02-16 00:00:00.00
# MJD = 57069.0
# EXPTIME = 14400
# AIRMASS = --
# SLIT = 1.0
# DISPERSER = --
# SOURCE = 2017ApJ...835...13J
# FILTER =
# RESOLUTION =
# FLUX_STANDARD =
# EXTINCTION_CORRECTED = --
# PHOTOMETRY_CALIBRATED =
# TELLURIC_CORRECTED =
# FLUX_UNITS = Other
# WAVE_UNITS = Angstrom
# QUALITY = --
# MIN_WAVE = 4561.5498
# MAX_WAVE = 9260.75
# COMMENT = Cal. To photometry [Data obtained from:Jerkstrand, A.] [Prev. spec info - createdby: ilanm-UploadSet; modifiedby: ilanm]
 Wavelength           Flux 
  4564.8496  2.0595174e-17 
  4568.1499  2.0501392e-17 
  4571.4497   2.089355e-17 
    4574.75  1.9949659e-17 
  4578.0498  2.0080665e-17 
  4581.3496  1.9973548e-17 
  4584.6499  2.2043108e-17 
  4587.9497  2.2903672e-17 
    4591.25  2.3299415e-17 
  4594.5498  2.2789661e-17 
  4597.8496  2.2910051e-17 
  4601.1499  2.2080817e-17 
  4604.4497  2.2555164e-17 
    4607.75  2.1867451e-17 
  4611.0498  2.1728688e-17 
  4614.3496  2.5694799e-17 
  4617.6499  3.1639857e-17 
  4620.9497  3.2630025e-17 
    4624.25  2.7206746e-17 
  4627.5498  2.1644668e-17 
  4630.8496   2.136142e-17 
  4634.1499  2.2231572e-17 
  4637.4497  2.2252728e-17 
    4640.75   2.233409e-17 
  4644.0498  2.2990438e-17 
  4647.3496  2.4010992e-17 
  4650.6499  2.3579979e-17 
  4653.9497  2.2838121e-17 
    4657.25  2.2615042e-17 
  4660.5498  2.2383501e-17 
  4663.8496  2.2368494e-17 
  4667.1499  2.2053039e-17 
  4670.4497  2.2010949e-17 
    4673.75  2.1367079e-17 
  4677.0498  2.0834258e-17 
  4680.3496  2.1271419e-17 
  4683.6499  2.0840566e-17 
  4686.9497  2.1307081e-17 
    4690.25  2.1248558e-17 
  4693.5498  2.0840332e-17 
  4696.8496  1.9817034e-17 
  4700.1499   2.120299e-17 
  4703.4497  2.0147289e-17 
    4706.75  2.0218696e-17 
  4710.0498  2.0095976e-17 
  4713.3496  2.0596079e-17 
  4716.6499  1.9946013e-17 
  4719.9497  2.0161599e-17 
    4723.25  2.0185693e-17 
  4726.5498  2.0382112e-17 
  4729.8496  2.0618893e-17 
  4733.1499  2.0557854e-17 
  4736.4497  2.0513166e-17 
    4739.75  1.9846485e-17 
  4743.0498  1.9249136e-17 
  4746.3496    1.93782e-17 
  4749.6499  1.8998451e-17 
  4752.9497  1.9203971e-17 
    4756.25  1.8977029e-17 
  4759.5498   1.826134e-17 
  4762.8496  1.7521325e-17 
  4766.1499  1.8063626e-17 
  4769.4497  2.2835581e-17 
    4772.75  2.8238123e-17 
  4776.0498  2.8802005e-17 
  4779.3496  2.1843282e-17 
  4782.6499  1.6765181e-17 
  4785.9497  1.6812148e-17 
    4789.25  1.7700395e-17 
  4792.5498  1.7568573e-17 
  4795.8496  1.7788991e-17 
  4799.1499  1.8112306e-17 
  4802.4497  1.8640257e-17 
    4805.75   1.910481e-17 
  4809.0498  1.8390915e-17 
  4812.3496  1.8349558e-17 
  4815.6499  1.8505023e-17 
  4818.9497  1.8167533e-17 
    4822.25  1.8103994e-17 
  4825.5498  1.8966145e-17 
  4828.8496  1.8626448e-17 
  4832.1499  1.8614834e-17 
  4835.4497  1.8860322e-17 
    4838.75   1.886858e-17 
  4842.0498  1.7552508e-17 
  4845.3496   1.826296e-17 
  4848.6499  1.8460785e-17 
  4851.9497  1.7941698e-17 
    4855.25  1.8163579e-17 
  4858.5498  1.7932879e-17 
  4861.8496  1.7428603e-17 
  4865.1499  1.7713742e-17 
  4868.4497  1.7431142e-17 
    4871.75  1.7747096e-17 
  4875.0498  1.7474401e-17 
  4878.3496  1.7542954e-17 
  4881.6499  1.7541501e-17 
  4884.9497  1.7730714e-17 
    4888.25  1.8063919e-17 
  4891.5498  1.8160127e-17 
  4894.8496  1.8534399e-17 
  4898.1499  1.8616067e-17 
  4901.4497  1.8583077e-17 
    4904.75  1.8548172e-17 
  4908.0498  1.8185845e-17 
  4911.3496  1.8282712e-17 
  4914.6499  1.8086501e-17 
  4917.9497  1.7829337e-17 
    4921.25  1.7706301e-17 
  4924.5498  1.8100786e-17 
  4927.8496  1.8170657e-17 
  4931.1499  1.8942244e-17 
  4934.4497  1.7684132e-17 
    4937.75  1.8167996e-17 
  4941.0498  1.7686586e-17 
  4944.3496  1.8020596e-17 
  4947.6499  1.7413902e-17 
  4950.9497  1.8279529e-17 
    4954.25  1.8055073e-17 
  4957.5498  1.8271306e-17 
  4960.8496  1.7992586e-17 
  4964.1499  1.8573255e-17 
  4967.4497  1.8269075e-17 
    4970.75  1.8597998e-17 
  4974.0498  1.8765125e-17 
  4977.3496  1.9017068e-17 
  4980.6499  1.9169689e-17 
  4983.9497  1.8540901e-17 
    4987.25  1.8430247e-17 
  4990.5498  1.8772386e-17 
  4993.8496  1.8590835e-17 
  4997.1499  1.8330807e-17 
  5000.4497  1.8731517e-17 
    5003.75  1.8553028e-17 
  5007.0498  1.8493528e-17 
  5010.3496  1.8877623e-17 
  5013.6499  1.8360672e-17 
  5016.9497  1.8570182e-17 
    5020.25  1.8912171e-17 
  5023.5498  1.9011894e-17 
  5026.8496    1.90808e-17 
  5030.1499  1.9283441e-17 
  5033.4497  1.9655725e-17 
    5036.75  1.9789658e-17 
  5040.0498  1.9170837e-17 
  5043.3496  2.0196222e-17 
  5046.6499  2.9611742e-17 
  5049.9497  4.3661448e-17 
    5053.25  4.6421962e-17 
  5056.5498  3.2563791e-17 
  5059.8496   2.010754e-17 
  5063.1499  1.9752679e-17 
  5066.4497  1.9935483e-17 
    5069.75   2.041791e-17 
  5073.0498  2.2622119e-17 
  5076.3496  2.4718617e-17 
  5079.6499  2.4684274e-17 
  5082.9497  2.2652169e-17 
    5086.25  2.0755105e-17 
  5089.5498  2.0750676e-17 
  5092.8496  2.0974119e-17 
  5096.1499  2.0820336e-17 
  5099.4497  2.0669498e-17 
    5102.75  2.0254599e-17 
  5106.0498   1.973289e-17 
  5109.3496  1.9748861e-17 
  5112.6499  1.9307684e-17 
  5115.9497  1.8612687e-17 
    5119.25  1.8859543e-17 
  5122.5498  1.8684326e-17 
  5125.8496  1.8470093e-17 
  5129.1499  1.8334759e-17 
  5132.4497    1.81348e-17 
    5135.75  1.8155271e-17 
  5139.0498   1.755557e-17 
  5142.3496  1.7878467e-17 
  5145.6499  1.7416976e-17 
  5148.9497  1.7340971e-17 
    5152.25  1.8119808e-17 
  5155.5498  1.8065371e-17 
  5158.8496  1.7399311e-17 
  5162.1499  1.6868585e-17 
  5165.4497  1.7302211e-17 
    5168.75  1.7517492e-17 
  5172.0498  1.7303808e-17 
  5175.3496  1.7173234e-17 
  5178.6499  1.7839171e-17 
  5181.9497  1.8117745e-17 
    5185.25  1.7544382e-17 
  5188.5498  1.7763934e-17 
  5191.8496  1.7138183e-17 
  5195.1499  1.6920084e-17 
  5198.4497  1.7483442e-17 
    5201.75  1.9113742e-17 
  5205.0498  2.0126011e-17 
  5208.3496  1.9543803e-17 
  5211.6499  1.8147661e-17 
  5214.9497  1.7950615e-17 
    5218.25  1.7734678e-17 
  5221.5498   1.793333e-17 
  5224.8496  1.8754487e-17 
  5228.1499  1.8320534e-17 
  5231.4497  1.8071959e-17 
    5234.75  1.8189018e-17 
  5238.0498  1.9153403e-17 
  5241.3496  1.9395585e-17 
  5244.6499  1.9565593e-17 
  5247.9497  1.9270597e-17 
    5251.25  1.9091074e-17 
  5254.5498  1.9486939e-17 
  5257.8496  1.9239205e-17 
  5261.1499   1.920523e-17 
  5264.4497  2.0226222e-17 
    5267.75  2.0253453e-17 
  5271.0498  1.8996778e-17 
  5274.3496  1.9827208e-17 
  5277.6499  1.9726549e-17 
  5280.9497  1.9694241e-17 
    5284.25  2.0523633e-17 
  5287.5498  2.0010869e-17 
  5290.8496  1.9710589e-17 
  5294.1499  2.1149812e-17 
  5297.4497  2.0893757e-17 
    5300.75  2.0576129e-17 
  5304.0498  2.0626248e-17 
  5307.3496  2.0834501e-17 
  5310.6499   2.113423e-17 
  5313.9497  2.1446856e-17 
    5317.25  2.0793961e-17 
  5320.5498  2.0586146e-17 
  5323.8496  2.0354969e-17 
  5327.1499   2.115769e-17 
  5330.4497   2.058944e-17 
    5333.75  2.0977669e-17 
  5337.0498  2.0670497e-17 
  5340.3496  2.0446212e-17 
  5343.6499  2.0279023e-17 
  5346.9497  2.0634629e-17 
    5350.25  2.0814433e-17 
  5353.5498  2.0556623e-17 
  5356.8496  1.9853915e-17 
  5360.1499  2.0477347e-17 
  5363.4497   2.085168e-17 
    5366.75    2.05454e-17 
  5370.0498  1.9996241e-17 
  5373.3496  1.9711347e-17 
  5376.6499  1.9564532e-17 
  5379.9497  1.9478533e-17 
    5383.25  1.9487169e-17 
  5386.5498  1.8982857e-17 
  5389.8496  1.9631739e-17 
  5393.1499  1.8773469e-17 
  5396.4497  1.8751012e-17 
    5399.75  1.8793699e-17 
  5403.0498  1.8692278e-17 
  5406.3496  1.8327158e-17 
  5409.6499  1.7567951e-17 
  5412.9497  1.8191629e-17 
    5416.25  1.8361246e-17 
  5419.5498  1.8637549e-17 
  5422.8501  1.8353387e-17 
  5426.1499  1.8287668e-17 
  5429.4497  1.7579262e-17 
    5432.75  1.7289281e-17 
  5436.0498  1.7230611e-17 
  5439.3501  1.7083015e-17 
  5442.6499   1.727215e-17 
  5445.9497  1.6993541e-17 
    5449.25    1.70129e-17 
  5452.5498    1.77312e-17 
  5455.8501  1.6627358e-17 
  5459.1499  1.6247642e-17 
  5462.4497   1.601394e-17 
    5465.75  1.5791912e-17 
  5469.0498  1.5620197e-17 
  5472.3501  1.5419485e-17 
  5475.6499  1.5340976e-17 
  5478.9497  1.5215207e-17 
    5482.25  1.5515546e-17 
  5485.5498  1.5302691e-17 
  5488.8501  1.4586589e-17 
  5492.1499  1.4523136e-17 
  5495.4497  1.4138044e-17 
    5498.75   1.358625e-17 
  5502.0498  1.3546354e-17 
  5505.3501  1.4054058e-17 
  5508.6499  1.4164725e-17 
  5511.9497  1.3646653e-17 
    5515.25  1.4010785e-17 
  5518.5498  1.4048594e-17 
  5521.8501  1.3502131e-17 
  5525.1499  1.3445243e-17 
  5528.4497  1.3473923e-17 
    5531.75  1.3568316e-17 
  5535.0498   1.386951e-17 
  5538.3501  1.3431848e-17 
  5541.6499  1.3235548e-17 
  5544.9497  1.3865241e-17 
    5548.25  1.3447268e-17 
  5551.5498  1.3209221e-17 
  5554.8501  1.3300978e-17 
  5558.1499  1.4256666e-17 
  5561.4497  1.3291011e-17 
    5564.75   1.355508e-17 
  5568.0498  1.2945494e-17 
  5571.3501  1.3073496e-17 
  5574.6499  1.3189434e-17 
  5577.9497  1.3116561e-17 
    5581.25  1.3633171e-17 
  5584.5498  1.3510281e-17 
  5587.8501  1.3417085e-17 
  5591.1499  1.4216709e-17 
  5594.4497  1.4263204e-17 
    5597.75  1.3276247e-17 
  5601.0498  1.3626082e-17 
  5604.3501  1.4220954e-17 
  5607.6499  1.3589567e-17 
  5610.9497  1.3732505e-17 
    5614.25  1.3808412e-17 
  5617.5498  1.3391245e-17 
  5620.8501  1.3163703e-17 
  5624.1499  1.3826992e-17 
  5627.4497  1.3686473e-17 
    5630.75  1.3726647e-17 
  5634.0498  1.4141753e-17 
  5637.3501  1.3615347e-17 
  5640.6499  1.3720888e-17 
  5643.9497  1.3762794e-17 
    5647.25  1.4133883e-17 
  5650.5498  2.3591532e-17 
  5653.8501   4.905095e-17 
  5657.1499  6.4280655e-17 
  5660.4497  5.6682757e-17 
    5663.75  2.9380344e-17 
  5667.0498   1.446764e-17 
  5670.3501  1.3735784e-17 
  5673.6499  1.3965133e-17 
  5676.9497  1.4599142e-17 
    5680.25  1.4534422e-17 
  5683.5498  1.4499773e-17 
  5686.8501  1.4791364e-17 
  5690.1499   1.482101e-17 
  5693.4497  1.4719019e-17 
    5696.75  1.4783388e-17 
  5700.0498  1.4801213e-17 
  5703.3501  1.5580291e-17 
  5706.6499  1.5300059e-17 
  5709.9497   1.567295e-17 
    5713.25  1.6027154e-17 
  5716.5498   1.664501e-17 
  5719.8501  1.6195794e-17 
  5723.1499  1.6451383e-17 
  5726.4497  1.7008302e-17 
    5729.75  1.7034397e-17 
  5733.0498  1.7123726e-17 
  5736.3501  1.6804647e-17 
  5739.6499  1.7298418e-17 
  5742.9497  1.7711471e-17 
    5746.25  1.7711229e-17 
  5749.5498  1.8031149e-17 
  5752.8501  1.8553516e-17 
  5756.1499  1.8784708e-17 
  5759.4497  1.8213577e-17 
    5762.75  2.4748456e-17 
  5766.0498  6.2287342e-17 
  5769.3501  1.0323377e-16 
  5772.6499  1.0942199e-16 
  5775.9497  7.5251426e-17 
    5779.25  2.8506103e-17 
  5782.5498  2.3110376e-17 
  5785.8501  2.2873574e-17 
  5789.1499  2.3970599e-17 
  5792.4497  2.4985746e-17 
    5795.75  2.4026389e-17 
  5799.0498   2.418239e-17 
  5802.3501  2.4798014e-17 
  5805.6499  2.2592536e-17 
  5808.9497  2.1914385e-17 
    5812.25  2.0749396e-17 
  5815.5498  2.0400732e-17 
  5818.8501  4.4193259e-17 
  5822.1499  1.5848241e-16 
  5825.4497  2.8205755e-16 
    5828.75   2.920702e-16 
  5832.0498  1.6338167e-16 
  5835.3501  3.2579379e-17 
  5838.6499  2.0638289e-17 
  5841.9497  1.9021301e-17 
    5845.25  1.8426416e-17 
  5848.5498  1.8634086e-17 
  5851.8501  1.9075935e-17 
  5855.1499  1.9027035e-17 
  5858.4497  1.8129445e-17 
    5861.75  1.7126884e-17 
  5865.0498  1.6406659e-17 
  5868.3501  1.6468513e-17 
  5871.6499  1.7076901e-17 
  5874.9497  1.6900269e-17 
    5878.25  1.6426897e-17 
  5881.5498  1.5445237e-17 
  5884.8501  1.5019115e-17 
  5888.1499  1.4258068e-17 
  5891.4497  1.4461721e-17 
    5894.75  1.4352935e-17 
  5898.0498  1.4552428e-17 
  5901.3501  1.4159223e-17 
  5904.6499  1.4377613e-17 
  5907.9497  1.4042104e-17 
    5911.25  1.3885929e-17 
  5914.5498  1.4017118e-17 
  5917.8501   1.462147e-17 
  5921.1499  1.4048521e-17 
  5924.4497  1.3888811e-17 
    5927.75  1.3692464e-17 
  5931.0498  1.3807509e-17 
  5934.3501  1.4103481e-17 
  5937.6499  1.4751436e-17 
  5940.9497   1.481518e-17 
    5944.25  1.4428098e-17 
  5947.5498  1.3986056e-17 
  5950.8501  1.3703468e-17 
  5954.1499  1.4061379e-17 
  5957.4497  1.4916257e-17 
    5960.75  1.5029193e-17 
  5964.0498  1.4100554e-17 
  5967.3501  1.4191883e-17 
  5970.6499  1.4269182e-17 
  5973.9497  1.4411983e-17 
    5977.25  1.4560202e-17 
  5980.5498  1.4865666e-17 
  5983.8501  1.4948332e-17 
  5987.1499  1.5481203e-17 
  5990.4497  1.5344293e-17 
    5993.75  1.5056459e-17 
  5997.0498  1.5254208e-17 
  6000.3501  1.5494403e-17 
  6003.6499  1.5793426e-17 
  6006.9497  1.5977634e-17 
    6010.25  1.6097314e-17 
  6013.5498  1.5315711e-17 
  6016.8501  1.5235825e-17 
  6020.1499  1.5349747e-17 
  6023.4497  1.5544191e-17 
    6026.75  1.5826377e-17 
  6030.0498  1.5745954e-17 
  6033.3501  1.6034645e-17 
  6036.6499  1.6119679e-17 
  6039.9497  1.6610458e-17 
    6043.25  1.6154252e-17 
  6046.5498  1.6453837e-17 
  6049.8501  1.7186787e-17 
  6053.1499  1.6937334e-17 
  6056.4497  1.5984757e-17 
    6059.75  1.6498622e-17 
  6063.0498  1.6688149e-17 
  6066.3501  1.6212629e-17 
  6069.6499  1.5948183e-17 
  6072.9497  1.6073721e-17 
    6076.25  1.5915316e-17 
  6079.5498  1.6107893e-17 
  6082.8501  1.6102303e-17 
  6086.1499  1.6232955e-17 
  6089.4497  1.6468855e-17 
    6092.75  1.6609362e-17 
  6096.0498  1.6503673e-17 
  6099.3501  1.6454702e-17 
  6102.6499  1.6395228e-17 
  6105.9497  1.6295261e-17 
    6109.25  1.6418382e-17 
  6112.5498  1.5938765e-17 
  6115.8501  1.6221329e-17 
  6119.1499  1.6413161e-17 
  6122.4497  1.6744989e-17 
    6125.75  1.6981388e-17 
  6129.0498  1.6642265e-17 
  6132.3501  1.6648461e-17 
  6135.6499  1.6911142e-17 
  6138.9497  1.6423334e-17 
    6142.25  1.6213165e-17 
  6145.5498  1.6694248e-17 
  6148.8501  1.6374341e-17 
  6152.1499  1.6344596e-17 
  6155.4497  1.6449332e-17 
    6158.75  1.6215571e-17 
  6162.0498  1.6261929e-17 
  6165.3501  1.5977793e-17 
  6168.6499  1.5857866e-17 
  6171.9497  1.5906678e-17 
    6175.25  1.6091763e-17 
  6178.5498  1.6387371e-17 
  6181.8501  1.6734398e-17 
  6185.1499  1.6230821e-17 
  6188.4497  1.6280974e-17 
    6191.75  1.6375476e-17 
  6195.0498  1.5754884e-17 
  6198.3501  1.5508579e-17 
  6201.6499  1.5408186e-17 
  6204.9497  1.5120731e-17 
    6208.25  1.5014112e-17 
  6211.5498  1.4606122e-17 
  6214.8501  1.4713786e-17 
  6218.1499  1.4995339e-17 
  6221.4497  1.5273119e-17 
    6224.75  1.5620149e-17 
  6228.0498  1.5185645e-17 
  6231.3501  1.4512305e-17 
  6234.6499  1.3501814e-17 
  6237.9497   1.360843e-17 
    6241.25  1.4271144e-17 
  6244.5498   1.463821e-17 
  6247.8501   1.495597e-17 
  6251.1499  1.3688657e-17 
  6254.4497  1.3060234e-17 
    6257.75  1.2419772e-17 
  6261.0498   1.317788e-17 
  6264.3501  1.3566157e-17 
  6267.6499  1.3341567e-17 
  6270.9497    1.37855e-17 
    6274.25  1.3664928e-17 
  6277.5498  1.3006799e-17 
  6280.8501  1.2751452e-17 
  6284.1499   1.249828e-17 
  6287.4497  1.2594816e-17 
    6290.75  1.3694304e-17 
  6294.0498  1.2482625e-17 
  6297.3501  1.1489945e-17 
  6300.6499  1.0308869e-17 
  6303.9497  1.1945646e-17 
    6307.25  1.2906843e-17 
  6310.5498  1.3033029e-17 
  6313.8501  1.3011727e-17 
  6317.1499  1.2642677e-17 
  6320.4497  1.2005964e-17 
    6323.75   1.215632e-17 
  6327.0498  1.1518325e-17 
  6330.3501  1.1544877e-17 
  6333.6499  1.2177534e-17 
  6336.9497  1.2515248e-17 
    6340.25   1.229033e-17 
  6343.5498  1.2695332e-17 
  6346.8501  1.2479697e-17 
  6350.1499  1.2035021e-17 
  6353.4497  1.1702275e-17 
    6356.75  1.2556435e-17 
  6360.0498  1.2075396e-17 
  6363.3501  1.1372538e-17 
  6366.6499  1.1439163e-17 
  6369.9497  1.2668029e-17 
    6373.25  1.1827749e-17 
  6376.5498  1.1804855e-17 
  6379.8501  1.1416282e-17 
  6383.1499  1.1209374e-17 
  6386.4497  1.1515604e-17 
    6389.75  1.1258964e-17 
  6393.0498  1.1374358e-17 
  6396.3501  1.1322145e-17 
  6399.6499   1.139757e-17 
  6402.9497   1.120317e-17 
    6406.25  1.1434014e-17 
  6409.5498  1.1152263e-17 
  6412.8501  1.1329819e-17 
  6416.1499   1.110194e-17 
  6419.4497  1.1487456e-17 
    6422.75  1.1146351e-17 
  6426.0498  1.1421871e-17 
  6429.3501  1.1517546e-17 
  6432.6499  1.1409831e-17 
  6435.9497  1.1748403e-17 
    6439.25  1.2438645e-17 
  6442.5498  1.1609374e-17 
  6445.8501  1.2211739e-17 
  6449.1499  1.2462606e-17 
  6452.4497  1.1966401e-17 
    6455.75   1.241799e-17 
  6459.0498  1.2005577e-17 
  6462.3501  1.1289372e-17 
  6465.6499  1.1333415e-17 
  6468.9497  1.1266954e-17 
    6472.25  1.1062882e-17 
  6475.5498  1.1254527e-17 
  6478.8501  1.1128589e-17 
  6482.1499  1.1503536e-17 
  6485.4497  1.1979731e-17 
    6488.75  1.1693892e-17 
  6492.0498  1.1050961e-17 
  6495.3501    1.07568e-17 
  6498.6499   1.075803e-17 
  6501.9497  1.0390603e-17 
    6505.25  1.0817385e-17 
  6508.5498  1.0945789e-17 
  6511.8501  1.1223487e-17 
  6515.1499  1.0713244e-17 
  6518.4497  1.1091902e-17 
    6521.75  1.1064684e-17 
  6525.0498  1.0991779e-17 
  6528.3501  1.0388263e-17 
  6531.6499   1.009852e-17 
  6534.9497   1.044249e-17 
    6538.25  1.0747501e-17 
  6541.5498  1.0265502e-17 
  6544.8501  1.0494738e-17 
  6548.1499  9.9179171e-18 
  6551.4497  1.0017347e-17 
    6554.75  9.7458329e-18 
  6558.0498  9.3520842e-18 
  6561.3501  9.5145193e-18 
  6564.6499  9.8455892e-18 
  6567.9497  1.0085502e-17 
    6571.25  9.4965637e-18 
  6574.5498  9.3690753e-18 
  6577.8501  9.6372696e-18 
  6581.1499  9.2883896e-18 
  6584.4497  9.4829822e-18 
    6587.75  9.5351549e-18 
  6591.0498  9.4696398e-18 
  6594.3501  9.7542164e-18 
  6597.6499  9.4297018e-18 
  6600.9497  9.3738986e-18 
    6604.25  8.9991775e-18 
  6607.5498  9.5705872e-18 
  6610.8501   9.542545e-18 
  6614.1499  9.2459197e-18 
  6617.4497  9.4931143e-18 
    6620.75  9.5373304e-18 
  6624.0498  9.3020298e-18 
  6627.3501  9.3693913e-18 
  6630.6499  8.8832812e-18 
  6633.9497  8.8399882e-18 
    6637.25  8.9572055e-18 
  6640.5498  8.8997702e-18 
  6643.8501  8.5810592e-18 
  6647.1499  8.6831159e-18 
  6650.4497  8.8948543e-18 
    6653.75  9.0593648e-18 
  6657.0498  9.0971032e-18 
  6660.3501  8.5942238e-18 
  6663.6499   9.046814e-18 
  6666.9497  9.0978039e-18 
    6670.25  9.2196889e-18 
  6673.5498  8.7968483e-18 
  6676.8501  8.5775602e-18 
  6680.1499  8.9595481e-18 
  6683.4497   9.317819e-18 
    6686.75  9.1216796e-18 
  6690.0498  8.9477136e-18 
  6693.3501  9.4215392e-18 
  6696.6499  9.1853998e-18 
  6699.9497  8.4921852e-18 
    6703.25  8.7253368e-18 
  6706.5498  8.5369738e-18 
  6709.8501  8.4928619e-18 
  6713.1499   8.599799e-18 
  6716.4497  8.6265988e-18 
    6719.75  8.7635766e-18 
  6723.0498  9.0147384e-18 
  6726.3501  8.9828009e-18 
  6729.6499  8.8412158e-18 
  6732.9497  8.5521616e-18 
    6736.25  8.8129493e-18 
  6739.5498  8.5383461e-18 
  6742.8501  8.6258403e-18 
  6746.1499  8.7266504e-18 
  6749.4497  8.4028588e-18 
    6752.75  8.8929997e-18 
  6756.0498   8.837802e-18 
  6759.3501  8.5140791e-18 
  6762.6499  8.4097633e-18 
  6765.9497  9.2330405e-18 
    6769.25  9.3275955e-18 
  6772.5498  8.6295162e-18 
  6775.8501  8.7247057e-18 
  6779.1499  8.9390464e-18 
  6782.4497  8.5768372e-18 
    6785.75  8.6710151e-18 
  6789.0498  8.5809483e-18 
  6792.3501  9.1091396e-18 
  6795.6499  9.1287685e-18 
  6798.9497  8.5249325e-18 
    6802.25  8.9945312e-18 
  6805.5498  8.6888342e-18 
  6808.8501  8.8247573e-18 
  6812.1499  8.4662151e-18 
  6815.4497   9.021829e-18 
    6818.75  9.7921517e-18 
  6822.0498  1.0350941e-17 
  6825.3501   8.979029e-18 
  6828.6499  8.2424743e-18 
  6831.9497   9.826488e-18 
    6835.25  1.4029709e-17 
  6838.5498  1.6004266e-17 
  6841.8501  1.3827212e-17 
  6845.1499  1.0196239e-17 
  6848.4497  9.4217708e-18 
    6851.75  9.4597434e-18 
  6855.0498  9.3647996e-18 
  6858.3501  8.6714535e-18 
  6861.6499  8.7689458e-18 
  6864.9497  8.1152804e-18 
    6868.25    8.74228e-18 
  6871.5498  8.4318118e-18 
  6874.8501  8.4632935e-18 
  6878.1499  8.7465391e-18 
  6881.4497  8.5553239e-18 
    6884.75   8.443322e-18 
  6888.0498   8.307858e-18 
  6891.3501  8.4551424e-18 
  6894.6499  8.3109607e-18 
  6897.9497  8.4191377e-18 
    6901.25  8.4530323e-18 
  6904.5498  8.1787814e-18 
  6907.8501  9.0958592e-18 
  6911.1499  8.7983347e-18 
  6914.4497  8.4274253e-18 
    6917.75  8.4865736e-18 
  6921.0498  8.5164539e-18 
  6924.3501  8.6123357e-18 
  6927.6499  9.0906901e-18 
  6930.9497  8.9172295e-18 
    6934.25  9.5930849e-18 
  6937.5498   9.483404e-18 
  6940.8501  8.5494667e-18 
  6944.1499   8.527242e-18 
  6947.4497  8.4072718e-18 
    6950.75  8.0299815e-18 
  6954.0498  9.0118358e-18 
  6957.3501  9.5710736e-18 
  6960.6499  9.2949566e-18 
  6963.9497  9.6012864e-18 
    6967.25  9.5353162e-18 
  6970.5498  8.5991091e-18 
  6973.8501  8.5461852e-18 
  6977.1499  8.0694645e-18 
  6980.4497  8.6102099e-18 
    6983.75  8.8359259e-18 
  6987.0498  8.7853083e-18 
  6990.3501  8.9407752e-18 
  6993.6499  9.0807772e-18 
  6996.9497  9.1016949e-18 
    7000.25  9.1308183e-18 
  7003.5498  8.0793758e-18 
  7006.8501  8.9936809e-18 
  7010.1499  8.7295538e-18 
  7013.4497  8.1087928e-18 
    7016.75  8.7937075e-18 
  7020.0498  8.5770689e-18 
  7023.3501  8.8817484e-18 
  7026.6499  8.9844371e-18 
  7029.9497  8.8672719e-18 
    7033.25   8.969351e-18 
  7036.5498  9.1888119e-18 
  7039.8501  8.9068269e-18 
  7043.1499  8.3390716e-18 
  7046.4497  8.3636902e-18 
    7049.75  8.1532058e-18 
  7053.0498  8.4289828e-18 
  7056.3501  8.5825241e-18 
  7059.6499  8.6676178e-18 
  7062.9497  9.2291618e-18 
    7066.25  9.4460601e-18 
  7069.5498  9.0760937e-18 
  7072.8501    8.81813e-18 
  7076.1499  9.0884758e-18 
  7079.4497  9.1068317e-18 
    7082.75  8.7467319e-18 
  7086.0498  8.7000152e-18 
  7089.3501  8.9506038e-18 
  7092.6499  9.2838434e-18 
  7095.9497  9.2142254e-18 
    7099.25  8.9783069e-18 
  7102.5498  9.0530079e-18 
  7105.8501  9.1561036e-18 
  7109.1499  8.9354953e-18 
  7112.4502  9.0736734e-18 
    7115.75  9.4679333e-18 
  7119.0498  9.3700704e-18 
  7122.3501  9.4809738e-18 
  7125.6499  9.4175977e-18 
  7128.9502  9.3897953e-18 
    7132.25   9.677966e-18 
  7135.5498  9.7707509e-18 
  7138.8501  9.6222959e-18 
  7142.1499  9.3083122e-18 
  7145.4502  9.4552203e-18 
    7148.75  9.1654697e-18 
  7152.0498  9.5591845e-18 
  7155.3501   9.501875e-18 
  7158.6499  9.5494081e-18 
  7161.9502  9.5362609e-18 
    7165.25  8.9828977e-18 
  7168.5498   8.889978e-18 
  7171.8501  8.6321277e-18 
  7175.1499  8.4723726e-18 
  7178.4502  8.6311681e-18 
    7181.75  8.7687597e-18 
  7185.0498  8.6815037e-18 
  7188.3501  8.9415743e-18 
  7191.6499  8.9510496e-18 
  7194.9502  8.8813117e-18 
    7198.25  8.6840026e-18 
  7201.5498  8.8020363e-18 
  7204.8501  9.0152785e-18 
  7208.1499  9.5680197e-18 
  7211.4502  9.8022441e-18 
    7214.75  9.8827602e-18 
  7218.0498   9.944769e-18 
  7221.3501  9.9963164e-18 
  7224.6499  9.6863776e-18 
  7227.9502  9.3754611e-18 
    7231.25  9.3012738e-18 
  7234.5498  9.8450772e-18 
  7237.8501  9.0103295e-18 
  7241.1499  9.1595173e-18 
  7244.4502  9.4944858e-18 
    7247.75  9.2186723e-18 
  7251.0498  9.3087655e-18 
  7254.3501  9.2116181e-18 
  7257.6499   9.418659e-18 
  7260.9502  9.4073928e-18 
    7264.25  8.9451502e-18 
  7267.5498  9.3355149e-18 
  7270.8501  9.5748257e-18 
  7274.1499  9.8264334e-18 
  7277.4502  9.1117046e-18 
    7280.75  9.5830421e-18 
  7284.0498  9.1788452e-18 
  7287.3501  8.8645638e-18 
  7290.6499  9.5254802e-18 
  7293.9502  1.0119798e-17 
    7297.25  9.4573512e-18 
  7300.5498   1.008978e-17 
  7303.8501  1.0924337e-17 
  7307.1499  9.7921186e-18 
  7310.4502  9.1200782e-18 
    7313.75  9.0557128e-18 
  7317.0498  8.9626401e-18 
  7320.3501  9.1274037e-18 
  7323.6499   1.068621e-17 
  7326.9502  1.2608677e-17 
    7330.25  1.4362522e-17 
  7333.5498  1.3637405e-17 
  7336.8501  1.1740817e-17 
  7340.1499   9.244999e-18 
  7343.4502  9.2520185e-18 
    7346.75  1.2368763e-17 
  7350.0498  1.1762853e-17 
  7353.3501  1.0904969e-17 
  7356.6499  1.1205549e-17 
  7359.9502  1.0701377e-17 
    7363.25  9.7886693e-18 
  7366.5498  1.0316718e-17 
  7369.8501    1.03887e-17 
  7373.1499  1.0336454e-17 
  7376.4502  1.0831917e-17 
    7379.75   1.150093e-17 
  7383.0498   1.088829e-17 
  7386.3501  1.0930603e-17 
  7389.6499  1.1625889e-17 
  7392.9502  1.0617505e-17 
    7396.25  1.0236893e-17 
  7399.5498  1.0771231e-17 
  7402.8501  1.0385069e-17 
  7406.1499  1.1052343e-17 
  7409.4502  1.1593273e-17 
    7412.75  1.0714019e-17 
  7416.0498  1.1088522e-17 
  7419.3501  1.0979481e-17 
  7422.6499  1.0604128e-17 
  7425.9502  1.0447795e-17 
    7429.25  1.0436391e-17 
  7432.5498  1.0279881e-17 
  7435.8501    1.03786e-17 
  7439.1499  1.0255242e-17 
  7442.4502  9.8932025e-18 
    7445.75  1.0239977e-17 
  7449.0498  1.0813005e-17 
  7452.3501  1.1107993e-17 
  7455.6499  1.1150417e-17 
  7458.9502  1.0789161e-17 
    7462.25  1.0732603e-17 
  7465.5498  1.0425822e-17 
  7468.8501  1.0458716e-17 
  7472.1499   1.037121e-17 
  7475.4502  9.4013833e-18 
    7478.75  9.5226414e-18 
  7482.0498  9.9164521e-18 
  7485.3501  9.7635089e-18 
  7488.6499  1.0223708e-17 
  7491.9502  1.0032343e-17 
    7495.25  9.5973291e-18 
  7498.5498   1.000091e-17 
  7501.8501  1.0243815e-17 
  7505.1499  1.0350712e-17 
  7508.4502  1.0547763e-17 
    7511.75  1.0847579e-17 
  7515.0498  9.9992736e-18 
  7518.3501  9.7545795e-18 
  7521.6499  9.5371733e-18 
  7524.9502  8.9727772e-18 
    7528.25  9.1463643e-18 
  7531.5498  9.3679561e-18 
  7534.8501  9.8351518e-18 
  7538.1499  9.8575105e-18 
  7541.4502  9.9172619e-18 
    7544.75   1.001838e-17 
  7548.0498  9.9901208e-18 
  7551.3501  9.5792362e-18 
  7554.6499  9.3839943e-18 
  7557.9502  1.0259902e-17 
    7561.25  1.0185694e-17 
  7564.5498  9.5761277e-18 
  7567.8501  9.6352248e-18 
  7571.1499  9.1684534e-18 
  7574.4502  9.0521849e-18 
    7577.75  9.4162759e-18 
  7581.0498  9.4103077e-18 
  7584.3501  9.6124608e-18 
  7587.6499  9.6309267e-18 
  7590.9502   9.614417e-18 
    7594.25  8.9734373e-18 
  7597.5498  8.4834378e-18 
  7600.8501  8.5465782e-18 
  7604.1499   9.087383e-18 
  7607.4502  9.1429952e-18 
    7610.75  8.5779175e-18 
  7614.0498  8.8932768e-18 
  7617.3501  9.3224306e-18 
  7620.6499  8.8422588e-18 
  7623.9502   8.755548e-18 
    7627.25  8.8547972e-18 
  7630.5498  2.6015169e-17 
  7633.8501  8.3328772e-17 
  7637.1499  1.2334164e-16 
  7640.4502  8.8424608e-17 
    7643.75  4.0838016e-17 
  7647.0498  8.3727693e-18 
  7650.3501  6.9376581e-18 
  7653.6499  7.7328971e-18 
  7656.9502  9.1388461e-18 
    7660.25  1.1671669e-17 
  7663.5498  1.2062246e-17 
  7666.8501  9.4802856e-18 
  7670.1499  7.6358258e-18 
  7673.4502  7.8914925e-18 
    7676.75  8.2892596e-18 
  7680.0498  7.9734727e-18 
  7683.3501   7.579231e-18 
  7686.6499  7.4132464e-18 
  7689.9502  7.5370737e-18 
    7693.25  7.5217427e-18 
  7696.5498  7.8833158e-18 
  7699.8501  7.8226313e-18 
  7703.1499  7.8616825e-18 
  7706.4502   7.926665e-18 
    7709.75  8.3412637e-18 
  7713.0498  7.3388672e-18 
  7716.3501  7.6655257e-18 
  7719.6499  7.8769424e-18 
  7722.9502  7.6762965e-18 
    7726.25  7.1567303e-18 
  7729.5498  7.4513083e-18 
  7732.8501  7.7968771e-18 
  7736.1499   7.435529e-18 
  7739.4502  7.7039839e-18 
    7742.75  8.1738373e-18 
  7746.0498   7.939445e-18 
  7749.3501   7.651802e-18 
  7752.6499  7.6076876e-18 
  7755.9502  7.5677679e-18 
    7759.25  7.4689033e-18 
  7762.5498  7.9145146e-18 
  7765.8501  8.3279055e-18 
  7769.1499   9.385824e-18 
  7772.4502  9.1146841e-18 
    7775.75  8.0580221e-18 
  7779.0498  7.5231647e-18 
  7782.3501  8.5288666e-18 
  7785.6499  7.0649877e-18 
  7788.9502  6.9690504e-18 
    7792.25  7.4827172e-18 
  7795.5498   6.897613e-18 
  7798.8501  6.8997662e-18 
  7802.1499  7.2055265e-18 
  7805.4502  7.5019706e-18 
    7808.75  1.0976949e-17 
  7812.0498  1.6442514e-17 
  7815.3501  2.0399108e-17 
  7818.6499  2.0187804e-17 
  7821.9502  9.0284332e-18 
    7825.25  5.0359136e-18 
  7828.5498  1.3520188e-17 
  7831.8501  1.7779377e-17 
  7835.1499  1.6442074e-17 
  7838.4502  1.1346102e-17 
    7841.75  8.3667979e-18 
  7845.0498  8.4230702e-18 
  7848.3501  7.4203527e-18 
  7851.6499  7.1484196e-18 
  7854.9502  7.1601664e-18 
    7858.25  7.6279238e-18 
  7861.5498  6.7468362e-18 
  7864.8501  6.9056243e-18 
  7868.1499  7.9234647e-18 
  7871.4502  6.5052527e-18 
    7874.75  6.7456347e-18 
  7878.0498  7.9491073e-18 
  7881.3501   7.011182e-18 
  7884.6499   6.141967e-18 
  7887.9502  6.7743913e-18 
    7891.25  6.7383506e-18 
  7894.5498  6.7452298e-18 
  7897.8501  7.2868789e-18 
  7901.1499  6.7580635e-18 
  7904.4502  5.5769687e-18 
    7907.75  6.5887616e-18 
  7911.0498  7.5229943e-18 
  7914.3501  6.2911573e-18 
  7917.6499  6.3330387e-18 
  7920.9502  6.6987133e-18 
    7924.25  5.1121379e-18 
  7927.5498  6.2823764e-18 
  7930.8501   6.121931e-18 
  7934.1499  6.1182968e-18 
  7937.4502  7.2362595e-18 
    7940.75  7.1689692e-18 
  7944.0498  6.5473711e-18 
  7947.3501  6.6115715e-18 
  7950.6499  6.5124935e-18 
  7953.9502  7.6423961e-18 
    7957.25  5.7735755e-18 
  7960.5498  5.5413173e-18 
  7963.8501  6.2865921e-18 
  7967.1499  5.8843859e-18 
  7970.4502  6.1913501e-18 
    7973.75  6.6884476e-18 
  7977.0498  6.9752973e-18 
  7980.3501  6.6146875e-18 
  7983.6499  6.6275564e-18 
  7986.9502  6.6034622e-18 
    7990.25  6.3504335e-18 
  7993.5498  6.7832913e-18 
  7996.8501  6.4828461e-18 
  8000.1499  7.1240417e-18 
  8003.4502  6.8332079e-18 
    8006.75  6.7610923e-18 
  8010.0498  6.9154297e-18 
  8013.3501  7.1885767e-18 
  8016.6499  7.4692738e-18 
  8019.9502  6.2674036e-18 
    8023.25  6.8310312e-18 
  8026.5498  7.0658413e-18 
  8029.8501  6.0052634e-18 
  8033.1499  6.9573946e-18 
  8036.4502  7.0682468e-18 
    8039.75   6.765504e-18 
  8043.0498  6.9067038e-18 
  8046.3501  6.6040487e-18 
  8049.6499  7.9086962e-18 
  8052.9502  7.2176017e-18 
    8056.25  6.6778456e-18 
  8059.5498  6.4239492e-18 
  8062.8501  6.2926409e-18 
  8066.1499  6.2470504e-18 
  8069.4502    6.89758e-18 
    8072.75  7.0218758e-18 
  8076.0498  6.6548885e-18 
  8079.3501  6.6387651e-18 
  8082.6499  6.8252877e-18 
  8085.9502  6.8145509e-18 
    8089.25  7.1067644e-18 
  8092.5498  7.2619989e-18 
  8095.8501  7.1092063e-18 
  8099.1499  6.8941281e-18 
  8102.4502  6.3085078e-18 
    8105.75  6.3693883e-18 
  8109.0498  7.0421533e-18 
  8112.3501  6.9391735e-18 
  8115.6499  7.3227702e-18 
  8118.9502  6.9423093e-18 
    8122.25  6.8925002e-18 
  8125.5498  7.1439404e-18 
  8128.8501  6.5165843e-18 
  8132.1499  6.3466636e-18 
  8135.4502  6.8166122e-18 
    8138.75  6.9870317e-18 
  8142.0498  5.8420632e-18 
  8145.3501   6.267648e-18 
  8148.6499  6.3950255e-18 
  8151.9502  6.2956708e-18 
    8155.25  6.3012564e-18 
  8158.5498   6.457531e-18 
  8161.8501  6.0540782e-18 
  8165.1499  6.4129857e-18 
  8168.4502  6.6420134e-18 
    8171.75  6.7237223e-18 
  8175.0498  6.7487987e-18 
  8178.3501  6.7025837e-18 
  8181.6499  6.3770646e-18 
  8184.9502    6.61256e-18 
    8188.25  6.6477487e-18 
  8191.5498   6.631447e-18 
  8194.8496  6.1157239e-18 
  8198.1504  6.8323845e-18 
  8201.4502  6.5154874e-18 
    8204.75  7.1997817e-18 
  8208.0498  7.0444488e-18 
  8211.3496  7.3630804e-18 
  8214.6504  7.5421245e-18 
  8217.9502  7.4138106e-18 
    8221.25    8.60694e-18 
  8224.5498  7.9972045e-18 
  8227.8496  6.9801562e-18 
  8231.1504  6.1692607e-18 
  8234.4502  6.7126191e-18 
    8237.75  7.2450442e-18 
  8241.0498  7.0311576e-18 
  8244.3496  7.2464256e-18 
  8247.6504  7.2798238e-18 
  8250.9502  7.0152931e-18 
    8254.25  7.0132996e-18 
  8257.5498  7.3872084e-18 
  8260.8496  7.2097426e-18 
  8264.1504  7.3661343e-18 
  8267.4502  7.4047124e-18 
    8270.75  7.4736289e-18 
  8274.0498  7.0219693e-18 
  8277.3496  7.8155118e-18 
  8280.6504   7.444848e-18 
  8283.9502  6.4132707e-18 
    8287.25  7.8216983e-18 
  8290.5498  7.6820578e-18 
  8293.8496  5.8769437e-18 
  8297.1504   7.532688e-18 
  8300.4502  7.7438771e-18 
    8303.75  7.0812699e-18 
  8307.0498   7.611534e-18 
  8310.3496  7.0540672e-18 
  8313.6504  7.3053349e-18 
  8316.9502  7.0742612e-18 
    8320.25  7.7622083e-18 
  8323.5498  7.9441442e-18 
  8326.8496  8.0898132e-18 
  8330.1504  7.8713514e-18 
  8333.4502  7.4182186e-18 
    8336.75  7.0076574e-18 
  8340.0498  8.2033884e-18 
  8343.3496  8.6719705e-18 
  8346.6504  7.5386635e-18 
  8349.9502  7.6107093e-18 
    8353.25  7.3983547e-18 
  8356.5498  7.7774044e-18 
  8359.8496  7.5596433e-18 
  8363.1504  7.7684378e-18 
  8366.4502  7.7949572e-18 
    8369.75  8.1342543e-18 
  8373.0498  8.4062627e-18 
  8376.3496  7.9946609e-18 
  8379.6504  8.0149053e-18 
  8382.9502  7.8495958e-18 
    8386.25  7.9804235e-18 
  8389.5498  7.6443061e-18 
  8392.8496  7.2047051e-18 
  8396.1504   8.117575e-18 
  8399.4502  8.4238808e-18 
    8402.75  8.5159361e-18 
  8406.0498   9.912207e-18 
  8409.3496  8.9783209e-18 
  8412.6504  8.7760372e-18 
  8415.9502  9.7041206e-18 
    8419.25  1.1572962e-17 
  8422.5498  9.3718265e-18 
  8425.8496   9.923565e-18 
  8429.1504   1.172368e-17 
  8432.4502  1.2138387e-17 
    8435.75  1.2290206e-17 
  8439.0498     1.3998e-17 
  8442.3496  1.5028072e-17 
  8445.6504  1.5710158e-17 
  8448.9502  1.5637265e-17 
    8452.25  1.7554043e-17 
  8455.5498  1.9360192e-17 
  8458.8496  2.0542946e-17 
  8462.1504  2.0908811e-17 
  8465.4502  2.1262282e-17 
    8468.75  2.2019062e-17 
  8472.0498  2.3927994e-17 
  8475.3496  2.4938155e-17 
  8478.6504  2.5121512e-17 
  8481.9502  2.5785741e-17 
    8485.25  2.5419753e-17 
  8488.5498  2.2233073e-17 
  8491.8496  2.1673459e-17 
  8495.1504  2.1527999e-17 
  8498.4502  1.7886068e-17 
    8501.75  1.8250774e-17 
  8505.0498  1.8025659e-17 
  8508.3496  1.8171436e-17 
  8511.6504  1.8347544e-17 
  8514.9502  1.8517417e-17 
    8518.25  1.9095393e-17 
  8521.5498  1.8608247e-17 
  8524.8496   1.789257e-17 
  8528.1504  1.8350325e-17 
  8531.4502  1.9593712e-17 
    8534.75  1.8899983e-17 
  8538.0498  1.8043094e-17 
  8541.3496  1.8457283e-17 
  8544.6504  1.8936146e-17 
  8547.9502  1.9295374e-17 
    8551.25  1.9451902e-17 
  8554.5498  1.9431369e-17 
  8557.8496  1.8826272e-17 
  8561.1504  1.9575803e-17 
  8564.4502  1.9149474e-17 
    8567.75  1.8128748e-17 
  8571.0498  1.7939918e-17 
  8574.3496  1.6964308e-17 
  8577.6504  1.6126948e-17 
  8580.9502  1.5209252e-17 
    8584.25  1.5216829e-17 
  8587.5498  1.3872754e-17 
  8590.8496  1.3404799e-17 
  8594.1504  1.2874354e-17 
  8597.4502   1.225994e-17 
    8600.75  1.2102158e-17 
  8604.0498  1.2596586e-17 
  8607.3496  1.2635125e-17 
  8610.6504  1.1881722e-17 
  8613.9502  1.2339324e-17 
    8617.25  1.1415868e-17 
  8620.5498  1.0669776e-17 
  8623.8496   9.773062e-18 
  8627.1504  9.0439006e-18 
  8630.4502  9.6145138e-18 
    8633.75  8.9984264e-18 
  8637.0498  9.2485145e-18 
  8640.3496  9.4086617e-18 
  8643.6504  9.1621014e-18 
  8646.9502  9.3690347e-18 
    8650.25  9.4472273e-18 
  8653.5498  8.8392098e-18 
  8656.8496  8.1279975e-18 
  8660.1504  8.3576377e-18 
  8663.4502  8.3717403e-18 
    8666.75  7.7887765e-18 
  8670.0498  7.5255362e-18 
  8673.3496  7.3523361e-18 
  8676.6504  7.9593808e-18 
  8679.9502  7.4036156e-18 
    8683.25  7.3131021e-18 
  8686.5498  8.1156063e-18 
  8689.8496  7.6230467e-18 
  8693.1504  8.0275612e-18 
  8696.4502  7.7446671e-18 
    8699.75  7.2881411e-18 
  8703.0498  7.5197716e-18 
  8706.3496  7.7039599e-18 
  8709.6504  7.4713807e-18 
  8712.9502  7.2769337e-18 
    8716.25  7.2069757e-18 
  8719.5498   7.382644e-18 
  8722.8496   7.220783e-18 
  8726.1504  7.2709325e-18 
  8729.4502  7.5905815e-18 
    8732.75  7.1847717e-18 
  8736.0498  7.4704311e-18 
  8739.3496  7.3782368e-18 
  8742.6504  6.8910626e-18 
  8745.9502  7.0988078e-18 
    8749.25  7.4205496e-18 
  8752.5498  7.6774735e-18 
  8755.8496  6.6538003e-18 
  8759.1504  7.3013851e-18 
  8762.4502  5.7106742e-18 
    8765.75  7.3513088e-18 
  8769.0498  7.1366422e-18 
  8772.3496  5.5458055e-18 
  8775.6504  6.5849615e-18 
  8778.9502  5.7109691e-18 
    8782.25  6.3871041e-18 
  8785.5498  6.2466025e-18 
  8788.8496  6.5095681e-18 
  8792.1504  6.0816966e-18 
  8795.4502  6.0763079e-18 
    8798.75  6.2525321e-18 
  8802.0498  6.4620619e-18 
  8805.3496  6.1657882e-18 
  8808.6504  6.2185416e-18 
  8811.9502  6.3659683e-18 
    8815.25  7.9525409e-18 
  8818.5498  6.4053599e-18 
  8821.8496  6.1101044e-18 
  8825.1504  6.1623314e-18 
  8828.4502  6.1391637e-18 
    8831.75    6.01877e-18 
  8835.0498    6.06067e-18 
  8838.3496  6.1790123e-18 
  8841.6504  5.6310233e-18 
  8844.9502  6.5419725e-18 
    8848.25  5.8518839e-18 
  8851.5498  5.4830961e-18 
  8854.8496  6.1294625e-18 
  8858.1504  6.3835211e-18 
  8861.4502  5.5806745e-18 
    8864.75  6.1999619e-18 
  8868.0498  6.1998854e-18 
  8871.3496  5.3136114e-18 
  8874.6504  6.3212679e-18 
  8877.9502  4.6129853e-18 
    8881.25  5.5409913e-18 
  8884.5498   6.292025e-18 
  8887.8496  4.6904466e-18 
  8891.1504  5.2859794e-18 
  8894.4502  6.1718655e-18 
    8897.75  5.5276663e-18 
  8901.0498  5.6822333e-18 
  8904.3496  5.7323579e-18 
  8907.6504  7.2398255e-18 
  8910.9502  6.5547942e-18 
    8914.25  5.1023879e-18 
  8917.5498  6.7496052e-18 
  8920.8496  5.9377572e-18 
  8924.1504  5.8045162e-18 
  8927.4502  6.4208369e-18 
    8930.75  6.5202342e-18 
  8934.0498  6.0690366e-18 
  8937.3496  5.9312159e-18 
  8940.6504  6.2955955e-18 
  8943.9502  5.7749395e-18 
    8947.25  6.7301359e-18 
  8950.5498  5.8692729e-18 
  8953.8496  6.4580369e-18 
  8957.1504  6.3061851e-18 
  8960.4502    6.35885e-18 
    8963.75  6.3865395e-18 
  8967.0498  6.6234916e-18 
  8970.3496  6.2886286e-18 
  8973.6504  6.2984737e-18 
  8976.9502  6.5652275e-18 
    8980.25  6.8393282e-18 
  8983.5498  6.8812067e-18 
  8986.8496    7.12024e-18 
  8990.1504  7.0129688e-18 
  8993.4502  7.3430279e-18 
    8996.75  7.7558977e-18 
  9000.0498  8.3217132e-18 
  9003.3496  7.8940815e-18 
  9006.6504  8.2467169e-18 
  9009.9502   8.344694e-18 
    9013.25  8.4550647e-18 
  9016.5498  8.8776977e-18 
  9019.8496  9.0378052e-18 
  9023.1504   9.317197e-18 
  9026.4502  8.9056109e-18 
    9029.75  9.1329996e-18 
  9033.0498  9.2502392e-18 
  9036.3496  9.5338703e-18 
  9039.6504  8.8133952e-18 
  9042.9502  9.0277094e-18 
    9046.25  8.6453146e-18 
  9049.5498  8.8909318e-18 
  9052.8496  9.0226173e-18 
  9056.1504  9.3364885e-18 
  9059.4502  9.4461056e-18 
    9062.75  9.4835248e-18 
  9066.0498  9.1324694e-18 
  9069.3496  8.8853161e-18 
  9072.6504  8.4478169e-18 
  9075.9502  8.7127811e-18 
    9079.25  9.0001039e-18 
  9082.5498  8.7345723e-18 
  9085.8496  9.0357554e-18 
  9089.1504  8.8352079e-18 
  9092.4502  8.6572591e-18 
    9095.75  8.8339713e-18 
  9099.0498  8.3768539e-18 
  9102.3496  8.8048182e-18 
  9105.6504  7.9699423e-18 
  9108.9502  8.0787629e-18 
    9112.25  8.3436997e-18 
  9115.5498  8.2060966e-18 
  9118.8496  8.0117008e-18 
  9122.1504  7.6701331e-18 
  9125.4502  7.7020458e-18 
    9128.75  7.5726714e-18 
  9132.0498  6.8969918e-18 
  9135.3496  6.9197108e-18 
  9138.6504   7.083136e-18 
  9141.9502    7.69005e-18 
    9145.25  7.4558834e-18 
  9148.5498   7.070859e-18 
  9151.8496  7.1644379e-18 
  9155.1504  6.8743742e-18 
  9158.4502  6.8984712e-18 
    9161.75  7.3799061e-18 
  9165.0498  7.3220555e-18 
  9168.3496  6.9697113e-18 
  9171.6504  6.7094646e-18 
  9174.9502  6.9812753e-18 
    9178.25  6.7915201e-18 
  9181.5498  6.9740052e-18 
  9184.8496  7.3633029e-18 
  9188.1504  7.1497935e-18 
  9191.4502  7.2693823e-18 
    9194.75  6.9388273e-18 
  9198.0498   6.977151e-18 
  9201.3496  7.1877123e-18 
  9204.6504  7.1574201e-18 
  9207.9502  7.3646065e-18 
    9211.25  7.4791504e-18 
  9214.5498  6.9271008e-18 
  9217.8496   6.955349e-18 
  9221.1504  7.0613315e-18 
  9224.4502  7.0373664e-18 
    9227.75  7.0473646e-18 
  9231.0498  7.1160561e-18 
  9234.3496  7.5960674e-18 
  9237.6504  7.2503961e-18 
  9240.9502  6.9353478e-18 
    9244.25  6.8931177e-18 
  9247.5498  6.6831181e-18 
  9250.8496   6.889333e-18 
  9254.1504  7.1628506e-18 
  9257.4502  6.7833294e-18 
    9260.75  6.6818128e-18 
