# STATUS =
# OBJECT = 2020qef
# TELESCOPE = Keck1
# INSTRUMENT = LRIS
# DATE-OBS = 2020-09-20 00:00:00.000
# MJD = 59112.0
# EXPTIME =
# AIRMASS =
# SLIT =
# DISPERSER =
# SOURCE = DOI 10.3847/1538-4357/aca161
# FILTER =
# RESOLUTION =
# FLUX_STANDARD =
# EXTINCTION_CORRECTED =
# PHOTOMETRY_CALIBRATED =
# TELLURIC_CORRECTED =
# FLUX_UNITS =
# WAVE_UNITS =
# QUALITY =
# MIN_WAVE = 3079.4707
# MAX_WAVE = 10302.514
# COMMENT =
 Wavelength          Flux 
  3081.4114  -7.60172e-18 
  3083.3528    9.6708e-17 
  3085.2952   6.26467e-17 
   3087.238   7.93247e-19 
  3089.1816   1.11451e-16 
  3091.1257    1.2239e-17 
  3093.0706   6.32385e-17 
  3095.0161   9.74896e-18 
  3096.9624   3.20268e-18 
  3098.9092   6.26714e-17 
  3100.8567   9.70612e-18 
  3102.8049   4.41071e-18 
  3104.7539      4.22e-17 
  3106.7034   7.37817e-18 
  3108.6536  -5.20429e-17 
  3110.6045   4.31075e-17 
  3112.5559    4.5092e-17 
  3114.5081  -9.08752e-18 
  3116.4607  -4.29615e-17 
  3118.4143   1.46618e-17 
  3120.3684   1.91867e-17 
   3122.323  -2.82466e-17 
  3124.2786  -7.47635e-18 
  3126.2346   2.29229e-17 
  3128.1912    2.6619e-17 
  3130.1484   5.18691e-17 
  3132.1064   4.41943e-18 
  3134.0652  -3.14137e-17 
  3136.0244  -1.20545e-18 
  3137.9841   3.20685e-17 
  3139.9448   1.11454e-17 
   3141.906   1.19888e-17 
  3143.8677   4.03151e-17 
  3145.8301   2.19988e-17 
  3147.7932  -4.31637e-19 
  3149.7568  -3.97307e-17 
  3151.7212   5.69086e-17 
  3153.6863   2.23505e-17 
  3155.6519   5.02391e-17 
  3157.6182   4.02733e-17 
   3159.585  -2.61568e-17 
  3161.5525  -2.26543e-17 
  3163.5205  -2.56902e-18 
  3165.4893   4.87595e-17 
  3167.4585   3.02723e-17 
  3169.4285   7.63243e-18 
  3171.3989   4.07458e-18 
  3173.3701  -3.51489e-18 
   3175.342   6.21634e-18 
  3177.3145   2.73138e-17 
  3179.2876  -7.50602e-18 
  3181.2612   2.55616e-17 
  3183.2354  -9.16844e-19 
  3185.2102   1.04063e-17 
  3187.1858   2.33343e-18 
  3189.1619   4.42312e-18 
  3191.1387   1.93831e-18 
   3193.116   1.14733e-17 
  3195.0938     2.264e-17 
  3197.0723  -2.22875e-18 
  3199.0515    3.1432e-18 
  3201.0312  -8.47447e-18 
  3203.0115  -1.00162e-17 
  3204.9924   1.26573e-17 
  3206.9739   1.38062e-17 
  3208.9561   2.14598e-17 
  3210.9387   3.04997e-17 
  3212.9221   9.27276e-18 
   3214.906   1.23308e-17 
  3216.8904   1.75872e-17 
  3218.8755   8.87687e-18 
  3220.8611   1.08089e-17 
  3222.8474  -1.13942e-17 
  3224.8345   4.56443e-17 
  3226.8218   2.68585e-17 
  3228.8098  -8.22551e-19 
  3230.7983   2.29479e-17 
  3232.7876  -6.74116e-19 
  3234.7773   1.66264e-17 
  3236.7676   2.47295e-17 
  3238.7588   1.85698e-17 
  3240.7502   2.36605e-17 
  3242.7422    3.5541e-18 
  3244.7351  -9.17467e-18 
  3246.7283  -1.48879e-18 
  3248.7219   9.83819e-18 
  3250.7163   2.74377e-17 
  3252.7114  -4.87773e-21 
  3254.7068    1.6359e-17 
  3256.7029   1.95273e-17 
  3258.6997  -7.63709e-19 
   3260.697   2.50677e-17 
  3262.6946  -6.51674e-20 
  3264.6931   1.72098e-17 
  3266.6919   4.72146e-18 
  3268.6914   8.71365e-19 
  3270.6917   1.87458e-17 
  3272.6921    5.5363e-18 
  3274.6934   1.85748e-17 
  3276.6951  -4.81049e-18 
  3278.6975  -7.10667e-18 
  3280.7002   1.81152e-17 
  3282.7036    2.6395e-17 
  3284.7078    2.2334e-17 
  3286.7122   9.77295e-18 
  3288.7173   5.73419e-18 
  3290.7229   1.09921e-17 
   3292.729   9.15925e-18 
  3294.7358   3.67099e-18 
  3296.7432   2.85847e-17 
   3298.751   2.09705e-17 
  3300.7593   1.35527e-17 
  3302.7683   3.29684e-17 
  3304.7776   4.32326e-18 
  3306.7876   1.11452e-17 
  3308.7981   2.73545e-17 
  3310.8091  -4.16843e-18 
  3312.8208    2.2416e-17 
   3314.833   3.31317e-18 
  3316.8457   1.22424e-17 
  3318.8589   9.79593e-18 
  3320.8728   1.34237e-17 
   3322.887   1.51692e-17 
  3324.9019   9.92212e-18 
  3326.9172   9.99687e-18 
  3328.9331   2.20716e-17 
  3330.9495   1.00768e-17 
  3332.9666   2.28987e-17 
  3334.9839   1.33912e-17 
   3337.002   1.52342e-17 
  3339.0205   1.37202e-17 
  3341.0396   1.27266e-17 
  3343.0591   7.26497e-18 
  3345.0793   1.58789e-17 
  3347.0999   9.14009e-18 
  3349.1211   1.99913e-17 
  3351.1426   8.06017e-20 
  3353.1648   6.64055e-18 
  3355.1875   1.61104e-17 
  3357.2107  -2.42059e-18 
  3359.2346   6.51326e-18 
  3361.2588   1.28189e-17 
  3363.2837   1.55011e-18 
  3365.3088   1.03539e-17 
  3367.3347   4.34782e-18 
  3369.3611   2.49995e-17 
  3371.3877  -5.22032e-19 
   3373.415   1.22419e-17 
  3375.4429   6.71978e-18 
  3377.4712   1.72781e-17 
     3379.5   1.18984e-17 
  3381.5293   1.12662e-17 
  3383.5593   6.27056e-18 
  3385.5896   8.94096e-18 
  3387.6206    5.1836e-18 
  3389.6519   1.98249e-18 
  3391.6836   3.69751e-19 
  3393.7161   4.43908e-18 
  3395.7488   4.40034e-18 
  3397.7822   7.98136e-18 
  3399.8159   1.53745e-17 
  3401.8503   1.27798e-18 
  3403.8853   1.00192e-17 
  3405.9204   7.30244e-18 
  3407.9563   1.98509e-17 
  3409.9927   8.84932e-18 
  3412.0293   1.35868e-17 
  3414.0667   1.35747e-17 
  3416.1045   7.99135e-18 
  3418.1426   7.67435e-18 
  3420.1814   5.05474e-18 
  3422.2207   6.61551e-18 
  3424.2603   1.71961e-17 
  3426.3005   1.03837e-17 
  3428.3411   1.32246e-17 
  3430.3823   3.18265e-18 
  3432.4238   1.53724e-17 
  3434.4661   4.24098e-18 
  3436.5085   8.65613e-18 
  3438.5515   1.46249e-17 
  3440.5952   7.37302e-19 
  3442.6392   1.97482e-17 
  3444.6836   1.57875e-17 
  3446.7285   1.85016e-19 
  3448.7739   1.12034e-17 
  3450.8198   9.18412e-18 
  3452.8662   1.67856e-17 
  3454.9131   1.32895e-17 
  3456.9604  -1.35225e-18 
  3459.0083   1.80806e-17 
  3461.0564   1.33321e-17 
   3463.105   2.12217e-17 
  3465.1543   1.77414e-17 
  3467.2039   1.06644e-17 
  3469.2539   1.32102e-17 
  3471.3044   9.63131e-18 
  3473.3555   1.04339e-17 
   3475.407   1.62297e-17 
   3477.459   1.30146e-17 
  3479.5112   1.25249e-17 
  3481.5642    8.9646e-18 
  3483.6174   1.20315e-17 
  3485.6711   1.16461e-17 
  3487.7253   1.59513e-17 
    3489.78   8.90919e-18 
  3491.8352   1.28629e-17 
  3493.8906   1.13589e-17 
  3495.9468   1.66694e-17 
  3498.0032   2.21662e-17 
  3500.0601   1.00313e-17 
  3502.1174   1.15702e-17 
  3504.1753   1.79222e-17 
  3506.2334   9.76825e-18 
  3508.2922    1.7365e-17 
  3510.3513   1.68466e-17 
  3512.4109    9.3376e-18 
  3514.4709   5.01808e-18 
  3516.5312   1.44507e-17 
  3518.5923   1.74539e-17 
  3520.6536   1.51051e-17 
  3522.7153   1.25086e-17 
  3524.7776   7.34318e-18 
  3526.8401   1.38572e-17 
  3528.9033   1.09528e-17 
  3530.9668   1.12107e-17 
  3533.0308   1.50416e-17 
  3535.0952   1.02184e-17 
  3537.1599   1.21536e-17 
  3539.2251   1.13045e-17 
  3541.2908   8.00108e-19 
  3543.3569   2.09167e-17 
  3545.4236    1.3458e-17 
  3547.4905   7.23721e-18 
  3549.5579   1.25978e-17 
  3551.6255   8.95186e-18 
  3553.6938   9.40539e-18 
  3555.7625   1.39339e-17 
  3557.8315   9.38257e-18 
  3559.9011   1.70666e-17 
  3561.9709   1.80402e-17 
  3564.0413   1.99759e-17 
  3566.1121   1.16941e-17 
  3568.1833   5.62828e-18 
  3570.2549   1.28993e-17 
  3572.3269   9.33729e-18 
  3574.3994   1.19007e-17 
  3576.4722    1.1954e-17 
  3578.5454   7.32471e-18 
  3580.6189   1.07489e-17 
  3582.6931   2.05425e-17 
  3584.7676   4.60308e-18 
  3586.8425   8.40349e-18 
  3588.9177   1.27799e-17 
  3590.9934   5.91199e-18 
  3593.0696   9.24164e-18 
  3595.1462   9.56935e-18 
  3597.2231   1.36056e-17 
  3599.3005   3.89145e-18 
  3601.3782   7.88348e-18 
  3603.4563   1.15248e-17 
  3605.5349   1.18058e-17 
   3607.614   6.91253e-18 
  3609.6931   1.64687e-17 
  3611.7729   9.95763e-18 
   3613.853   5.52821e-18 
  3615.9336   1.32701e-17 
  3618.0146   1.05487e-17 
  3620.0959   1.10734e-17 
  3622.1777   7.52949e-18 
  3624.2598    7.9617e-18 
  3626.3423   1.04795e-17 
  3628.4253   1.56482e-17 
  3630.5085   9.98645e-18 
  3632.5923   1.97957e-17 
  3634.6765   1.15158e-17 
  3636.7607   9.81135e-18 
  3638.8457   8.62244e-18 
  3640.9309   1.33402e-17 
  3643.0166   1.17013e-17 
  3645.1028   3.68605e-18 
  3647.1892   9.08689e-18 
  3649.2759    9.0636e-18 
   3651.363   7.95843e-18 
  3653.4507   6.67426e-18 
  3655.5386   1.16685e-17 
   3657.627   1.06637e-17 
  3659.7156   1.24345e-17 
  3661.8047   9.38354e-18 
  3663.8943   1.73664e-17 
  3665.9839   5.78998e-18 
  3668.0742   1.27634e-17 
  3670.1648    1.2344e-17 
  3672.2559   5.11729e-18 
  3674.3472   1.02633e-17 
   3676.439   5.71819e-18 
   3678.531   1.01651e-17 
  3680.6235   1.47264e-17 
  3682.7163   1.65759e-17 
  3684.8096   8.81912e-18 
  3686.9031    1.2809e-17 
  3688.9971   8.50688e-18 
  3691.0913   1.44134e-17 
   3693.186   1.44435e-17 
   3695.281   9.32205e-18 
  3697.3765   1.46008e-17 
  3699.4724   1.45149e-17 
  3701.5686   8.50877e-18 
   3703.665   2.26023e-17 
  3705.7617   8.11268e-18 
  3707.8591    2.1584e-17 
  3709.9568   1.07194e-17 
  3712.0547   1.02347e-17 
  3714.1528   1.70919e-17 
  3716.2517   1.49215e-17 
  3718.3506    8.3193e-18 
    3720.45     1.478e-17 
  3722.5498   1.30986e-17 
  3724.6499   1.65345e-17 
  3726.7502   1.02484e-17 
  3728.8511   1.12166e-17 
  3730.9524   1.46368e-17 
  3733.0537   1.28651e-17 
  3735.1555   9.61919e-18 
  3737.2578    5.5541e-18 
  3739.3604   1.15498e-17 
  3741.4634   1.48871e-17 
  3743.5667   1.19444e-17 
  3745.6702   7.35136e-18 
  3747.7742   1.42765e-17 
  3749.8784   1.58051e-17 
  3751.9832   1.03866e-17 
  3754.0879   1.09537e-17 
  3756.1934   1.27204e-17 
  3758.2991   1.67265e-17 
   3760.405   1.43822e-17 
  3762.5115   1.35469e-17 
  3764.6182   1.79077e-17 
  3766.7251   1.08022e-17 
  3768.8325   1.68686e-17 
  3770.9402    1.1449e-17 
  3773.0483   1.25196e-17 
  3775.1567   1.42668e-17 
  3777.2654   1.56848e-17 
  3779.3745    1.2549e-17 
  3781.4839   1.48529e-17 
  3783.5935   1.29443e-17 
  3785.7036   1.34224e-17 
   3787.814   1.26799e-17 
  3789.9248   1.10989e-17 
  3792.0359   1.33511e-17 
  3794.1472   1.76364e-17 
  3796.2588   1.51207e-17 
  3798.3708    1.6975e-17 
  3800.4834   1.18342e-17 
  3802.5959   1.42275e-17 
   3804.709   1.40485e-17 
  3806.8223   1.36313e-17 
   3808.936   1.34877e-17 
    3811.05   1.20867e-17 
  3813.1643    1.5031e-17 
  3815.2788   1.43938e-17 
  3817.3938   1.39613e-17 
   3819.509   9.79378e-18 
  3821.6248   1.08143e-17 
  3823.7407   1.62883e-17 
  3825.8569   1.58069e-17 
  3827.9734   1.60952e-17 
  3830.0903   1.43637e-17 
  3832.2075   1.24081e-17 
   3834.325   1.13472e-17 
  3836.4429   1.39325e-17 
  3838.5608    6.4832e-18 
  3840.6794   1.81391e-17 
  3842.7981   1.37515e-17 
  3844.9172    1.6057e-17 
  3847.0366   1.06504e-17 
  3849.1562   7.72965e-18 
  3851.2764   1.62826e-17 
  3853.3965   1.25125e-17 
  3855.5171   1.57552e-17 
  3857.6382   9.47773e-18 
  3859.7593   1.63654e-17 
  3861.8809   1.02578e-17 
  3864.0027   1.24226e-17 
   3866.125   1.13672e-17 
  3868.2473   1.56147e-17 
  3870.3701   1.28123e-17 
  3872.4932   1.23132e-17 
  3874.6165   8.85424e-18 
    3876.74   1.24433e-17 
   3878.864    1.6284e-17 
  3880.9883   1.65124e-17 
  3883.1128   1.51791e-17 
  3885.2378   1.14404e-17 
  3887.3628   1.51034e-17 
  3889.4883   1.61938e-17 
   3891.614   1.63566e-17 
    3893.74   1.37213e-17 
  3895.8665   1.64177e-17 
  3897.9932   1.19251e-17 
  3900.1201   1.12965e-17 
  3902.2473   1.33568e-17 
  3904.3748   1.05895e-17 
  3906.5024   1.64961e-17 
  3908.6306    1.6688e-17 
   3910.759   1.41656e-17 
  3912.8877   1.67087e-17 
  3915.0166   1.52142e-17 
  3917.1458   1.33273e-17 
  3919.2754   1.39773e-17 
  3921.4053   1.78224e-17 
  3923.5354   1.42511e-17 
  3925.6658   1.46003e-17 
  3927.7964   1.03939e-17 
  3929.9272   1.49973e-17 
  3932.0586   1.86028e-17 
  3934.1899   1.19123e-17 
  3936.3218   1.72866e-17 
  3938.4539   1.63678e-17 
  3940.5862   1.32295e-17 
   3942.719   1.47602e-17 
  3944.8518   1.44352e-17 
  3946.9851   1.63941e-17 
  3949.1184   1.75843e-17 
  3951.2522   1.41757e-17 
  3953.3862   1.41252e-17 
  3955.5205   1.21149e-17 
   3957.655   1.58662e-17 
    3959.79   1.45685e-17 
   3961.925    1.2214e-17 
  3964.0605    1.1497e-17 
  3966.1963   1.48047e-17 
   3968.332   1.28714e-17 
  3970.4683   1.65877e-17 
  3972.6047   1.36769e-17 
  3974.7415   1.32675e-17 
  3976.8784   1.67208e-17 
  3979.0159   1.40372e-17 
  3981.1533   1.27624e-17 
  3983.2913   1.59137e-17 
  3985.4292   1.15372e-17 
  3987.5676   1.27219e-17 
  3989.7063   1.51854e-17 
  3991.8452   1.51893e-17 
  3993.9841    1.7105e-17 
  3996.1238   1.46191e-17 
  3998.2632   1.31272e-17 
  4000.4033   1.58861e-17 
  4002.5435   1.32942e-17 
  4004.6838   1.23587e-17 
  4006.8247   1.56757e-17 
  4008.9656   1.91122e-17 
  4011.1067   1.65215e-17 
  4013.2483   1.87546e-17 
  4015.3899   1.74625e-17 
   4017.532   1.15116e-17 
  4019.6743   1.74071e-17 
  4021.8167   1.24103e-17 
  4023.9595   1.27481e-17 
  4026.1025   1.96745e-17 
  4028.2456   1.33485e-17 
  4030.3892   1.72208e-17 
   4032.533   1.22752e-17 
   4034.677     1.464e-17 
  4036.8213   1.25937e-17 
  4038.9658   1.91312e-17 
  4041.1106   1.11703e-17 
  4043.2556   1.10076e-17 
  4045.4009   1.84245e-17 
  4047.5464   1.91467e-17 
  4049.6921   1.48917e-17 
  4051.8381    1.5043e-17 
  4053.9844   1.43315e-17 
  4056.1309   1.54949e-17 
  4058.2776   1.98133e-17 
  4060.4246   1.59671e-17 
  4062.5718   1.32184e-17 
  4064.7192   1.36707e-17 
  4066.8669   1.35536e-17 
  4069.0149   1.37926e-17 
  4071.1631   2.15546e-17 
  4073.3113   1.51088e-17 
  4075.4602   1.24404e-17 
  4077.6089   1.62308e-17 
  4079.7581   1.57936e-17 
  4081.9075   1.36305e-17 
  4084.0571   1.60858e-17 
   4086.207   1.39453e-17 
  4088.3569   1.29107e-17 
  4090.5073   1.20735e-17 
   4092.658   1.56024e-17 
  4094.8086   1.73443e-17 
  4096.9595   1.47294e-17 
  4099.1108   1.34373e-17 
  4101.2622   1.80156e-17 
  4103.4141   1.35014e-17 
  4105.5659   1.39104e-17 
  4107.7183   1.25514e-17 
  4109.8706   1.36823e-17 
  4112.0234    1.5917e-17 
  4114.1763    1.7229e-17 
  4116.3291   1.82009e-17 
  4118.4824   1.86476e-17 
  4120.6362   1.84269e-17 
  4122.7896   1.74352e-17 
  4124.9438    1.3971e-17 
  4127.0977   1.59628e-17 
  4129.2524   1.55217e-17 
  4131.4072    1.4293e-17 
   4133.562    1.6771e-17 
  4135.7168   1.99039e-17 
  4137.8721   1.89503e-17 
  4140.0278   1.56399e-17 
  4142.1836   1.94581e-17 
  4144.3394   1.66565e-17 
  4146.4956   1.88323e-17 
  4148.6523   1.58999e-17 
  4150.8086   1.53098e-17 
  4152.9658   1.54345e-17 
  4155.1226   1.72485e-17 
  4157.2798   1.57875e-17 
  4159.4375   1.71209e-17 
  4161.5952   1.43604e-17 
  4163.7529   1.76932e-17 
  4165.9111   1.80462e-17 
  4168.0693     1.794e-17 
   4170.228   1.71542e-17 
  4172.3867   1.33356e-17 
  4174.5459   1.42235e-17 
  4176.7051   1.56736e-17 
  4178.8643   1.91134e-17 
  4181.0239   1.41533e-17 
  4183.1836   2.13705e-17 
  4185.3438   1.77619e-17 
  4187.5039   1.27759e-17 
  4189.6646   1.85542e-17 
  4191.8252   1.77028e-17 
  4193.9858     1.984e-17 
   4196.147   1.90298e-17 
  4198.3081   1.73707e-17 
  4200.4697   1.84509e-17 
  4202.6313   2.03001e-17 
  4204.7935   2.12138e-17 
  4206.9556   1.72992e-17 
  4209.1177   1.91146e-17 
  4211.2803   1.90667e-17 
  4213.4429   1.64317e-17 
  4215.6055   1.56933e-17 
  4217.7686   1.94941e-17 
  4219.9321   1.74915e-17 
  4222.0952    1.7781e-17 
  4224.2593    1.9677e-17 
  4226.4229   1.55644e-17 
  4228.5869    1.9196e-17 
  4230.7515    1.7964e-17 
  4232.9155   1.91204e-17 
  4235.0806   1.64535e-17 
  4237.2451   1.80323e-17 
  4239.4102   1.70097e-17 
  4241.5752   1.89037e-17 
  4243.7407   1.67709e-17 
  4245.9067   1.93338e-17 
  4248.0723   1.61552e-17 
  4250.2383   1.98044e-17 
  4252.4043   2.07532e-17 
  4254.5708   2.00004e-17 
  4256.7373   2.09745e-17 
  4258.9043   1.66531e-17 
  4261.0708   1.81894e-17 
  4263.2383   2.34759e-17 
  4265.4053   1.80063e-17 
  4267.5728   2.00071e-17 
  4269.7407   1.68704e-17 
  4271.9087   1.93785e-17 
  4274.0767   1.74482e-17 
  4276.2446   1.80081e-17 
  4278.4131   1.97539e-17 
   4280.582   1.78166e-17 
  4282.7505   1.80946e-17 
  4284.9194   1.97323e-17 
  4287.0884    1.7183e-17 
  4289.2578   2.18819e-17 
  4291.4272   1.94182e-17 
  4293.5972   1.76732e-17 
  4295.7671   1.81108e-17 
   4297.937   1.92494e-17 
  4300.1074   1.57653e-17 
  4302.2778   1.46733e-17 
  4304.4482   1.68437e-17 
  4306.6191   1.73674e-17 
    4308.79   1.94549e-17 
  4310.9609   1.87669e-17 
  4313.1323   1.82564e-17 
  4315.3037   1.90528e-17 
  4317.4751    2.1841e-17 
   4319.647   2.13963e-17 
  4321.8188   1.89939e-17 
  4323.9912   1.84061e-17 
  4326.1636   2.21056e-17 
  4328.3359    1.8129e-17 
  4330.5088   1.84787e-17 
  4332.6816   1.78768e-17 
  4334.8545   1.78735e-17 
  4337.0278   2.04296e-17 
  4339.2007   1.82511e-17 
  4341.3745   2.04046e-17 
  4343.5479   2.02089e-17 
  4345.7217    1.9517e-17 
   4347.896   1.76723e-17 
  4350.0698   1.86022e-17 
  4352.2441   1.62675e-17 
  4354.4189   2.03512e-17 
  4356.5933   1.76451e-17 
  4358.7681   2.23153e-17 
  4360.9434   1.90814e-17 
  4363.1182   1.88108e-17 
  4365.2935   2.09712e-17 
  4367.4692   2.04863e-17 
  4369.6445   1.71009e-17 
  4371.8203    2.2089e-17 
  4373.9966   1.85498e-17 
  4376.1724   1.90157e-17 
  4378.3486   2.00699e-17 
  4380.5254   2.17794e-17 
  4382.7017   2.00039e-17 
  4384.8784   2.27769e-17 
  4387.0552   2.30731e-17 
  4389.2324     2.202e-17 
  4391.4097   1.83439e-17 
  4393.5869   2.20811e-17 
  4395.7642   2.03121e-17 
  4397.9419   1.81804e-17 
  4400.1201   1.77528e-17 
  4402.2979   1.97196e-17 
  4404.4761   2.14546e-17 
  4406.6543   2.01319e-17 
  4408.8325   2.95621e-17 
  4411.0112    2.9761e-17 
  4413.1899   2.98459e-17 
  4415.3687   2.33762e-17 
  4417.5479   2.01214e-17 
  4419.7271    1.6515e-17 
  4421.9062   1.69863e-17 
  4424.0859   1.70859e-17 
  4426.2656   1.69558e-17 
  4428.4453   1.54231e-17 
   4430.625   1.62965e-17 
  4432.8052   1.76602e-17 
  4434.9854   1.37925e-17 
  4437.1655   1.40548e-17 
  4439.3462   1.25546e-17 
  4441.5269   1.65491e-17 
  4443.7075   1.76477e-17 
  4445.8882   1.28706e-17 
  4448.0693   1.25549e-17 
  4450.2505   1.69078e-17 
  4452.4321   1.67473e-17 
  4454.6133     1.587e-17 
  4456.7949   1.57811e-17 
  4458.9766   1.29406e-17 
  4461.1587   1.49584e-17 
  4463.3408   1.81191e-17 
  4465.5229   1.48769e-17 
  4467.7051   1.71188e-17 
  4469.8877   1.51355e-17 
  4472.0703   1.91164e-17 
  4474.2529   1.57037e-17 
  4476.4355   1.82402e-17 
  4478.6187   1.55244e-17 
  4480.8018   1.79917e-17 
  4482.9849   1.18325e-17 
  4485.1685   1.73423e-17 
  4487.3521   1.57619e-17 
  4489.5356   1.45058e-17 
  4491.7192   1.26063e-17 
  4493.9033   1.79292e-17 
  4496.0874   1.46686e-17 
  4498.2715   1.84452e-17 
  4500.4556   1.62725e-17 
  4502.6401   1.10157e-17 
  4504.8247   1.76811e-17 
  4507.0093   1.69551e-17 
  4509.1943   1.96728e-17 
  4511.3789   1.67645e-17 
   4513.564    1.7211e-17 
  4515.7495   1.68862e-17 
  4517.9346   1.79141e-17 
  4520.1201   1.73599e-17 
  4522.3057   1.56659e-17 
  4524.4912   2.00834e-17 
  4526.6772   1.87227e-17 
  4528.8633   1.97239e-17 
  4531.0493   1.93622e-17 
  4533.2354   1.78476e-17 
  4535.4219   1.56403e-17 
  4537.6079    1.7431e-17 
  4539.7949   1.99707e-17 
  4541.9814   1.99331e-17 
   4544.168   1.81236e-17 
   4546.355   1.64527e-17 
   4548.542   2.19163e-17 
   4550.729   1.97265e-17 
  4552.9165   1.81051e-17 
   4555.104   1.81467e-17 
  4557.2915   1.96644e-17 
   4559.479   1.98882e-17 
  4561.6665    2.0738e-17 
  4563.8545   2.02964e-17 
  4566.0425   2.06098e-17 
  4568.2305   2.20828e-17 
  4570.4189   2.03574e-17 
  4572.6069   2.18968e-17 
  4574.7954   2.25371e-17 
  4576.9839   2.03613e-17 
  4579.1724   2.18374e-17 
  4581.3613   2.41229e-17 
  4583.5503   2.21108e-17 
  4585.7393   2.36365e-17 
  4587.9282   2.31392e-17 
  4590.1177   2.16642e-17 
  4592.3066   1.58073e-17 
  4594.4961   2.07864e-17 
  4596.6855   2.07607e-17 
  4598.8755   2.29638e-17 
  4601.0649   1.94589e-17 
  4603.2549   2.22577e-17 
  4605.4448   1.61594e-17 
  4607.6348   1.74995e-17 
  4609.8252   2.18493e-17 
  4612.0156    1.9814e-17 
  4614.2056   2.30357e-17 
   4616.396   1.93966e-17 
  4618.5869   1.95695e-17 
  4620.7773   1.91225e-17 
  4622.9683    2.1069e-17 
  4625.1592   2.34032e-17 
  4627.3501   2.16026e-17 
   4629.541   2.36313e-17 
  4631.7324   2.48275e-17 
  4633.9238   2.16297e-17 
  4636.1152   2.21956e-17 
  4638.3066   2.41952e-17 
   4640.498   2.33527e-17 
  4642.6899   2.05252e-17 
  4644.8818   2.58515e-17 
  4647.0737   2.87591e-17 
  4649.2656   2.13754e-17 
  4651.4575   2.36084e-17 
  4653.6499    2.1248e-17 
  4655.8418   2.50494e-17 
  4658.0342   2.44897e-17 
  4660.2266   2.60573e-17 
  4662.4194   2.70426e-17 
  4664.6118   2.58098e-17 
  4666.8047   2.52325e-17 
  4668.9976   2.58954e-17 
  4671.1904   2.23362e-17 
  4673.3833    2.5903e-17 
  4675.5767   2.65007e-17 
  4677.7695   2.67216e-17 
  4679.9629   2.74592e-17 
  4682.1562   2.45375e-17 
  4684.3501   2.47176e-17 
  4686.5435   2.59676e-17 
  4688.7368   2.62609e-17 
  4690.9307   2.49044e-17 
  4693.1245    2.3409e-17 
  4695.3184   2.93427e-17 
  4697.5127    2.5137e-17 
  4699.7065   2.30897e-17 
  4701.9009   2.46881e-17 
  4704.0952   2.72621e-17 
  4706.2891   2.79287e-17 
  4708.4839   2.53477e-17 
  4710.6782   2.16959e-17 
  4712.8726   2.80476e-17 
  4715.0674   2.79965e-17 
  4717.2622   2.86779e-17 
   4719.457   2.83363e-17 
  4721.6519   2.55363e-17 
  4723.8467   2.90174e-17 
   4726.042   2.93404e-17 
  4728.2373   2.63735e-17 
  4730.4326   2.58212e-17 
  4732.6279   2.91841e-17 
  4734.8232   2.25725e-17 
  4737.0186   2.84153e-17 
  4739.2139   2.56498e-17 
  4741.4097    2.7307e-17 
  4743.6055   2.62595e-17 
  4745.8013   2.71937e-17 
  4747.9971   2.35935e-17 
  4750.1929    2.5451e-17 
  4752.3892   2.29982e-17 
   4754.585   2.59184e-17 
  4756.7812   2.55854e-17 
  4758.9775    2.4087e-17 
  4761.1738    2.4678e-17 
  4763.3701    2.3292e-17 
  4765.5664   1.96549e-17 
  4767.7632   2.21363e-17 
  4769.9595   2.41698e-17 
  4772.1562   2.17058e-17 
   4774.353   2.38696e-17 
  4776.5498   2.47423e-17 
  4778.7466   2.39659e-17 
  4780.9438   2.41648e-17 
  4783.1406   2.38846e-17 
  4785.3379   2.33927e-17 
  4787.5347   2.51631e-17 
  4789.7319    2.2986e-17 
  4791.9292   2.20061e-17 
   4794.127   2.59683e-17 
  4796.3242   2.39025e-17 
  4798.5215   2.66457e-17 
  4800.7192   2.70803e-17 
   4802.917   2.30539e-17 
  4805.1143   2.42129e-17 
   4807.312   2.17149e-17 
  4809.5098   2.30547e-17 
   4811.708   2.13271e-17 
  4813.9058   2.56171e-17 
   4816.104   2.44768e-17 
  4818.3018   2.77883e-17 
     4820.5   2.51326e-17 
  4822.6982   2.43373e-17 
  4824.8965   2.44771e-17 
  4827.0947    2.3397e-17 
   4829.293   2.55351e-17 
  4831.4912   2.32641e-17 
  4833.6899   2.62785e-17 
  4835.8882   2.29068e-17 
  4838.0869    2.5709e-17 
  4840.2856   2.50724e-17 
  4842.4844    2.4244e-17 
  4844.6831   2.36585e-17 
  4846.8818   2.41519e-17 
  4849.0806   2.29232e-17 
  4851.2798   2.56301e-17 
  4853.4785   2.58803e-17 
  4855.6777   2.45353e-17 
   4857.877   2.02192e-17 
  4860.0757   2.44196e-17 
  4862.2749   2.32035e-17 
  4864.4741   2.25793e-17 
  4866.6738   2.41085e-17 
   4868.873   2.52211e-17 
  4871.0723   2.32865e-17 
   4873.272   2.35471e-17 
  4875.4712     2.356e-17 
  4877.6709   2.41347e-17 
  4879.8706   2.34113e-17 
  4882.0703   2.22139e-17 
    4884.27   2.23389e-17 
  4886.4697   2.23811e-17 
  4888.6694   2.43869e-17 
  4890.8691   2.08016e-17 
  4893.0688   2.28306e-17 
   4895.269   2.22567e-17 
  4897.4688   2.21343e-17 
  4899.6689   2.43948e-17 
  4901.8691   2.10794e-17 
  4904.0693   2.27826e-17 
   4906.269   2.38217e-17 
  4908.4692   2.12522e-17 
  4910.6694   2.15012e-17 
  4912.8701   2.44101e-17 
  4915.0703   2.14039e-17 
  4917.2705   2.11349e-17 
  4919.4712   2.29819e-17 
  4921.6714   2.16304e-17 
  4923.8721   2.41204e-17 
  4926.0723   2.17599e-17 
  4928.2729   2.38916e-17 
  4930.4736   2.48432e-17 
  4932.6743   2.19779e-17 
   4934.875    2.3059e-17 
  4937.0757   2.14595e-17 
  4939.2764   2.25653e-17 
  4941.4771   2.33204e-17 
  4943.6782   2.11259e-17 
  4945.8789   1.93698e-17 
  4948.0796   2.26241e-17 
  4950.2808    2.3685e-17 
  4952.4819   1.95483e-17 
  4954.6826     2.305e-17 
  4956.8838   2.50181e-17 
   4959.085   2.20133e-17 
  4961.2861   2.32766e-17 
  4963.4868    2.2643e-17 
   4965.688   2.17391e-17 
  4967.8892   2.25307e-17 
  4970.0908    2.4705e-17 
   4972.292   2.40899e-17 
  4974.4932   2.15888e-17 
  4976.6943   2.32528e-17 
   4978.896   2.19555e-17 
  4981.0972   2.44746e-17 
  4983.2988   2.48528e-17 
     4985.5    2.2966e-17 
  4987.7017   2.51535e-17 
  4989.9028   2.40927e-17 
  4992.1045   2.24248e-17 
  4994.3062   1.92612e-17 
  4996.5078    2.3175e-17 
   4998.709   2.23302e-17 
  5000.9106   2.27544e-17 
  5003.1123   1.86792e-17 
   5005.314   2.48681e-17 
  5007.5156   2.41158e-17 
  5009.7173   2.03671e-17 
  5011.9194   2.30961e-17 
  5014.1211   2.22462e-17 
  5016.3228   2.27815e-17 
  5018.5244   2.00617e-17 
  5020.7261   2.44445e-17 
  5022.9282   1.97738e-17 
  5025.1299   2.21098e-17 
   5027.332   2.07382e-17 
  5029.5337   2.20164e-17 
  5031.7358   2.21638e-17 
  5033.9375     2.187e-17 
  5036.1396    2.2912e-17 
  5038.3418   2.43829e-17 
  5040.5435   2.26401e-17 
  5042.7456   2.07525e-17 
  5044.9478   2.15901e-17 
  5047.1494   2.02407e-17 
  5049.3516   2.21807e-17 
  5051.5537   2.04444e-17 
  5053.7559   2.11809e-17 
   5055.958   2.00502e-17 
  5058.1602   2.08358e-17 
  5060.3623   2.29489e-17 
  5062.5645   2.14907e-17 
  5064.7666    2.0457e-17 
  5066.9688   2.32847e-17 
  5069.1709   1.82008e-17 
   5071.373    2.3679e-17 
  5073.5752   2.08348e-17 
  5075.7773   2.40924e-17 
  5077.9795   2.32744e-17 
  5080.1816   2.02547e-17 
  5082.3838   2.02706e-17 
  5084.5864   2.30737e-17 
  5086.7886   2.28952e-17 
  5088.9907   2.28256e-17 
  5091.1929   2.12885e-17 
   5093.395   2.32066e-17 
  5095.5977   2.25029e-17 
  5097.7998   1.85858e-17 
   5100.002   1.95548e-17 
  5102.2046    2.3204e-17 
  5104.4067   2.44134e-17 
  5106.6089   2.23858e-17 
   5108.811    2.3893e-17 
  5111.0137   2.14515e-17 
  5113.2158    2.2076e-17 
   5115.418   2.04289e-17 
  5117.6206   2.18668e-17 
  5119.8228   2.25955e-17 
  5122.0249    2.0201e-17 
  5124.2275   1.93743e-17 
  5126.4297   1.78612e-17 
  5128.6318   2.22212e-17 
  5130.8345   2.11352e-17 
  5133.0366   2.26624e-17 
  5135.2388   1.59603e-17 
  5137.4414   2.40259e-17 
  5139.6436   2.06631e-17 
  5141.8457   1.74882e-17 
  5144.0483   2.03455e-17 
  5146.2505    2.0355e-17 
  5148.4526   1.97048e-17 
  5150.6548   2.29534e-17 
  5152.8574   2.02086e-17 
  5155.0596   1.93706e-17 
  5157.2617   2.11787e-17 
  5159.4639   2.23615e-17 
   5161.666   2.03243e-17 
  5163.8687   2.24091e-17 
  5166.0708   2.02724e-17 
  5168.2729   1.87128e-17 
  5170.4751   2.16223e-17 
  5172.6772   2.06402e-17 
  5174.8794   2.28944e-17 
  5177.0815   2.09256e-17 
  5179.2837   1.81297e-17 
  5181.4863   1.85318e-17 
   5183.688    2.1084e-17 
  5185.8901   2.07856e-17 
  5188.0923   1.61963e-17 
  5190.2944   2.02168e-17 
  5192.4966   2.20385e-17 
  5194.6987   1.61016e-17 
  5196.9009   2.10059e-17 
   5199.103   2.44589e-17 
  5201.3047   1.78814e-17 
  5203.5068   2.22276e-17 
   5205.709   2.09403e-17 
  5207.9111   2.26843e-17 
  5210.1128   1.91516e-17 
  5212.3149   2.48105e-17 
  5214.5171   1.96155e-17 
  5216.7188   2.26807e-17 
  5218.9209   2.09979e-17 
  5221.1226   2.21834e-17 
  5223.3242   1.87459e-17 
  5225.5264   1.94006e-17 
   5227.728   2.06553e-17 
  5229.9297   2.18551e-17 
  5232.1318   2.23994e-17 
  5234.3335   2.01047e-17 
  5236.5352   1.91753e-17 
  5238.7368   2.31742e-17 
  5240.9385   2.02484e-17 
  5243.1401   2.16966e-17 
  5245.3418   2.36594e-17 
  5247.5435   2.07674e-17 
  5249.7451   2.15409e-17 
  5251.9468   2.29876e-17 
  5254.1484   1.72702e-17 
  5256.3496   1.94259e-17 
  5258.5513   2.25964e-17 
  5260.7529   2.28798e-17 
  5262.9541   2.17399e-17 
  5265.1558   2.29523e-17 
  5267.3569   2.22243e-17 
  5269.5581   2.62809e-17 
  5271.7598   2.47379e-17 
  5273.9609   2.30666e-17 
  5276.1621   2.43858e-17 
  5278.3633   2.18645e-17 
  5280.5649   2.22487e-17 
  5282.7656   2.29249e-17 
  5284.9668   2.70433e-17 
   5287.168    2.6403e-17 
  5289.3691   2.74751e-17 
  5291.5703   2.60753e-17 
   5293.771    2.3794e-17 
  5295.9722   2.41508e-17 
  5298.1733   2.58181e-17 
   5300.374    2.5188e-17 
  5302.5747   2.63164e-17 
  5304.7759   2.18682e-17 
  5306.9766   2.56161e-17 
  5309.1772   2.46908e-17 
  5311.3779   2.41869e-17 
  5313.5786   2.34029e-17 
  5315.7793   2.86422e-17 
    5317.98   2.54181e-17 
  5320.1807   2.59992e-17 
  5322.3809   2.64587e-17 
  5324.5815   2.66243e-17 
  5326.7817   2.29062e-17 
  5328.9824   2.80209e-17 
  5331.1826   2.80104e-17 
  5333.3828   2.35224e-17 
  5335.5835   2.58588e-17 
  5337.7837   2.10974e-17 
  5339.9839   2.48565e-17 
  5342.1836   2.06162e-17 
  5344.3838   2.46159e-17 
   5346.584   2.66596e-17 
  5348.7842   2.60156e-17 
  5350.9839   2.69004e-17 
  5353.1841   2.77409e-17 
  5355.3838   2.50125e-17 
  5357.5835   2.94789e-17 
  5359.7832    2.6034e-17 
  5361.9829   2.41114e-17 
  5364.1826    2.3968e-17 
  5366.3823   2.27729e-17 
   5368.582   2.41069e-17 
  5370.7817   2.55339e-17 
   5372.981   3.08154e-17 
  5375.1807   2.73137e-17 
  5377.3799    2.9242e-17 
  5379.5791   2.58701e-17 
  5381.7783   2.88693e-17 
  5383.9775   2.65662e-17 
  5386.1768   2.62034e-17 
   5388.376   2.86238e-17 
  5390.5752   2.72643e-17 
  5392.7739   2.96812e-17 
  5394.9731   3.01022e-17 
  5397.1719   2.59309e-17 
  5399.3706   2.98235e-17 
  5401.5698   2.90431e-17 
  5403.7681   2.49005e-17 
  5405.9668   2.67004e-17 
  5408.1655   2.46315e-17 
  5410.3643   2.81557e-17 
  5412.5625   2.45465e-17 
  5414.7612   3.16661e-17 
  5416.9595   2.93507e-17 
  5419.1577   2.96191e-17 
   5421.356   2.68715e-17 
  5423.5542   2.22137e-17 
  5425.7524   2.68414e-17 
  5427.9507    2.8308e-17 
  5430.1484   3.19075e-17 
  5432.3467   2.83001e-17 
  5434.5444   2.59295e-17 
  5436.7422   2.96635e-17 
  5438.9399   2.80993e-17 
  5441.1377   2.86488e-17 
  5443.3354   2.80394e-17 
  5445.5327   2.76816e-17 
  5447.7305   2.66229e-17 
  5449.9277   2.59013e-17 
   5452.125   2.86009e-17 
  5454.3223   2.85333e-17 
  5456.5195   2.80472e-17 
  5458.7168   2.77339e-17 
  5460.9141   2.65884e-17 
  5463.1108   2.87626e-17 
  5465.3081   2.95087e-17 
  5467.5049    2.6446e-17 
  5469.7017   2.54873e-17 
  5471.8984   2.82507e-17 
  5474.0952   2.96788e-17 
  5476.2915   2.81991e-17 
  5478.4883   2.70502e-17 
  5480.6846   2.83004e-17 
  5482.8809   2.77525e-17 
  5485.0776   2.43072e-17 
  5487.2734   2.86966e-17 
  5489.4697    2.8086e-17 
   5491.666    2.8331e-17 
  5493.8618   2.80157e-17 
  5496.0576    3.0045e-17 
  5498.2539   2.85471e-17 
  5500.4497   2.86184e-17 
   5502.645   3.04581e-17 
  5504.8408    2.6415e-17 
  5507.0361   2.58137e-17 
  5509.2319   2.98279e-17 
  5511.4272   2.53576e-17 
  5513.6226   2.94287e-17 
  5515.8179   2.58383e-17 
  5518.0127   2.81709e-17 
   5520.208   2.76294e-17 
  5522.4028   2.84261e-17 
  5524.5977   2.97433e-17 
  5526.7925   2.65084e-17 
  5528.9873   2.13634e-17 
  5531.1821   2.60583e-17 
  5533.3765   2.54743e-17 
  5535.5708   2.70401e-17 
  5537.7656   2.67872e-17 
  5539.9595   2.69108e-17 
  5542.1538   2.80543e-17 
  5544.3481   2.18674e-17 
   5546.542   2.46908e-17 
  5548.7363   2.74891e-17 
  5550.9297   2.46799e-17 
  5553.1235   2.59741e-17 
  5555.3174   2.91473e-17 
  5557.5112   2.74301e-17 
  5559.7046    2.3691e-17 
  5561.8979   2.37528e-17 
  5564.0913   2.68303e-17 
  5566.2847    2.6345e-17 
  5568.4775   2.60132e-17 
  5570.6709   3.07699e-17 
  5572.8638   2.59694e-17 
  5575.0566   2.40097e-17 
   5577.249    1.6126e-17 
  5579.4419   1.48715e-17 
  5581.6343   1.54938e-17 
  5583.8271   3.43585e-17 
  5586.0195   2.96568e-17 
  5588.2114   3.01591e-17 
  5590.4038   1.72336e-17 
  5592.5957   1.95192e-17 
  5594.7881   2.74027e-17 
    5596.98   2.77018e-17 
  5599.1714   3.45415e-17 
  5601.3633   2.54936e-17 
  5603.5547   2.64186e-17 
  5605.7466   2.15063e-17 
   5607.938   2.25139e-17 
  5610.1289   3.09599e-17 
  5612.3203   2.97061e-17 
  5614.5112   2.78566e-17 
  5616.7021    2.8427e-17 
  5618.8931   2.29844e-17 
   5621.084   2.48211e-17 
  5623.2749   2.50158e-17 
  5625.4653   2.65232e-17 
  5627.6558   2.32554e-17 
  5629.8462   2.42668e-17 
  5632.0361   2.90357e-17 
  5634.2266   2.13757e-17 
  5636.4165   2.66316e-17 
  5638.6064   3.11943e-17 
  5640.7964   2.26343e-17 
  5642.9858   2.70436e-17 
  5645.1753    2.6744e-17 
  5647.3652   2.24115e-17 
  5647.8701   3.22441e-17 
  5649.0146   2.97209e-17 
  5650.1587   2.76919e-17 
  5651.3032   2.07565e-17 
  5652.4478   2.72476e-17 
  5653.5918   2.57832e-17 
  5654.7363   2.32128e-17 
  5655.8809   1.66922e-17 
  5657.0254   2.84222e-17 
  5658.1699   2.58429e-17 
  5659.3149   2.64924e-17 
  5660.4595   2.66089e-17 
   5661.604    2.9047e-17 
   5662.749   2.30732e-17 
  5663.8936   2.49825e-17 
  5665.0386   1.82188e-17 
  5666.1831   2.64647e-17 
  5667.3281   2.12887e-17 
  5668.4731    2.1257e-17 
  5669.6182     2.972e-17 
  5670.7632   2.47358e-17 
  5671.9082   2.56436e-17 
  5673.0532   2.73881e-17 
  5674.1982   2.78138e-17 
  5675.3438    3.1232e-17 
  5676.4888   3.16138e-17 
  5677.6338    3.0421e-17 
  5678.7793   2.82024e-17 
  5679.9248    3.0787e-17 
  5681.0698   2.03137e-17 
  5682.2153   2.84782e-17 
  5683.3608   1.95732e-17 
  5684.5063   2.57949e-17 
  5685.6519   2.93757e-17 
  5686.7974   2.07077e-17 
  5687.9429   2.89329e-17 
  5689.0884   2.47974e-17 
  5690.2344   2.07294e-17 
  5691.3799   2.43349e-17 
  5692.5259   3.38073e-17 
  5693.6714   3.66253e-17 
  5694.8174    2.6162e-17 
  5695.9634   2.41207e-17 
  5697.1089   3.09977e-17 
  5698.2549   2.59571e-17 
  5699.4009   2.63218e-17 
  5700.5469   2.97166e-17 
  5701.6929   2.76876e-17 
  5702.8394   2.63993e-17 
  5703.9854   2.00021e-17 
  5705.1313   2.13471e-17 
  5706.2778   2.71651e-17 
  5707.4238   2.33718e-17 
  5708.5703   2.76483e-17 
  5709.7168   1.98349e-17 
  5710.8628   2.50143e-17 
  5712.0093   2.81452e-17 
  5713.1558   2.53959e-17 
  5714.3022   2.07233e-17 
  5715.4487   2.49709e-17 
  5716.5952   2.62184e-17 
  5717.7422   1.71134e-17 
  5718.8887   2.80054e-17 
  5720.0352   2.36281e-17 
  5721.1821   2.23635e-17 
  5722.3286   2.28008e-17 
  5723.4756   2.24763e-17 
  5724.6226   2.23871e-17 
  5725.7695   2.61943e-17 
   5726.916    2.2803e-17 
   5728.063   2.70454e-17 
    5729.21   1.84069e-17 
  5730.3574    2.2246e-17 
  5731.5044   2.57083e-17 
  5732.6514   2.95169e-17 
  5733.7983   2.23355e-17 
  5734.9458   2.85048e-17 
  5736.0928   2.61379e-17 
  5737.2402   2.58238e-17 
  5738.3877   2.06203e-17 
  5739.5347   1.78807e-17 
  5740.6821   2.72888e-17 
  5741.8296   2.01461e-17 
  5742.9771   2.44746e-17 
  5744.1245   2.27864e-17 
   5745.272   1.65908e-17 
  5746.4194   2.52823e-17 
  5747.5674   2.53381e-17 
  5748.7148   2.18034e-17 
  5749.8623   3.21068e-17 
  5751.0103   3.19666e-17 
  5752.1582   2.88911e-17 
  5753.3057   2.82652e-17 
  5754.4536   3.00303e-17 
  5755.6016   2.67221e-17 
  5756.7495   2.68834e-17 
  5757.8975    2.2573e-17 
  5759.0454   2.82606e-17 
  5760.1934   2.56759e-17 
  5761.3413   2.39788e-17 
  5762.4897   2.62755e-17 
  5763.6377   2.35728e-17 
  5764.7861   2.36147e-17 
  5765.9341   2.74446e-17 
  5767.0825   2.16032e-17 
  5768.2305   2.62494e-17 
  5769.3789   2.57023e-17 
  5770.5273   3.01582e-17 
  5771.6758   1.99073e-17 
  5772.8242   2.59905e-17 
  5773.9727   2.36859e-17 
  5775.1216   2.77538e-17 
    5776.27   2.11225e-17 
  5777.4185   3.17744e-17 
  5778.5674   2.70672e-17 
  5779.7158   2.37014e-17 
  5780.8647   2.87926e-17 
  5782.0132   2.73004e-17 
  5783.1621   2.51995e-17 
   5784.311   2.33209e-17 
    5785.46   2.34974e-17 
  5786.6089   2.84917e-17 
  5787.7578   3.04429e-17 
  5788.9067   2.45095e-17 
  5790.0557   2.88443e-17 
  5791.2051   2.68072e-17 
   5792.354   2.74339e-17 
  5793.5029   2.59931e-17 
  5794.6523   2.88852e-17 
  5795.8013   2.88266e-17 
  5796.9507   2.67457e-17 
  5798.1001   2.70714e-17 
  5799.2495   2.48494e-17 
  5800.3989   2.54878e-17 
  5801.5483    3.1179e-17 
  5802.6978   3.01032e-17 
  5803.8472   3.09972e-17 
  5804.9966   2.81587e-17 
  5806.1465   2.61567e-17 
  5807.2959   2.55126e-17 
  5808.4458   2.80968e-17 
  5809.5952   2.87564e-17 
  5810.7451   3.09737e-17 
   5811.895   2.66929e-17 
  5813.0444   2.89762e-17 
  5814.1943   3.27235e-17 
  5815.3442   2.73818e-17 
  5816.4941    3.5174e-17 
   5817.644   3.10742e-17 
  5818.7944   2.83386e-17 
  5819.9443   3.32081e-17 
  5821.0942    2.9439e-17 
  5822.2446   2.67676e-17 
  5823.3945   2.67506e-17 
  5824.5449   2.91992e-17 
  5825.6948    2.9799e-17 
  5826.8452   2.78531e-17 
  5827.9956   3.04942e-17 
   5829.146   2.97357e-17 
  5830.2964   2.50933e-17 
  5831.4468   2.55756e-17 
  5832.5972   3.00151e-17 
  5833.7476   2.78558e-17 
  5834.8984   2.85341e-17 
  5836.0488   3.61875e-17 
  5837.1992   2.93802e-17 
  5838.3501   3.35274e-17 
  5839.5005   2.89682e-17 
  5840.6514   3.04932e-17 
  5841.8022   2.74328e-17 
  5842.9531   2.72924e-17 
   5844.104   2.86132e-17 
  5845.2549   3.39059e-17 
  5846.4058   3.14142e-17 
  5847.5566   2.68876e-17 
  5848.7075   3.19398e-17 
  5849.8584   2.58494e-17 
  5851.0098    3.2553e-17 
  5852.1606   2.81975e-17 
   5853.312    3.0255e-17 
  5854.4634   3.38065e-17 
  5855.6143   3.26434e-17 
  5856.7656   3.48002e-17 
   5857.917   3.16145e-17 
  5859.0684   2.89561e-17 
  5860.2197   3.05612e-17 
  5861.3711   3.21986e-17 
  5862.5225   2.71275e-17 
  5863.6743   3.56448e-17 
  5864.8257    3.4317e-17 
  5865.9771   2.77391e-17 
  5867.1289   3.20825e-17 
  5868.2803   3.31487e-17 
  5869.4321   3.11977e-17 
   5870.584   2.79786e-17 
  5871.7358   3.20392e-17 
  5872.8872   2.85864e-17 
  5874.0391   3.48723e-17 
  5875.1909   2.94656e-17 
  5876.3428   2.75302e-17 
  5877.4951   3.14224e-17 
   5878.647   2.61588e-17 
  5879.7988   3.33608e-17 
  5880.9512   2.27013e-17 
   5882.103   3.04909e-17 
  5883.2554   2.91083e-17 
  5884.4077   2.67935e-17 
  5885.5596   2.99923e-17 
  5886.7119   3.03094e-17 
  5887.8643   2.37643e-17 
  5889.0166   3.03544e-17 
  5890.1689   2.16561e-17 
  5891.3213   2.91927e-17 
  5892.4741   1.69184e-17 
  5893.6265   3.59716e-17 
  5894.7788   3.17693e-17 
  5895.9316   2.43264e-17 
   5897.084   2.64776e-17 
  5898.2368   2.75178e-17 
  5899.3892   2.77535e-17 
   5900.542   2.55085e-17 
  5901.6948   2.56199e-17 
  5902.8477   2.82835e-17 
  5904.0005    3.0409e-17 
  5905.1533   2.82082e-17 
  5906.3062   2.75451e-17 
   5907.459    2.5798e-17 
  5908.6123   2.75988e-17 
  5909.7651   3.41904e-17 
  5910.9185   3.01724e-17 
  5912.0713   3.39675e-17 
  5913.2246   2.90073e-17 
  5914.3779   2.79182e-17 
  5915.5308   2.32617e-17 
  5916.6841   2.73336e-17 
  5917.8374    2.8529e-17 
  5918.9907   3.21055e-17 
   5920.144   2.71949e-17 
  5921.2974   3.24496e-17 
  5922.4512   3.98823e-17 
  5923.6045   3.98369e-17 
  5924.7583   4.27659e-17 
  5925.9116   4.13601e-17 
  5927.0654    3.8271e-17 
  5928.2188   2.92397e-17 
  5929.3726   3.18025e-17 
  5930.5264   2.99547e-17 
  5931.6802   2.51354e-17 
   5932.834   2.96622e-17 
  5933.9878    2.4625e-17 
  5935.1416   2.60351e-17 
  5936.2954   2.64012e-17 
  5937.4492   3.03956e-17 
  5938.6035   3.10276e-17 
  5939.7573   2.67764e-17 
  5940.9111   2.01118e-17 
  5942.0654   2.67005e-17 
  5943.2197    2.6505e-17 
  5944.3735   3.84712e-17 
  5945.5278   2.67533e-17 
  5946.6821    3.1714e-17 
  5947.8364   2.60925e-17 
  5948.9907   2.71851e-17 
   5950.145   3.40062e-17 
  5951.2993   2.45854e-17 
  5952.4541   2.78485e-17 
  5953.6084   3.04413e-17 
  5954.7627   3.22416e-17 
  5955.9175   2.23674e-17 
  5957.0723   2.71876e-17 
  5958.2266   2.67956e-17 
  5959.3813   2.62848e-17 
  5960.5361   2.84511e-17 
  5961.6909   2.96603e-17 
  5962.8457   2.82726e-17 
  5964.0005     3.065e-17 
  5965.1553   2.91754e-17 
  5966.3101   2.11397e-17 
  5967.4648   2.74005e-17 
  5968.6201   2.29869e-17 
  5969.7749    3.4644e-17 
  5970.9302   2.48456e-17 
   5972.085    3.1184e-17 
  5973.2402   2.95401e-17 
  5974.3955   2.96492e-17 
  5975.5508   2.72513e-17 
  5976.7056   2.53725e-17 
  5977.8613   3.08564e-17 
  5979.0166    2.5457e-17 
  5980.1719   3.15032e-17 
  5981.3271    3.2835e-17 
  5982.4824    2.3467e-17 
  5983.6382   2.48381e-17 
  5984.7935   2.60375e-17 
  5985.9492   2.67406e-17 
  5987.1045   2.72182e-17 
  5988.2603   2.97561e-17 
   5989.416   2.93807e-17 
  5990.5713   2.83761e-17 
  5991.7271   2.97845e-17 
  5992.8828   2.83957e-17 
  5994.0386   2.62138e-17 
  5995.1948   3.08587e-17 
  5996.3506   2.26706e-17 
  5997.5063   3.04584e-17 
  5998.6621   2.37605e-17 
  5999.8184   2.79557e-17 
  6000.9741   2.33219e-17 
  6002.1304   2.38844e-17 
  6003.2866   3.31277e-17 
  6004.4424   2.80216e-17 
  6005.5986   2.33231e-17 
  6006.7549   2.31294e-17 
  6007.9111   2.53307e-17 
  6009.0674   3.11201e-17 
  6010.2236   2.63098e-17 
  6011.3804   2.69201e-17 
  6012.5366   2.38091e-17 
  6013.6929   2.83628e-17 
  6014.8496   2.34282e-17 
  6016.0059   2.25418e-17 
  6017.1626   2.53953e-17 
  6018.3193   2.13555e-17 
  6019.4756   2.54045e-17 
  6020.6323   2.69412e-17 
  6021.7891   2.31925e-17 
  6022.9458   2.71788e-17 
  6024.1025   2.92497e-17 
  6025.2593   2.56653e-17 
  6026.4165   2.81457e-17 
  6027.5732   2.91395e-17 
    6028.73   2.34854e-17 
  6029.8872   2.67629e-17 
  6031.0439   2.02785e-17 
  6032.2012   2.47386e-17 
  6033.3584    2.7797e-17 
  6034.5151    2.4448e-17 
  6035.6724   2.94835e-17 
  6036.8296   2.55674e-17 
  6037.9868   2.78865e-17 
   6039.144    2.7878e-17 
  6040.3013   2.38432e-17 
  6041.4585   2.85569e-17 
  6042.6162   2.07572e-17 
  6043.7734   2.72487e-17 
  6044.9312   2.37599e-17 
  6046.0884   2.50408e-17 
  6047.2461   2.66262e-17 
  6048.4033   2.54573e-17 
   6049.561   2.57422e-17 
  6050.7188    2.4029e-17 
  6051.8765   2.32714e-17 
  6053.0342   2.28098e-17 
  6054.1919   3.02939e-17 
  6055.3496   2.60129e-17 
  6056.5073   2.22464e-17 
  6057.6655   2.26838e-17 
  6058.8232   2.49959e-17 
   6059.981   3.10751e-17 
  6061.1392   2.66324e-17 
  6062.2974   3.09205e-17 
  6063.4551   2.78011e-17 
  6064.6133   2.23013e-17 
  6065.7715   2.60875e-17 
  6066.9297     2.687e-17 
  6068.0879   2.74168e-17 
  6069.2461    2.8378e-17 
  6070.4043   2.50927e-17 
  6071.5625   2.74802e-17 
  6072.7207   2.26793e-17 
  6073.8794   2.88789e-17 
  6075.0376   2.80824e-17 
  6076.1963   2.41537e-17 
  6077.3545   2.74251e-17 
  6078.5132   2.65219e-17 
  6079.6719   2.98235e-17 
  6080.8306   2.73494e-17 
  6081.9888   2.91065e-17 
  6083.1475   2.47641e-17 
  6084.3066   2.62368e-17 
  6085.4653   2.57538e-17 
   6086.624    2.3879e-17 
  6087.7827   2.46694e-17 
  6088.9414   2.51463e-17 
  6090.1006   2.68485e-17 
  6091.2593   2.48084e-17 
  6092.4185   2.83215e-17 
  6093.5776   2.63973e-17 
  6094.7363   2.52587e-17 
  6095.8955   2.83543e-17 
  6097.0547   2.84466e-17 
  6098.2139   2.90692e-17 
   6099.373   2.34866e-17 
  6100.5322   2.60067e-17 
  6101.6914   3.08409e-17 
  6102.8511   2.73587e-17 
  6104.0103   2.80431e-17 
  6105.1694   2.65869e-17 
  6106.3291   2.48953e-17 
  6107.4883   2.39723e-17 
  6108.6479   2.63066e-17 
  6109.8076   2.76901e-17 
  6110.9673   2.48014e-17 
  6112.1265   2.79336e-17 
  6113.2861    2.7581e-17 
  6114.4458   2.55858e-17 
  6115.6055   2.62358e-17 
  6116.7656   2.52538e-17 
  6117.9253   2.63213e-17 
   6119.085   2.91758e-17 
  6120.2451   2.52196e-17 
  6121.4048   2.56164e-17 
  6122.5649   2.16712e-17 
  6123.7246   2.63848e-17 
  6124.8848   2.26959e-17 
  6126.0449   2.43976e-17 
  6127.2051    2.3008e-17 
  6128.3652   2.18955e-17 
  6129.5254    2.3938e-17 
  6130.6855   2.36315e-17 
  6131.8457    3.0154e-17 
  6133.0059   2.70833e-17 
   6134.166   2.83851e-17 
  6135.3267   2.90801e-17 
  6136.4868    2.7252e-17 
  6137.6475   2.31948e-17 
  6138.8076   2.36451e-17 
  6139.9683   2.81162e-17 
  6141.1289   2.00962e-17 
  6142.2896   2.97404e-17 
  6143.4502   2.87134e-17 
  6144.6108   3.02327e-17 
  6145.7715    2.9176e-17 
  6146.9321   2.35057e-17 
  6148.0928   2.80664e-17 
  6149.2534    2.5277e-17 
  6150.4141   2.57844e-17 
  6151.5752   2.52642e-17 
  6152.7363   2.98309e-17 
   6153.897   2.60674e-17 
  6155.0581   2.78507e-17 
  6156.2192   2.93895e-17 
  6157.3799   2.20624e-17 
   6158.541    2.8086e-17 
  6159.7021   3.31657e-17 
  6160.8633   2.88668e-17 
  6162.0244   3.12281e-17 
   6163.186   2.87386e-17 
  6164.3472   2.87577e-17 
  6165.5083   2.86346e-17 
  6166.6699   2.82229e-17 
  6167.8311   2.72374e-17 
  6168.9922   2.53177e-17 
  6170.1538   2.29465e-17 
  6171.3154   2.44785e-17 
  6172.4771   2.64577e-17 
  6173.6382   2.46462e-17 
  6174.7998   2.87715e-17 
  6175.9614   2.81876e-17 
  6177.1235   2.14929e-17 
  6178.2852   2.57278e-17 
  6179.4468   2.69571e-17 
  6180.6084   2.67084e-17 
  6181.7705   3.20009e-17 
  6182.9321   2.81701e-17 
  6184.0942   2.72272e-17 
  6185.2559   2.61046e-17 
   6186.418   2.86942e-17 
  6187.5801    2.3661e-17 
  6188.7417   2.89075e-17 
  6189.9038   2.76031e-17 
  6191.0659   2.21795e-17 
   6192.228   2.93326e-17 
  6193.3906   3.28416e-17 
  6194.5527   3.15985e-17 
  6195.7148     2.716e-17 
   6196.877   2.62834e-17 
  6198.0396    2.8897e-17 
  6199.2017   2.91701e-17 
  6200.3643   2.62314e-17 
  6201.5264   2.74374e-17 
   6202.689   3.02662e-17 
  6203.8516   2.15506e-17 
  6205.0142   3.11243e-17 
  6206.1768   2.72218e-17 
  6207.3394   2.44365e-17 
   6208.502   2.70751e-17 
  6209.6646   2.97485e-17 
  6210.8271   2.41525e-17 
  6211.9902   3.27615e-17 
  6213.1528   2.36399e-17 
  6214.3154   2.72105e-17 
  6215.4785   2.46223e-17 
  6216.6416   2.97319e-17 
  6217.8042   3.44823e-17 
  6218.9673   2.62812e-17 
  6220.1304   2.84234e-17 
  6221.2935   3.33861e-17 
  6222.4565   2.93522e-17 
  6223.6196   2.75103e-17 
  6224.7827   2.65333e-17 
  6225.9458   2.53559e-17 
  6227.1089   2.85225e-17 
  6228.2725     2.656e-17 
  6229.4355   2.64032e-17 
  6230.5991   2.80478e-17 
  6231.7622   2.70274e-17 
  6232.9258   3.01785e-17 
  6234.0894   3.54708e-17 
  6235.2524   2.93895e-17 
   6236.416   3.02454e-17 
  6237.5796   2.67207e-17 
  6238.7432    2.7942e-17 
  6239.9067   2.87534e-17 
  6241.0703   3.48879e-17 
  6242.2344   2.81605e-17 
  6243.3979   3.05653e-17 
  6244.5615   2.51598e-17 
  6245.7256   2.82829e-17 
  6246.8892   2.67131e-17 
  6248.0532   3.13006e-17 
  6249.2173   2.87779e-17 
  6250.3809   3.01097e-17 
  6251.5449   2.75234e-17 
   6252.709   2.74996e-17 
   6253.873   3.04333e-17 
  6255.0371   3.02718e-17 
  6256.2012   3.34449e-17 
  6257.3652   3.43841e-17 
  6258.5298   2.74061e-17 
  6259.6938   3.45463e-17 
  6260.8579   3.47444e-17 
  6262.0225   2.80786e-17 
  6263.1865   3.47277e-17 
  6264.3511   2.63598e-17 
  6265.5156   2.64767e-17 
  6266.6797   3.04777e-17 
  6267.8442   2.95867e-17 
  6269.0088   2.99616e-17 
  6270.1733   3.27377e-17 
  6271.3379   3.02946e-17 
  6272.5029   2.66763e-17 
  6273.6675   2.52442e-17 
   6274.832   3.65372e-17 
  6275.9966   2.73324e-17 
  6277.1616   2.57133e-17 
  6278.3262   2.56482e-17 
  6279.4912   2.67806e-17 
  6280.6558    2.7145e-17 
  6281.8208   2.85307e-17 
  6282.9858   2.88645e-17 
  6284.1509   2.81044e-17 
  6285.3159   2.70275e-17 
   6286.481   2.93979e-17 
   6287.646   2.80675e-17 
   6288.811   3.14937e-17 
  6289.9761   3.06185e-17 
  6291.1416   3.31826e-17 
  6292.3066   2.99936e-17 
  6293.4717   3.48424e-17 
  6294.6372    2.4202e-17 
  6295.8027   2.78561e-17 
  6296.9678   2.80964e-17 
  6298.1333   2.98559e-17 
  6299.2988   3.53733e-17 
  6300.4644   2.85601e-17 
  6301.6299   2.35289e-17 
  6302.7954   3.59581e-17 
  6303.9609   3.25678e-17 
  6305.1265   3.46934e-17 
   6306.292   2.59348e-17 
   6307.458   2.93279e-17 
  6308.6235   2.79469e-17 
  6309.7891   3.07418e-17 
  6310.9551   2.94244e-17 
  6312.1206    2.7355e-17 
  6313.2866   2.96748e-17 
  6314.4526   3.10735e-17 
  6315.6187   2.77327e-17 
  6316.7847   2.94848e-17 
  6317.9507   2.92352e-17 
  6319.1167   2.72156e-17 
  6320.2827   3.02729e-17 
  6321.4487    2.7741e-17 
  6322.6147   2.89739e-17 
  6323.7808   3.01389e-17 
  6324.9473   3.08188e-17 
  6326.1133   2.86296e-17 
  6327.2798   3.03753e-17 
  6328.4463   3.02963e-17 
  6329.6123   2.76475e-17 
  6330.7788   3.21362e-17 
  6331.9453   2.80059e-17 
  6333.1118   3.00966e-17 
  6334.2783   3.16664e-17 
  6335.4448   3.08058e-17 
  6336.6113    3.0204e-17 
  6337.7778   2.92272e-17 
  6338.9443   3.27762e-17 
  6340.1113   3.09686e-17 
  6341.2778   3.17536e-17 
  6342.4448   2.78001e-17 
  6343.6113   2.91788e-17 
  6344.7783   3.18691e-17 
  6345.9448   2.69846e-17 
  6347.1118   3.07799e-17 
  6348.2788   2.76825e-17 
  6349.4458   2.87202e-17 
  6350.6128   2.97875e-17 
  6351.7798   3.05086e-17 
  6352.9468   3.15547e-17 
  6354.1138   2.94795e-17 
  6355.2808   3.02357e-17 
  6356.4482   3.19145e-17 
  6357.6152   2.76082e-17 
  6358.7827   2.82176e-17 
  6359.9497   2.89071e-17 
  6361.1172    2.8564e-17 
  6362.2847   3.01913e-17 
  6363.4517   3.16159e-17 
  6364.6191   2.90372e-17 
  6365.7866   3.49518e-17 
  6366.9541   3.38496e-17 
  6368.1216   2.95859e-17 
  6369.2891   3.17055e-17 
   6370.457   3.08282e-17 
  6371.6245   2.88612e-17 
   6372.792   2.94597e-17 
  6373.9595   3.37473e-17 
  6375.1274   2.95871e-17 
  6376.2954   3.20135e-17 
  6377.4629   2.95229e-17 
  6378.6309   2.65706e-17 
  6379.7988   2.99477e-17 
  6380.9663   2.61297e-17 
  6382.1343   3.29132e-17 
  6383.3022    2.5893e-17 
  6384.4702   3.11908e-17 
  6385.6382   2.70522e-17 
  6386.8066    2.8611e-17 
  6387.9746   2.73976e-17 
  6389.1426   2.99738e-17 
   6390.311   3.21244e-17 
   6391.479   2.79582e-17 
   6392.647   2.92646e-17 
  6393.8154    2.5108e-17 
  6394.9839   2.89896e-17 
  6396.1523   2.81587e-17 
  6397.3203   3.10062e-17 
  6398.4888   3.14631e-17 
  6399.6572   2.91234e-17 
  6400.8257   3.09653e-17 
  6401.9941   2.75077e-17 
  6403.1631   2.73131e-17 
  6404.3315   2.67396e-17 
     6405.5   3.65402e-17 
  6406.6685   3.05713e-17 
  6407.8374   2.71842e-17 
  6409.0059   2.64287e-17 
  6410.1748   3.17336e-17 
  6411.3438   3.26115e-17 
  6412.5122   2.90318e-17 
  6413.6812   3.25176e-17 
  6414.8501   3.06555e-17 
   6416.019   3.35322e-17 
   6417.188   2.94699e-17 
  6418.3569   2.99229e-17 
  6419.5259   3.50636e-17 
  6420.6953   3.42403e-17 
  6421.8643   3.21622e-17 
  6423.0332   2.69177e-17 
  6424.2026   2.82561e-17 
  6425.3716   3.35031e-17 
   6426.541   3.16185e-17 
    6427.71   3.10302e-17 
  6428.8794   3.43812e-17 
  6430.0488   2.94878e-17 
  6431.2183   3.07033e-17 
  6432.3877    2.9844e-17 
  6433.5571   3.33361e-17 
  6434.7266   3.22146e-17 
   6435.896   2.99312e-17 
  6437.0654   3.20789e-17 
  6438.2349   3.23322e-17 
  6439.4048   2.72291e-17 
  6440.5742   3.40364e-17 
  6441.7441   3.24815e-17 
  6442.9136   3.14184e-17 
  6444.0835   3.10881e-17 
  6445.2529   3.25395e-17 
  6446.4229   3.10282e-17 
  6447.5928   2.92079e-17 
  6448.7627   3.89769e-17 
  6449.9326   3.17965e-17 
  6451.1025   3.31764e-17 
  6452.2725   3.29066e-17 
  6453.4424   3.13862e-17 
  6454.6123   2.89506e-17 
  6455.7827   3.46725e-17 
  6456.9526    2.8567e-17 
  6458.1226   2.95101e-17 
   6459.293   3.03565e-17 
  6460.4634   3.76137e-17 
  6461.6333   3.01888e-17 
  6462.8037   3.43015e-17 
  6463.9741   3.80395e-17 
  6465.1445   2.82386e-17 
  6466.3149   2.93441e-17 
  6467.4854   3.03053e-17 
  6468.6558   2.85763e-17 
  6469.8262   3.34078e-17 
  6470.9966   3.06857e-17 
   6472.167    3.2416e-17 
  6473.3379   3.07661e-17 
  6474.5083   3.11099e-17 
  6475.6792   2.55815e-17 
  6476.8496   3.08622e-17 
  6478.0205   3.15037e-17 
  6479.1909   3.40429e-17 
  6480.3618   2.73373e-17 
  6481.5327   2.95349e-17 
  6482.7036   3.30764e-17 
  6483.8745   3.00297e-17 
  6485.0454   2.86646e-17 
  6486.2163   3.15122e-17 
  6487.3872    3.5378e-17 
  6488.5581   3.37119e-17 
  6489.7295   3.08089e-17 
  6490.9004   2.96598e-17 
  6492.0718   3.13347e-17 
  6493.2427   3.14934e-17 
  6494.4141   3.13779e-17 
   6495.585   2.81274e-17 
  6496.7563   3.16118e-17 
  6497.9277   3.23686e-17 
  6499.0991   3.22294e-17 
  6500.2705   3.41355e-17 
  6501.4419   3.02196e-17 
  6502.6133   2.74666e-17 
  6503.7847   2.81834e-17 
  6504.9561     2.949e-17 
  6506.1274   3.21542e-17 
  6507.2993   2.55223e-17 
  6508.4707   3.16455e-17 
  6509.6421   2.97633e-17 
   6510.814   3.05243e-17 
  6511.9858   3.14213e-17 
  6513.1572   2.66875e-17 
  6514.3291   3.20311e-17 
   6515.501   2.99673e-17 
  6516.6729     2.861e-17 
  6517.8447   3.26272e-17 
  6519.0166   2.96104e-17 
  6520.1885   2.46578e-17 
  6521.3604   3.09444e-17 
  6522.5322   3.12386e-17 
  6523.7041   2.87283e-17 
  6524.8765   3.34276e-17 
  6526.0483    2.8401e-17 
  6527.2207    2.5897e-17 
  6528.3926   3.10507e-17 
  6529.5649   2.92172e-17 
  6530.7373   3.19506e-17 
  6531.9092   2.89879e-17 
  6533.0815   2.83232e-17 
  6534.2539   2.94042e-17 
  6535.4263   2.92868e-17 
  6536.5986   3.21807e-17 
   6537.771   3.17249e-17 
  6538.9434   3.30803e-17 
  6540.1157   3.00014e-17 
  6541.2886   2.93099e-17 
  6542.4609   2.81946e-17 
  6543.6338   3.32049e-17 
  6544.8062   3.14405e-17 
   6545.979   2.87748e-17 
  6547.1514   3.24643e-17 
  6548.3242    3.4708e-17 
  6549.4971   2.88507e-17 
  6550.6699   3.28203e-17 
  6551.8423   2.95915e-17 
  6553.0151   3.37886e-17 
   6554.188   3.07711e-17 
  6555.3613   3.41396e-17 
  6556.5342   3.34965e-17 
   6557.707   2.73827e-17 
  6558.8799    3.1527e-17 
  6560.0532   2.95766e-17 
  6561.2261   2.80323e-17 
  6562.3994   2.70724e-17 
  6563.5723   3.48551e-17 
  6564.7456   3.25846e-17 
  6565.9185   3.06052e-17 
  6567.0918   2.99651e-17 
  6568.2651    3.0278e-17 
  6569.4385    3.2996e-17 
  6570.6118   3.13517e-17 
  6571.7852   3.29819e-17 
  6572.9585    3.0092e-17 
  6574.1318    3.2518e-17 
  6575.3052   2.99154e-17 
   6576.479   3.54672e-17 
  6577.6523   2.90111e-17 
  6578.8257   3.74292e-17 
  6579.9995   2.89433e-17 
  6581.1733   3.18907e-17 
  6582.3467   3.70439e-17 
  6583.5205    3.1416e-17 
  6584.6943   3.42405e-17 
  6585.8677    4.4734e-17 
  6587.0415   3.24259e-17 
  6588.2153   2.84916e-17 
  6589.3892   2.86491e-17 
   6590.563   3.01856e-17 
  6591.7373   2.88851e-17 
  6592.9111   2.76847e-17 
   6594.085   2.92229e-17 
  6595.2588   3.29637e-17 
  6596.4331   3.06561e-17 
  6597.6069   3.14527e-17 
  6598.7812   3.34568e-17 
  6599.9551   3.11885e-17 
  6601.1294   2.90035e-17 
  6602.3037   2.84635e-17 
   6603.478   2.67644e-17 
  6604.6523   2.79717e-17 
  6605.8267   3.20513e-17 
   6607.001   2.85006e-17 
  6608.1753   3.25717e-17 
  6609.3496   3.38599e-17 
  6610.5239   3.16743e-17 
  6611.6982   2.86521e-17 
   6612.873   3.11894e-17 
  6614.0474   2.75402e-17 
  6615.2222    2.9251e-17 
  6616.3965   2.79907e-17 
  6617.5713   2.73824e-17 
  6618.7456   3.30208e-17 
  6619.9204   2.81422e-17 
  6621.0952   2.98282e-17 
    6622.27   3.02321e-17 
  6623.4448   3.33724e-17 
  6624.6196   2.80347e-17 
  6625.7944   3.16091e-17 
  6626.9692   3.21923e-17 
   6628.144   2.92464e-17 
  6629.3188   2.91545e-17 
  6630.4941   3.16599e-17 
  6631.6689   2.97467e-17 
  6632.8442   2.97714e-17 
   6634.019   2.89673e-17 
  6635.1943   2.83555e-17 
  6636.3691   3.05151e-17 
  6637.5444   3.10859e-17 
  6638.7197    3.1592e-17 
   6639.895   3.08335e-17 
  6641.0703   3.03295e-17 
  6642.2451   2.84709e-17 
  6643.4204   2.81182e-17 
  6644.5962   3.09438e-17 
  6645.7715   2.69746e-17 
  6646.9468   2.49081e-17 
  6648.1221   2.62583e-17 
  6649.2979   2.72839e-17 
  6650.4731   2.91034e-17 
  6651.6489   2.87273e-17 
  6652.8242   2.74056e-17 
     6654.0   2.76768e-17 
  6655.1753   3.08751e-17 
  6656.3511   2.59379e-17 
  6657.5269   2.73655e-17 
  6658.7026   2.89381e-17 
  6659.8784   3.29334e-17 
  6661.0542   2.53101e-17 
    6662.23   2.56419e-17 
  6663.4058   3.10682e-17 
  6664.5815   2.91642e-17 
  6665.7573   2.58627e-17 
  6666.9336   2.76224e-17 
  6668.1094   2.47259e-17 
  6669.2852   2.94035e-17 
  6670.4614   2.74999e-17 
  6671.6377   2.82358e-17 
  6672.8135   2.62072e-17 
  6673.9897    2.6471e-17 
   6675.166   2.91648e-17 
  6676.3423   2.92305e-17 
  6677.5181   2.46035e-17 
  6678.6948   2.74947e-17 
  6679.8706   2.50645e-17 
  6681.0469   2.63848e-17 
  6682.2236   2.50869e-17 
  6683.3999   2.80693e-17 
  6684.5762   2.28482e-17 
  6685.7529   2.45496e-17 
  6686.9292   2.35583e-17 
  6688.1055   2.42309e-17 
  6689.2822   2.42022e-17 
   6690.459   2.23578e-17 
  6691.6353   1.90395e-17 
   6692.812   2.03793e-17 
  6693.9888   2.30787e-17 
  6695.1655   2.20888e-17 
  6696.3418   2.14375e-17 
   6697.519   2.19563e-17 
  6698.6958   2.11986e-17 
  6699.8726   2.40067e-17 
  6701.0493   2.58561e-17 
  6702.2261   2.16107e-17 
  6703.4028   1.62784e-17 
  6704.5801   1.97442e-17 
  6705.7568   2.32135e-17 
  6706.9341   2.02154e-17 
  6708.1108   2.02725e-17 
  6709.2881   2.18841e-17 
  6710.4648   1.97341e-17 
  6711.6421   2.06488e-17 
  6712.8193   2.12394e-17 
  6713.9966    2.3909e-17 
  6715.1738   2.30487e-17 
  6716.3511    2.5119e-17 
  6717.5283     2.242e-17 
  6718.7056   2.29368e-17 
  6719.8828   2.06173e-17 
  6721.0601   2.18174e-17 
  6722.2378   1.61198e-17 
   6723.415   2.42786e-17 
  6724.5923   2.07446e-17 
    6725.77   2.32934e-17 
  6726.9473   1.81607e-17 
   6728.125   2.03612e-17 
  6729.3027   2.16501e-17 
    6730.48   2.05488e-17 
  6731.6577   2.46439e-17 
  6732.8354   2.24721e-17 
  6734.0132   2.08375e-17 
  6735.1909   2.10596e-17 
  6736.3687   2.02369e-17 
  6737.5464   2.18833e-17 
  6738.7241    2.0969e-17 
  6739.9023   2.08012e-17 
  6741.0801   2.17234e-17 
  6742.2578   2.06962e-17 
   6743.436   2.44549e-17 
  6744.6138   2.11555e-17 
   6745.792   1.86348e-17 
  6746.9697   2.23084e-17 
  6748.1479   2.26304e-17 
  6749.3262   2.30827e-17 
  6750.5039   2.39386e-17 
  6751.6821   2.30412e-17 
  6752.8604   2.18008e-17 
  6754.0386   2.42348e-17 
  6755.2168   2.05077e-17 
   6756.395   2.15739e-17 
  6757.5737   2.29117e-17 
   6758.752   1.91249e-17 
  6759.9302   2.12005e-17 
  6761.1084   2.28777e-17 
  6762.2871   2.21818e-17 
  6763.4653   2.54232e-17 
   6764.644   2.41934e-17 
  6765.8223    2.3697e-17 
   6767.001   2.37499e-17 
  6768.1797   2.46461e-17 
  6769.3584    2.2909e-17 
  6770.5366   2.62936e-17 
  6771.7153     1.985e-17 
   6772.894   2.43922e-17 
  6774.0728   2.49051e-17 
  6775.2515   2.26674e-17 
  6776.4302   2.68187e-17 
  6777.6094    2.1523e-17 
  6778.7881     2.263e-17 
  6779.9668   2.56538e-17 
   6781.146   2.33045e-17 
  6782.3247   2.14273e-17 
  6783.5039   2.55343e-17 
  6784.6826   2.42268e-17 
  6785.8618   2.37542e-17 
   6787.041   2.13673e-17 
  6788.2197   2.60199e-17 
  6789.3989   2.23388e-17 
  6790.5781   2.36111e-17 
  6791.7573    2.2174e-17 
  6792.9365   2.34956e-17 
  6794.1157   2.72893e-17 
  6795.2949   2.28437e-17 
  6796.4741   2.50083e-17 
  6797.6538   2.48625e-17 
   6798.833   2.53722e-17 
  6800.0122   2.60095e-17 
  6801.1919   2.36487e-17 
  6802.3711    2.4479e-17 
  6803.5508   2.49656e-17 
    6804.73    2.6672e-17 
  6805.9097   2.46372e-17 
  6807.0894   2.84473e-17 
   6808.269   2.83444e-17 
  6809.4482    2.4435e-17 
  6810.6279   2.67963e-17 
  6811.8076   2.76185e-17 
  6812.9873   2.65099e-17 
   6814.167   2.58022e-17 
  6815.3467   2.22787e-17 
  6816.5269   2.82601e-17 
  6817.7065   3.07131e-17 
  6818.8862   2.54749e-17 
  6820.0664   2.63095e-17 
  6821.2461    2.3157e-17 
  6822.4258    2.9491e-17 
   6823.606   2.60082e-17 
  6824.7861   2.41203e-17 
  6825.9658   2.41525e-17 
   6827.146   2.83902e-17 
  6828.3262   2.58714e-17 
  6829.5063   2.22407e-17 
  6830.6865   2.44662e-17 
  6831.8667   2.74719e-17 
  6833.0469   3.18211e-17 
  6834.2271   2.47342e-17 
  6835.4072   2.93193e-17 
  6836.5874   2.75682e-17 
  6837.7676   2.62804e-17 
  6838.9482   2.86072e-17 
  6840.1284   2.71207e-17 
  6841.3091   2.59941e-17 
  6842.4893   2.98217e-17 
  6843.6699   2.29502e-17 
  6844.8501   2.48822e-17 
  6846.0308   2.67531e-17 
  6847.2114   2.85072e-17 
  6848.3921   2.90401e-17 
  6849.5723   2.32072e-17 
  6850.7534   2.99234e-17 
  6851.9336   2.46193e-17 
  6853.1143   2.84767e-17 
  6854.2954   2.76535e-17 
  6855.4761    2.6735e-17 
  6856.6567   2.84881e-17 
  6857.8374   3.07876e-17 
  6859.0186   3.31593e-17 
  6860.1992   2.82907e-17 
  6861.3799   2.84842e-17 
   6862.561   3.41178e-17 
  6863.7422   3.35093e-17 
  6864.9229   3.20888e-17 
   6866.104   2.42662e-17 
  6867.2852   2.92744e-17 
  6868.4663   2.58969e-17 
   6869.647   2.78978e-17 
  6870.8281   3.41116e-17 
  6872.0093   2.75031e-17 
  6873.1904   3.21264e-17 
  6874.3716   2.99581e-17 
  6875.5532   2.84333e-17 
  6876.7344   2.41167e-17 
  6877.9155   2.92226e-17 
  6879.0967   2.55604e-17 
  6880.2783   2.62627e-17 
  6881.4595   2.70412e-17 
  6882.6411    2.8536e-17 
  6883.8223   2.67777e-17 
  6885.0039   2.94662e-17 
  6886.1855   2.80562e-17 
  6887.3667   3.39088e-17 
  6888.5483    2.9342e-17 
    6889.73   2.63269e-17 
  6890.9116   2.73859e-17 
  6892.0933   2.94557e-17 
  6893.2749   3.07301e-17 
  6894.4565   2.80424e-17 
  6895.6382   2.58967e-17 
  6896.8203   2.66538e-17 
   6898.002   3.27317e-17 
  6899.1836   2.78938e-17 
  6900.3657   2.94764e-17 
  6901.5474   2.73063e-17 
   6902.729   2.70436e-17 
  6903.9111    2.9315e-17 
  6905.0928   2.95416e-17 
  6906.2749   2.72019e-17 
   6907.457   2.76132e-17 
  6908.6392   2.97698e-17 
  6909.8213    2.7995e-17 
  6911.0034    3.2646e-17 
  6912.1851   3.08958e-17 
  6913.3672   2.95431e-17 
  6914.5498   2.64028e-17 
  6915.7319   3.05141e-17 
  6916.9141   2.57758e-17 
  6918.0962   3.05899e-17 
  6919.2783   2.78429e-17 
  6920.4609   2.97539e-17 
  6921.6431   2.51375e-17 
  6922.8257   2.65023e-17 
  6924.0078     2.494e-17 
  6925.1904   2.53163e-17 
  6926.3726   2.90318e-17 
  6927.5552   2.36961e-17 
  6928.7378   2.89329e-17 
  6929.9204   2.82624e-17 
   6931.103   2.93706e-17 
  6932.2852   3.07427e-17 
  6933.4678    2.5945e-17 
  6934.6504   3.06729e-17 
   6935.833   2.68517e-17 
  6937.0161   2.84642e-17 
  6938.1987   2.64635e-17 
  6939.3813   3.21587e-17 
   6940.564   2.49285e-17 
  6941.7471   2.58426e-17 
  6942.9297   2.64053e-17 
  6944.1128   2.27983e-17 
  6945.2954   3.03876e-17 
  6946.4785   2.77372e-17 
  6947.6616    3.1186e-17 
  6948.8442   2.96397e-17 
  6950.0273   3.21749e-17 
  6951.2104   2.80034e-17 
  6952.3936   3.16262e-17 
  6953.5767   2.82982e-17 
  6954.7598   2.62571e-17 
  6955.9429   2.67265e-17 
   6957.126   2.79048e-17 
  6958.3091   2.90005e-17 
  6959.4922   2.78045e-17 
  6960.6753   2.77513e-17 
  6961.8589   2.91214e-17 
   6963.042   2.68446e-17 
  6964.2256   2.89709e-17 
  6965.4087   2.41792e-17 
  6966.5923   2.62684e-17 
  6967.7754   2.89329e-17 
   6968.959   2.70743e-17 
  6970.1426   2.91897e-17 
  6971.3257   2.52502e-17 
  6972.5093   2.70967e-17 
  6973.6929   3.13751e-17 
  6974.8765   2.97647e-17 
  6976.0601   2.85429e-17 
  6977.2437   3.06792e-17 
  6978.4272   2.76279e-17 
  6979.6108   2.73674e-17 
  6980.7949    2.6341e-17 
  6981.9785   3.04939e-17 
  6983.1621   3.02978e-17 
  6984.3457   2.92636e-17 
  6985.5298   2.91747e-17 
  6986.7134   2.67656e-17 
  6987.8975   2.66212e-17 
  6989.0815   2.49516e-17 
  6990.2651   2.34113e-17 
  6991.4492   2.69973e-17 
  6992.6333    2.7047e-17 
  6993.8169   2.85459e-17 
   6995.001   2.64321e-17 
  6996.1851   2.98505e-17 
  6997.3691   2.74277e-17 
  6998.5532   2.67547e-17 
  6999.7373   2.81361e-17 
  7000.9219   2.73042e-17 
   7002.106   2.63144e-17 
    7003.29    2.8503e-17 
  7004.4741   2.74325e-17 
  7005.6587   3.20965e-17 
  7006.8428   2.87379e-17 
  7008.0273   2.71679e-17 
  7009.2114   2.62398e-17 
   7010.396   2.94144e-17 
  7011.5801   3.07973e-17 
  7012.7646   2.17298e-17 
  7013.9492   2.91265e-17 
  7015.1338   3.22112e-17 
  7016.3179   2.67868e-17 
  7017.5024   2.64198e-17 
   7018.687   2.75274e-17 
  7019.8716   2.91273e-17 
  7021.0566   2.84379e-17 
  7022.2412   2.60971e-17 
  7023.4258   2.66541e-17 
  7024.6104   2.56209e-17 
  7025.7949   2.53211e-17 
    7026.98   2.55549e-17 
  7028.1646   2.73082e-17 
  7029.3491   2.57712e-17 
  7030.5342   2.56662e-17 
  7031.7192   2.55065e-17 
  7032.9038   2.53464e-17 
  7034.0889   2.58544e-17 
  7035.2739   2.72721e-17 
  7036.4585   2.64024e-17 
  7037.6436   2.51612e-17 
  7038.8286   2.72878e-17 
  7040.0137   2.69143e-17 
  7041.1987   2.77633e-17 
  7042.3838   2.65078e-17 
  7043.5688   2.54089e-17 
  7044.7539   2.68126e-17 
   7045.939   2.74113e-17 
  7047.1245   2.71054e-17 
  7048.3096   2.70671e-17 
  7049.4946    2.3461e-17 
  7050.6802   2.35354e-17 
  7051.8652    2.5497e-17 
  7053.0508   2.51469e-17 
  7054.2358   2.68715e-17 
  7055.4214   2.53445e-17 
  7056.6064   2.44574e-17 
   7057.792   2.44338e-17 
  7058.9775   2.38537e-17 
  7060.1631   2.91988e-17 
  7061.3486   2.76163e-17 
  7062.5342   2.46647e-17 
  7063.7197   2.39322e-17 
  7064.9053   2.59824e-17 
  7066.0908   2.52569e-17 
  7067.2764   2.42011e-17 
  7068.4619   2.61363e-17 
  7069.6475   2.28861e-17 
  7070.8335    2.5662e-17 
   7072.019   2.49751e-17 
  7073.2046   2.25204e-17 
  7074.3906   2.60115e-17 
  7075.5762   2.43516e-17 
  7076.7622   2.32485e-17 
  7077.9482   2.42953e-17 
  7079.1338   2.15694e-17 
  7080.3198   2.35136e-17 
  7081.5059   2.42191e-17 
  7082.6919    2.6776e-17 
  7083.8774    2.2515e-17 
  7085.0635   2.44845e-17 
  7086.2495   2.69886e-17 
  7087.4355   2.51709e-17 
  7088.6216   2.36183e-17 
  7089.8081    2.6953e-17 
  7090.9941   2.55403e-17 
  7092.1802   2.96672e-17 
  7093.3662   2.65687e-17 
  7094.5527   2.32127e-17 
  7095.7388   2.37185e-17 
  7096.9248   2.33878e-17 
  7098.1113   2.61814e-17 
  7099.2974   2.37896e-17 
  7100.4839   2.33691e-17 
  7101.6704   2.41381e-17 
  7102.8569   2.79528e-17 
   7104.043   2.13437e-17 
  7105.2295   2.38163e-17 
   7106.416   2.55345e-17 
  7107.6025   2.93598e-17 
  7108.7891   2.46896e-17 
  7109.9756   2.52952e-17 
  7111.1621   2.42413e-17 
  7112.3486   2.63904e-17 
  7113.5352    2.3284e-17 
  7114.7217   2.48148e-17 
  7115.9087   2.19119e-17 
  7117.0952   2.36073e-17 
  7118.2817    2.2646e-17 
  7119.4688   2.50756e-17 
  7120.6553    2.5518e-17 
  7121.8423   2.21259e-17 
  7123.0288   2.51042e-17 
  7124.2158   2.24435e-17 
  7125.4028   2.44386e-17 
  7126.5894   2.32018e-17 
  7127.7764   2.65482e-17 
  7128.9634   2.19626e-17 
  7130.1504   2.28259e-17 
  7131.3374   2.32582e-17 
  7132.5244   2.07943e-17 
  7133.7114   2.79991e-17 
  7134.8984   2.13217e-17 
  7136.0854   2.37477e-17 
  7137.2725   2.44171e-17 
  7138.4595   2.12492e-17 
   7139.647   2.21096e-17 
   7140.834    2.4397e-17 
   7142.021   2.33124e-17 
  7143.2085   2.50843e-17 
  7144.3955   2.21625e-17 
   7145.583   2.24324e-17 
    7146.77   2.56991e-17 
  7147.9575     2.463e-17 
   7149.145   1.98812e-17 
   7150.332   2.56125e-17 
  7151.5195   2.35538e-17 
   7152.707   2.54739e-17 
  7153.8945   2.01174e-17 
   7155.082   2.44602e-17 
  7156.2695   2.51111e-17 
   7157.457   2.44993e-17 
  7158.6445    2.0565e-17 
   7159.832    2.0585e-17 
  7161.0195    2.3164e-17 
   7162.207   2.52769e-17 
   7163.395   2.14351e-17 
  7164.5825   2.38025e-17 
    7165.77   2.19071e-17 
   7166.958   2.12123e-17 
  7168.1455   2.16548e-17 
  7169.3335   2.11073e-17 
   7170.521   2.22019e-17 
   7171.709   1.94869e-17 
   7172.897   2.27389e-17 
  7174.0845   2.22221e-17 
  7175.2725   2.23869e-17 
  7176.4604   2.50355e-17 
  7177.6484   2.28147e-17 
  7178.8364   2.45747e-17 
  7180.0244   2.58503e-17 
  7181.2124   2.20005e-17 
  7182.4004   2.32624e-17 
  7183.5884   2.41868e-17 
  7184.7764   2.11618e-17 
  7185.9644   2.31447e-17 
  7187.1528   2.29152e-17 
  7188.3408    2.4076e-17 
  7189.5288    2.1252e-17 
  7190.7173   2.37347e-17 
  7191.9053   2.48218e-17 
  7193.0933   2.06948e-17 
  7194.2817   2.22573e-17 
  7195.4702   2.47967e-17 
  7196.6582    2.4523e-17 
  7197.8467   2.31144e-17 
  7199.0352   2.16259e-17 
  7200.2236   2.17956e-17 
  7201.4116    2.3742e-17 
  7202.6001   2.41987e-17 
  7203.7886    2.1248e-17 
  7204.9771   2.23137e-17 
  7206.1655   2.60469e-17 
   7207.354   2.42047e-17 
  7208.5425   2.04474e-17 
  7209.7314   2.23548e-17 
  7210.9199   2.35925e-17 
  7212.1084   2.30237e-17 
  7213.2969   2.25201e-17 
  7214.4858   2.27324e-17 
  7215.6743   2.26188e-17 
  7216.8633   2.03245e-17 
  7218.0518   2.40427e-17 
  7219.2407   2.40255e-17 
  7220.4292   2.21757e-17 
  7221.6182   2.29682e-17 
  7222.8071   1.85411e-17 
  7223.9961   2.28215e-17 
  7225.1846   2.63228e-17 
  7226.3735   2.36058e-17 
  7227.5625   2.03594e-17 
  7228.7515    2.4187e-17 
  7229.9404   2.42814e-17 
  7231.1294    2.2951e-17 
  7232.3184   2.28427e-17 
  7233.5073    2.2987e-17 
  7234.6963   2.26063e-17 
  7235.8857   2.12463e-17 
  7237.0747    2.2701e-17 
  7238.2637   2.94321e-17 
  7239.4531   2.02378e-17 
  7240.6421   2.18537e-17 
  7241.8315   2.84616e-17 
  7243.0205   2.90941e-17 
  7244.2095    2.5173e-17 
  7245.3989   2.01876e-17 
  7246.5884   2.32053e-17 
  7247.7773   2.23158e-17 
  7248.9668   2.21173e-17 
  7250.1562   2.60269e-17 
  7251.3457   2.35798e-17 
  7252.5352   1.89476e-17 
  7253.7246   2.53017e-17 
  7254.9136   2.57616e-17 
  7256.1035   2.37153e-17 
   7257.293    2.4974e-17 
  7258.4824   2.29449e-17 
  7259.6719   2.48764e-17 
  7260.8613    2.6301e-17 
  7262.0508   2.32497e-17 
  7263.2407   2.35048e-17 
  7264.4302   2.25618e-17 
  7265.6196   2.41295e-17 
  7266.8096   2.36089e-17 
   7267.999   2.52605e-17 
   7269.189   2.35217e-17 
  7270.3784   2.56166e-17 
  7271.5684   2.66224e-17 
  7272.7583   2.52607e-17 
  7273.9478   2.95558e-17 
  7275.1377   2.95717e-17 
  7276.3276   2.19715e-17 
  7277.5176    1.9799e-17 
  7278.7075   2.54675e-17 
  7279.8975   2.58097e-17 
  7281.0874   2.23081e-17 
  7282.2773   1.80629e-17 
  7283.4673   2.41639e-17 
  7284.6572   2.80459e-17 
  7285.8472   2.74992e-17 
  7287.0371   3.03514e-17 
  7288.2275   2.82048e-17 
  7289.4175    2.4197e-17 
  7290.6074   2.48688e-17 
  7291.7974   2.54677e-17 
  7292.9878   2.29102e-17 
  7294.1777   2.57078e-17 
  7295.3682   2.25302e-17 
  7296.5581   2.53147e-17 
  7297.7485   2.07368e-17 
   7298.939   2.49969e-17 
  7300.1289   2.10526e-17 
  7301.3193   2.50722e-17 
  7302.5098   2.73006e-17 
  7303.7002   2.38765e-17 
  7304.8906   2.19865e-17 
  7306.0811   2.06665e-17 
  7307.2715   2.74046e-17 
  7308.4619   2.07633e-17 
  7309.6523   2.78254e-17 
  7310.8428   2.39189e-17 
  7312.0332   2.48047e-17 
  7313.2236   2.44919e-17 
  7314.4141   2.59074e-17 
   7315.605   2.53381e-17 
  7316.7954   2.26877e-17 
  7317.9863   2.16685e-17 
  7319.1768   3.11079e-17 
  7320.3672   2.72633e-17 
  7321.5581   2.47364e-17 
  7322.7485   2.25461e-17 
  7323.9395   2.65945e-17 
  7325.1304   2.67524e-17 
  7326.3208   2.28125e-17 
  7327.5117   2.79259e-17 
  7328.7026   2.41947e-17 
  7329.8936   2.16672e-17 
   7331.084   2.08727e-17 
  7332.2749   2.21039e-17 
  7333.4658   2.37698e-17 
  7334.6567   2.51242e-17 
  7335.8477   2.29932e-17 
  7337.0386   2.25987e-17 
    7338.23   2.26412e-17 
  7339.4209   2.89585e-17 
  7340.6118   2.16609e-17 
  7341.8027   1.94398e-17 
  7342.9941   1.73392e-17 
  7344.1851   2.56249e-17 
   7345.376   2.02803e-17 
  7346.5674    2.3625e-17 
  7347.7583   1.98323e-17 
  7348.9497   2.55054e-17 
  7350.1406   2.42474e-17 
   7351.332   2.12369e-17 
  7352.5234   2.38518e-17 
  7353.7144   2.15947e-17 
  7354.9058   2.27353e-17 
  7356.0972   2.48225e-17 
  7357.2886   2.08225e-17 
  7358.4795   2.16965e-17 
  7359.6709   1.86999e-17 
  7360.8623   2.11791e-17 
  7362.0537   2.28563e-17 
  7363.2451   1.91726e-17 
  7364.4365   2.21235e-17 
  7365.6284   2.22209e-17 
  7366.8198   2.10833e-17 
  7368.0112   2.08587e-17 
  7369.2026   2.60258e-17 
   7370.394   2.62845e-17 
  7371.5859   2.41162e-17 
  7372.7773   2.81211e-17 
  7373.9692   1.88975e-17 
  7375.1606   1.93859e-17 
  7376.3525   2.08506e-17 
  7377.5439   2.06966e-17 
  7378.7358   2.33818e-17 
  7379.9272   2.08677e-17 
  7381.1191   2.06196e-17 
   7382.311   1.80535e-17 
  7383.5024   1.63018e-17 
  7384.6943    2.0953e-17 
  7385.8862    2.2764e-17 
  7387.0781    1.8804e-17 
    7388.27   2.04584e-17 
  7389.4619   1.76244e-17 
  7390.6538   1.71993e-17 
  7391.8457   2.27229e-17 
  7393.0376   1.95672e-17 
  7394.2295   1.70481e-17 
  7395.4214   1.73656e-17 
  7396.6133   1.96557e-17 
  7397.8057   2.00554e-17 
  7398.9976   1.76584e-17 
  7400.1899   1.88928e-17 
  7401.3818   1.82657e-17 
  7402.5737   2.19986e-17 
  7403.7661   2.06739e-17 
   7404.958   2.17465e-17 
  7406.1504   1.81213e-17 
  7407.3423   1.76821e-17 
  7408.5347     1.652e-17 
  7409.7271   1.83785e-17 
  7410.9189   1.91509e-17 
  7412.1113   1.91198e-17 
  7413.3037   1.98342e-17 
  7414.4961   1.94335e-17 
  7415.6885   1.75531e-17 
  7416.8809   1.54531e-17 
  7418.0732   1.65301e-17 
  7419.2656   1.49911e-17 
   7420.458   1.85914e-17 
  7421.6504   1.81309e-17 
  7422.8428   1.65002e-17 
  7424.0352   1.81732e-17 
  7425.2275   1.68545e-17 
  7426.4199   1.55469e-17 
  7427.6128   1.65291e-17 
  7428.8052   1.66798e-17 
  7429.9976   1.67678e-17 
  7431.1904   1.51376e-17 
  7432.3828   1.76085e-17 
  7433.5757   1.61058e-17 
  7434.7681   1.71028e-17 
  7435.9609   1.85425e-17 
  7437.1538   1.65284e-17 
  7438.3462    1.4391e-17 
  7439.5391   1.70651e-17 
  7440.7319   1.71669e-17 
  7441.9243   1.70818e-17 
  7443.1172   1.69992e-17 
  7444.3101   1.59505e-17 
  7445.5029   1.65809e-17 
  7446.6958   1.46293e-17 
  7447.8887   1.68979e-17 
  7449.0815   1.75849e-17 
  7450.2744   1.55684e-17 
  7451.4673   1.92441e-17 
  7452.6602   1.61188e-17 
   7453.853    1.6944e-17 
  7455.0459   2.10676e-17 
  7456.2393   2.01967e-17 
  7457.4321   2.06675e-17 
   7458.625   1.77314e-17 
  7459.8184   1.97719e-17 
  7461.0112   1.81848e-17 
  7462.2046   2.01243e-17 
  7463.3975   2.21522e-17 
  7464.5908   1.63347e-17 
  7465.7837   1.93387e-17 
  7466.9771   1.95979e-17 
  7468.1699   1.82359e-17 
  7469.3633    1.9344e-17 
  7470.5566   1.62087e-17 
    7471.75   2.29723e-17 
  7472.9429   2.21622e-17 
  7474.1362   1.62883e-17 
  7475.3296    2.3662e-17 
  7476.5229   2.08427e-17 
  7477.7163   2.28381e-17 
  7478.9097   1.78468e-17 
   7480.103   1.86263e-17 
  7481.2964   1.95932e-17 
  7482.4897   1.77603e-17 
  7483.6831   2.06506e-17 
   7484.877   1.71358e-17 
  7486.0703   2.02947e-17 
  7487.2637   1.77664e-17 
   7488.457   2.08727e-17 
  7489.6509   2.01689e-17 
  7490.8442   2.06343e-17 
  7492.0381   1.97964e-17 
  7493.2314   2.17677e-17 
  7494.4253   2.30259e-17 
  7495.6187   2.27573e-17 
  7496.8125   2.13782e-17 
  7498.0059   2.20955e-17 
  7499.1997   2.12019e-17 
  7500.3936   2.05388e-17 
  7501.5869   2.16573e-17 
  7502.7808   1.85974e-17 
  7503.9746   2.08421e-17 
  7505.1685   2.12529e-17 
  7506.3623   2.22082e-17 
  7507.5557   2.00251e-17 
    7508.75   2.17654e-17 
  7509.9434   2.31361e-17 
  7511.1377   2.09554e-17 
  7512.3315   2.00052e-17 
  7513.5254   2.40923e-17 
  7514.7192   2.56057e-17 
  7515.9131   2.11529e-17 
  7517.1069   2.49426e-17 
  7518.3013   2.07386e-17 
  7519.4951   2.40878e-17 
   7520.689   2.15252e-17 
  7521.8833   2.45186e-17 
  7523.0771   2.23759e-17 
   7524.271   1.86141e-17 
  7525.4653   2.20723e-17 
  7526.6592   2.41815e-17 
  7527.8535   1.91821e-17 
  7529.0474   2.11205e-17 
  7530.2417   1.97338e-17 
   7531.436   2.32147e-17 
  7532.6304   2.13254e-17 
  7533.8242   2.13507e-17 
  7535.0186   1.91974e-17 
  7536.2129   2.29243e-17 
  7537.4072   2.36799e-17 
  7538.6016   2.18534e-17 
  7539.7959   2.16899e-17 
  7540.9902   2.07549e-17 
  7542.1846   2.15898e-17 
  7543.3789   2.37775e-17 
  7544.5732    2.2109e-17 
  7545.7676   2.15569e-17 
  7546.9619    2.6532e-17 
  7548.1562   2.43986e-17 
  7549.3506    2.1348e-17 
  7550.5454   2.24004e-17 
  7551.7397   2.21441e-17 
  7552.9341   1.98715e-17 
  7554.1289   2.38006e-17 
  7555.3232   2.18478e-17 
  7556.5176   2.07965e-17 
  7557.7124   2.09725e-17 
  7558.9067   2.22731e-17 
  7560.1016    2.2884e-17 
  7561.2964   2.14916e-17 
  7562.4907   2.44169e-17 
  7563.6855    2.4469e-17 
  7564.8799   2.46889e-17 
  7566.0747   2.07177e-17 
  7567.2695   2.61286e-17 
  7568.4644   2.42622e-17 
  7569.6592   2.65204e-17 
   7570.854   2.40251e-17 
  7572.0483   2.38322e-17 
  7573.2432   2.96247e-17 
   7574.438   2.58238e-17 
  7575.6328   2.40239e-17 
  7576.8276   2.57402e-17 
  7578.0225   2.52182e-17 
  7579.2178   2.38172e-17 
  7580.4126   2.23781e-17 
  7581.6074   2.20747e-17 
  7582.8022   2.16958e-17 
  7583.9971   2.49007e-17 
  7585.1924   2.43545e-17 
  7586.3872    2.3165e-17 
   7587.582   2.07457e-17 
  7588.7773    2.5089e-17 
  7589.9722   2.23184e-17 
  7591.1675   2.52249e-17 
  7592.3623   2.46768e-17 
  7593.5576   2.37899e-17 
  7594.7524   2.07889e-17 
  7595.9478   2.91538e-17 
  7597.1426   2.43017e-17 
  7598.3379   3.38451e-17 
  7599.5332   2.76067e-17 
  7600.7285    1.4086e-17 
  7601.9238   2.12279e-17 
  7603.1187   3.09865e-17 
   7604.314    2.5241e-17 
  7605.5093   2.35477e-17 
  7606.7046   2.91485e-17 
  7607.8999   2.58986e-17 
  7609.0952    2.0664e-17 
  7610.2905   1.69996e-17 
  7611.4858    2.1059e-17 
  7612.6812   2.06871e-17 
  7613.8765   1.96285e-17 
  7615.0718   2.70739e-17 
  7616.2676    2.2247e-17 
  7617.4629   2.30488e-17 
  7618.6582   2.16535e-17 
  7619.8535   2.45384e-17 
  7621.0493   2.51109e-17 
  7622.2446   2.66106e-17 
  7623.4399   2.35616e-17 
  7624.6357   2.36338e-17 
  7625.8311   1.95375e-17 
  7627.0269    1.8288e-17 
  7628.2222   2.64915e-17 
   7629.418   2.50017e-17 
  7630.6133   2.21096e-17 
  7631.8091   2.05187e-17 
  7633.0049   2.43902e-17 
  7634.2002   2.10386e-17 
   7635.396   2.19556e-17 
  7636.5918   1.85436e-17 
  7637.7876   2.13782e-17 
  7638.9834     1.628e-17 
  7640.1792   2.15148e-17 
  7641.3745   2.19723e-17 
  7642.5703   2.41074e-17 
  7643.7661   1.96785e-17 
  7644.9619   2.49971e-17 
  7646.1577   2.04566e-17 
  7647.3535   2.23307e-17 
  7648.5498   2.07671e-17 
  7649.7456   2.35126e-17 
  7650.9414   2.04638e-17 
  7652.1372    2.3215e-17 
   7653.333   2.09591e-17 
  7654.5288   2.03911e-17 
  7655.7251   2.28017e-17 
  7656.9209   2.01148e-17 
  7658.1167   2.25987e-17 
   7659.313   1.86611e-17 
  7660.5088   2.33648e-17 
  7661.7051   1.90255e-17 
  7662.9009   2.07771e-17 
  7664.0972   2.62956e-17 
   7665.293   2.14522e-17 
  7666.4893   1.97085e-17 
  7667.6851     1.847e-17 
  7668.8813   2.49145e-17 
  7670.0776   2.52717e-17 
  7671.2739   2.08349e-17 
  7672.4697   1.97845e-17 
   7673.666   2.55066e-17 
  7674.8623   2.30625e-17 
  7676.0586   2.18369e-17 
  7677.2549   2.16243e-17 
  7678.4507   2.43841e-17 
   7679.647   2.39737e-17 
  7680.8433   2.34536e-17 
    7682.04   2.48656e-17 
  7683.2363   2.42026e-17 
  7684.4326   2.53764e-17 
  7685.6289   2.39969e-17 
  7686.8252   2.74113e-17 
  7688.0215   2.14376e-17 
  7689.2178   2.54886e-17 
  7690.4141   2.17006e-17 
  7691.6108    2.3212e-17 
  7692.8071   2.30072e-17 
  7694.0034   2.17377e-17 
  7695.2002   2.28587e-17 
  7696.3965   2.14841e-17 
  7697.5928   2.53772e-17 
  7698.7896   2.23307e-17 
  7699.9858   2.47605e-17 
  7701.1826   2.26397e-17 
  7702.3789   2.50131e-17 
  7703.5757   2.47335e-17 
   7704.772   2.27638e-17 
  7705.9688   2.42564e-17 
  7707.1655   2.07489e-17 
  7708.3618   2.72214e-17 
  7709.5586    2.6984e-17 
  7710.7554    3.1188e-17 
  7711.9521   2.66774e-17 
  7713.1489   2.15322e-17 
  7714.3452   2.68534e-17 
   7715.542   2.32075e-17 
  7716.7388   2.49839e-17 
  7717.9355   2.32878e-17 
  7719.1323   2.10992e-17 
  7720.3291   2.62944e-17 
  7721.5259   2.20168e-17 
  7722.7227   2.26176e-17 
  7723.9194    2.8455e-17 
  7725.1162    2.4829e-17 
   7726.313   2.40616e-17 
  7727.5103   2.35207e-17 
   7728.707   2.25019e-17 
  7729.9038   2.56397e-17 
  7731.1006   2.31046e-17 
  7732.2979   2.36558e-17 
  7733.4946   2.49505e-17 
  7734.6914   2.50443e-17 
  7735.8887   2.35703e-17 
  7737.0854   2.30677e-17 
  7738.2827   2.54157e-17 
  7739.4795   2.73103e-17 
  7740.6768   2.26466e-17 
  7741.8735   2.23721e-17 
  7743.0708   2.66404e-17 
  7744.2676   2.46708e-17 
  7745.4648   2.48813e-17 
  7746.6621   2.79186e-17 
  7747.8589   2.91098e-17 
  7749.0562   2.42394e-17 
  7750.2534   2.75866e-17 
  7751.4502   3.15649e-17 
  7752.6475   2.83502e-17 
  7753.8447   2.84818e-17 
   7755.042   2.04913e-17 
  7756.2393   2.30303e-17 
  7757.4365   2.41385e-17 
  7758.6338   2.50539e-17 
  7759.8311   2.63914e-17 
  7761.0283    3.0526e-17 
  7762.2256   3.41369e-17 
  7763.4229   4.43881e-17 
  7764.6201   3.94936e-17 
  7765.8174   3.64188e-17 
  7767.0146   2.98742e-17 
  7768.2119   2.59199e-17 
  7769.4092   2.22776e-17 
  7770.6069   2.89635e-17 
  7771.8042   2.48346e-17 
  7773.0015   2.66659e-17 
  7774.1992   2.23143e-17 
  7775.3965    2.5685e-17 
  7776.5938   2.44194e-17 
  7777.7915   2.29369e-17 
  7778.9888   2.21828e-17 
  7780.1865    1.8582e-17 
  7781.3838   2.54466e-17 
  7782.5815   2.68866e-17 
  7783.7788   2.49425e-17 
  7784.9766   2.76787e-17 
  7786.1738   2.71389e-17 
  7787.3716   2.34222e-17 
  7788.5693   2.21908e-17 
  7789.7666   2.92838e-17 
  7790.9644   2.15933e-17 
  7792.1621   2.37795e-17 
  7793.3599   2.34589e-17 
  7794.5571   2.25875e-17 
  7795.7549     2.808e-17 
  7796.9526   2.54686e-17 
  7798.1504   2.40109e-17 
  7799.3481   2.40881e-17 
  7800.5459   2.73804e-17 
  7801.7437   2.49253e-17 
  7802.9414    2.2868e-17 
  7804.1392   2.66682e-17 
  7805.3369   2.27713e-17 
  7806.5347   2.34713e-17 
  7807.7324   2.47719e-17 
  7808.9302    2.2917e-17 
  7810.1279   2.85254e-17 
  7811.3257   2.53437e-17 
  7812.5239   2.37236e-17 
  7813.7217   2.50695e-17 
  7814.9194   2.70701e-17 
  7816.1172   3.04891e-17 
  7817.3154   2.26547e-17 
  7818.5132   3.21269e-17 
  7819.7109   2.42015e-17 
  7820.9092   2.76224e-17 
  7822.1069   2.88757e-17 
  7823.3052   2.65637e-17 
  7824.5029   2.65162e-17 
  7825.7012   2.28652e-17 
  7826.8989    2.3789e-17 
  7828.0972   2.30942e-17 
  7829.2949   2.64542e-17 
  7830.4932    2.3639e-17 
  7831.6914   2.30952e-17 
  7832.8892   2.84464e-17 
  7834.0874   2.62715e-17 
  7835.2856   2.54283e-17 
  7836.4834   2.19744e-17 
  7837.6816    2.2841e-17 
  7838.8799    2.6081e-17 
  7840.0781   1.98574e-17 
  7841.2764   2.51016e-17 
  7842.4741   1.91189e-17 
  7843.6724   2.40339e-17 
  7844.8706   2.74765e-17 
  7846.0688   2.43601e-17 
  7847.2671   2.70277e-17 
  7848.4653   2.29178e-17 
  7849.6636   2.29204e-17 
  7850.8618   2.51673e-17 
  7852.0601   2.32858e-17 
  7853.2583   2.49777e-17 
   7854.457   2.47652e-17 
  7855.6553   2.66391e-17 
  7856.8535   2.48484e-17 
  7858.0518   2.19422e-17 
    7859.25   2.35151e-17 
  7860.4487   2.32269e-17 
   7861.647   2.51146e-17 
  7862.8452   2.56037e-17 
  7864.0435   3.00677e-17 
  7865.2422   2.75953e-17 
  7866.4404    2.4757e-17 
  7867.6392   2.48631e-17 
  7868.8374   2.68032e-17 
  7870.0361    2.8375e-17 
  7871.2344   2.70856e-17 
  7872.4331   2.51564e-17 
  7873.6313   2.44618e-17 
  7874.8301   2.37705e-17 
  7876.0283   2.17811e-17 
  7877.2271   2.21045e-17 
  7878.4253   2.74688e-17 
   7879.624   2.39957e-17 
  7880.8228   2.18454e-17 
   7882.021   2.56962e-17 
  7883.2197   2.34244e-17 
  7884.4185   2.44898e-17 
  7885.6172   2.48112e-17 
  7886.8159   2.60864e-17 
  7888.0142   2.25716e-17 
  7889.2129   2.28944e-17 
  7890.4116   2.69181e-17 
  7891.6104    1.8918e-17 
  7892.8091   2.28974e-17 
  7894.0078   2.58132e-17 
  7895.2065   2.57458e-17 
  7896.4053   2.67143e-17 
   7897.604   2.25133e-17 
  7898.8027   2.28895e-17 
  7900.0015   2.33808e-17 
  7901.2002   2.56883e-17 
  7902.3989   2.73715e-17 
  7903.5977   2.37648e-17 
  7904.7964   2.61746e-17 
  7905.9956   2.36711e-17 
  7907.1943   2.27444e-17 
  7908.3931   2.51436e-17 
  7909.5918   2.06172e-17 
   7910.791   3.01809e-17 
  7911.9897   1.80604e-17 
  7913.1885   2.20859e-17 
  7914.3872   1.61013e-17 
  7915.5864   2.58607e-17 
  7916.7852    2.3598e-17 
  7917.9844   2.22953e-17 
  7919.1831   1.90586e-17 
  7920.3823   2.47067e-17 
  7921.5811   3.06422e-17 
  7922.7803   2.19274e-17 
   7923.979   2.40977e-17 
  7925.1782   2.05621e-17 
   7926.377     2.239e-17 
  7927.5762   2.03167e-17 
  7928.7749   2.26522e-17 
  7929.9741    2.1911e-17 
  7931.1733   2.55832e-17 
  7932.3721   2.21007e-17 
  7933.5713   2.44275e-17 
  7934.7705   2.50521e-17 
  7935.9697   2.22481e-17 
  7937.1685   2.43918e-17 
  7938.3677   2.40371e-17 
  7939.5669   2.43195e-17 
  7940.7661   2.38077e-17 
  7941.9653   2.02113e-17 
  7943.1646   2.41049e-17 
  7944.3638   2.15425e-17 
   7945.563   2.66507e-17 
  7946.7622   2.39521e-17 
  7947.9614   2.51953e-17 
  7949.1602   2.27293e-17 
  7950.3594   2.86386e-17 
  7951.5591   2.11324e-17 
  7952.7583   2.27734e-17 
  7953.9575   2.36777e-17 
  7955.1567   2.31161e-17 
   7956.356   2.20755e-17 
  7957.5552   1.81768e-17 
  7958.7544   2.48317e-17 
  7959.9541   2.54567e-17 
  7961.1533   2.53502e-17 
  7962.3525    2.7087e-17 
  7963.5518   2.51033e-17 
  7964.7515   2.89633e-17 
  7965.9507   1.59117e-17 
  7967.1499   1.52851e-17 
  7968.3496    1.9825e-17 
  7969.5488   2.14437e-17 
   7970.748   1.96629e-17 
  7971.9478   2.33681e-17 
   7973.147   2.23902e-17 
  7974.3467   2.37782e-17 
  7975.5459    1.9665e-17 
  7976.7456   2.33998e-17 
  7977.9448   2.21923e-17 
  7979.1445   2.05615e-17 
  7980.3438   1.77871e-17 
  7981.5435   2.04869e-17 
  7982.7427   2.42951e-17 
  7983.9424   2.33888e-17 
  7985.1421   2.28122e-17 
  7986.3413   2.04726e-17 
   7987.541   2.33285e-17 
  7988.7407   1.72009e-17 
  7989.9404    2.7403e-17 
  7991.1396    2.1692e-17 
  7992.3394   1.67537e-17 
  7993.5391   2.42938e-17 
  7994.7388     2.411e-17 
  7995.9385    2.1127e-17 
  7997.1377    2.2253e-17 
  7998.3374   1.87278e-17 
  7999.5371   2.36932e-17 
  8000.7368   1.92129e-17 
  8001.9365   2.30789e-17 
  8003.1362    2.1666e-17 
  8004.3359   2.26431e-17 
  8005.5356    1.9695e-17 
  8006.7354   2.00824e-17 
  8007.9351   1.98938e-17 
  8009.1348   2.34059e-17 
  8010.3345    2.0531e-17 
  8011.5342   2.24125e-17 
  8012.7339   2.36367e-17 
  8013.9336   2.34468e-17 
  8015.1338   1.62408e-17 
  8016.3335   1.53408e-17 
  8017.5332   1.64155e-17 
  8018.7329    1.9146e-17 
  8019.9326   2.04872e-17 
  8021.1328   2.15535e-17 
  8022.3325   2.13404e-17 
  8023.5322    1.9884e-17 
  8024.7324   2.50358e-17 
  8025.9321   2.17653e-17 
  8027.1318    2.5769e-17 
   8028.332   2.17769e-17 
  8029.5317   2.13629e-17 
  8030.7314   1.90364e-17 
  8031.9316   1.76385e-17 
  8033.1313   2.33474e-17 
  8034.3315   2.13402e-17 
  8035.5312    1.7997e-17 
  8036.7314   2.30089e-17 
  8037.9312   2.02209e-17 
  8039.1313   2.17604e-17 
  8040.3311   2.25749e-17 
  8041.5312   2.15318e-17 
   8042.731   1.75217e-17 
  8043.9312   1.85025e-17 
  8045.1313   2.05832e-17 
  8046.3315   1.75588e-17 
  8047.5312   2.08571e-17 
  8048.7314   1.75996e-17 
  8049.9316    2.0637e-17 
  8051.1313   2.27193e-17 
  8052.3315   2.00793e-17 
  8053.5317   1.92735e-17 
  8054.7319   2.13484e-17 
  8055.9316   1.86463e-17 
  8057.1318   1.89103e-17 
   8058.332   2.05437e-17 
  8059.5322   2.01158e-17 
  8060.7324   2.56526e-17 
  8061.9326   2.34732e-17 
  8063.1328   1.90937e-17 
  8064.3325   1.75866e-17 
  8065.5327   1.38681e-17 
  8066.7329   1.86065e-17 
  8067.9331   1.81484e-17 
  8069.1333   2.02324e-17 
  8070.3335   1.74649e-17 
  8071.5337   1.81269e-17 
  8072.7339   1.80794e-17 
  8073.9341   1.95203e-17 
  8075.1343   2.01319e-17 
   8076.335   1.97304e-17 
  8077.5352   1.79679e-17 
  8078.7354   2.02064e-17 
  8079.9355   1.81457e-17 
  8081.1357   2.00298e-17 
  8082.3359     1.928e-17 
  8083.5366   2.04206e-17 
  8084.7368   1.95564e-17 
   8085.937   1.92068e-17 
  8087.1372   1.77967e-17 
  8088.3379   1.87506e-17 
  8089.5381   1.84301e-17 
  8090.7383   2.11652e-17 
  8091.9385   1.82663e-17 
  8093.1392   1.98039e-17 
  8094.3394   1.92143e-17 
    8095.54    1.8333e-17 
  8096.7402   1.93261e-17 
  8097.9404   1.61332e-17 
  8099.1411   1.76333e-17 
  8100.3413   2.12463e-17 
   8101.542   1.91499e-17 
  8102.7422   1.96367e-17 
  8103.9429   1.98919e-17 
  8105.1431    2.1351e-17 
  8106.3438    2.0122e-17 
  8107.5439   1.57525e-17 
  8108.7446   2.08617e-17 
  8109.9448   1.91305e-17 
  8111.1455   1.97563e-17 
  8112.3462   1.79871e-17 
  8113.5464   1.92136e-17 
  8114.7471   1.85504e-17 
  8115.9473   1.81431e-17 
  8117.1479    1.9833e-17 
  8118.3486   1.88027e-17 
  8119.5493    1.9099e-17 
  8120.7495   2.01392e-17 
  8121.9502   1.97292e-17 
  8123.1509   2.03882e-17 
  8124.3511   1.77891e-17 
  8125.5518   1.96571e-17 
  8126.7524   2.14458e-17 
  8127.9531   2.03712e-17 
  8129.1538   1.90217e-17 
  8130.3545   1.86922e-17 
  8131.5547   1.80325e-17 
  8132.7554   2.07798e-17 
  8133.9561   1.90306e-17 
  8135.1567   1.72827e-17 
  8136.3574   1.95756e-17 
  8137.5581   2.03158e-17 
  8138.7588   1.95434e-17 
  8139.9595   1.90266e-17 
  8141.1602   2.20104e-17 
  8142.3608   1.93001e-17 
  8143.5615   2.18081e-17 
  8144.7622   1.64155e-17 
  8145.9629   1.94885e-17 
  8147.1636   2.02706e-17 
  8148.3643   1.91593e-17 
  8149.5649   1.71397e-17 
  8150.7656   1.93823e-17 
  8151.9663   1.98929e-17 
   8153.167   1.96191e-17 
  8154.3677   1.75447e-17 
  8155.5688    1.6477e-17 
  8156.7695   1.68939e-17 
  8157.9702   1.87195e-17 
  8159.1709   1.97391e-17 
  8160.3716   1.80846e-17 
  8161.5728   2.13788e-17 
  8162.7734   1.93699e-17 
  8163.9741   2.15359e-17 
  8165.1748   1.78686e-17 
   8166.376   1.83452e-17 
  8167.5767   2.04535e-17 
  8168.7773   1.82877e-17 
  8169.9785   1.75514e-17 
  8171.1792   2.01364e-17 
  8172.3799   1.70082e-17 
  8173.5811   1.96039e-17 
  8174.7817   1.96991e-17 
  8175.9829   2.05328e-17 
  8177.1836   1.87181e-17 
  8178.3843   2.13282e-17 
  8179.5854   1.84039e-17 
  8180.7861   2.11409e-17 
  8181.9873   1.86534e-17 
   8183.188   2.08715e-17 
  8184.3892   1.96245e-17 
  8185.5898    2.0006e-17 
   8186.791   2.02776e-17 
  8187.9917   1.77282e-17 
  8189.1929   1.82267e-17 
  8190.3936   1.82931e-17 
  8191.5947     1.915e-17 
  8192.7959   1.83877e-17 
  8193.9971   1.89397e-17 
  8195.1973   1.87502e-17 
  8196.3984   1.93803e-17 
  8197.5996   2.09569e-17 
  8198.8008   2.18172e-17 
   8200.002   1.97108e-17 
  8201.2021   1.87623e-17 
  8202.4033   1.93104e-17 
  8203.6045   1.95776e-17 
  8204.8057    1.9253e-17 
  8206.0068     2.138e-17 
   8207.208   2.20403e-17 
  8208.4092   2.21801e-17 
  8209.6104    2.0176e-17 
  8210.8105    2.1462e-17 
  8212.0117    2.0073e-17 
  8213.2129   1.97121e-17 
  8214.4141   1.96773e-17 
  8215.6152   1.84107e-17 
  8216.8164   2.21032e-17 
  8218.0176   2.02072e-17 
  8219.2188   2.06853e-17 
  8220.4199    1.9281e-17 
  8221.6211   1.95451e-17 
  8222.8223   2.03343e-17 
  8224.0234   2.01783e-17 
  8225.2246   2.22495e-17 
  8226.4258    1.9144e-17 
   8227.627   1.98606e-17 
  8228.8281   1.91755e-17 
  8230.0283   1.74255e-17 
  8231.2305    1.7144e-17 
  8232.4316   1.64231e-17 
  8233.6318   1.68544e-17 
   8234.834   1.90968e-17 
  8236.0352   2.06815e-17 
  8237.2363   1.92765e-17 
  8238.4375   1.99351e-17 
  8239.6387   2.12977e-17 
  8240.8398    2.0059e-17 
   8242.041   1.80429e-17 
  8243.2422   1.97052e-17 
  8244.4434   2.13494e-17 
  8245.6445   1.94592e-17 
  8246.8457   2.15056e-17 
  8248.0469   2.20844e-17 
   8249.248    2.1621e-17 
  8250.4492   1.91565e-17 
  8251.6504   1.76301e-17 
  8252.8516   1.70435e-17 
  8254.0527   1.98153e-17 
  8255.2549   2.16956e-17 
  8256.4561   1.89282e-17 
  8257.6572    2.1234e-17 
  8258.8584   2.16211e-17 
  8260.0596   2.10807e-17 
  8261.2607   2.11217e-17 
  8262.4619   1.91834e-17 
  8263.6631   1.96594e-17 
  8264.8652   1.92601e-17 
  8266.0664   2.27168e-17 
  8267.2676      1.96e-17 
  8268.4688   2.09854e-17 
  8269.6699   1.86932e-17 
  8270.8711   2.17083e-17 
  8272.0732   1.86043e-17 
  8273.2744   2.34175e-17 
  8274.4756   2.18843e-17 
  8275.6768   2.49935e-17 
  8276.8779   1.89504e-17 
  8278.0801   1.80558e-17 
  8279.2812    2.1358e-17 
  8280.4824   2.31884e-17 
  8281.6836   1.71893e-17 
  8282.8848   2.71246e-17 
  8284.0869   1.93274e-17 
  8285.2881   2.90985e-17 
  8286.4893   1.36131e-17 
  8287.6904   2.50016e-17 
  8288.8926   1.23726e-17 
  8290.0938   2.53181e-17 
  8291.2949   1.46797e-17 
  8292.4961   2.11485e-17 
  8293.6982   2.01741e-17 
  8294.8994   2.42414e-17 
  8296.1006   1.61735e-17 
  8297.3027    2.3598e-17 
  8298.5039   1.86484e-17 
  8299.7051   2.53362e-17 
  8300.9062     1.629e-17 
  8302.1084   1.94026e-17 
  8303.3096   1.78858e-17 
  8304.5107    1.9076e-17 
  8305.7129    1.9093e-17 
  8306.9141   1.93444e-17 
  8308.1152   1.85496e-17 
  8309.3174   1.92239e-17 
  8310.5186   1.73378e-17 
  8311.7197   2.40906e-17 
  8312.9219   1.91106e-17 
   8314.123   1.51743e-17 
  8315.3242   1.84662e-17 
  8316.5264    2.0251e-17 
  8317.7275   1.88848e-17 
  8318.9297    2.0841e-17 
  8320.1309   1.71914e-17 
   8321.332    2.1143e-17 
  8322.5342   2.15689e-17 
  8323.7354   2.02928e-17 
  8324.9365   1.93743e-17 
  8326.1387   1.75927e-17 
  8327.3398   2.01083e-17 
   8328.541   1.95581e-17 
  8329.7432   1.98757e-17 
  8330.9443   1.86566e-17 
  8332.1465   1.89754e-17 
  8333.3477   2.01337e-17 
  8334.5498   1.94475e-17 
   8335.751   1.83285e-17 
  8336.9521   1.91869e-17 
  8338.1543   2.00621e-17 
  8339.3555   1.97651e-17 
  8340.5576   2.11488e-17 
  8341.7588   2.80735e-17 
  8342.9609   2.30153e-17 
  8344.1621   1.04122e-17 
  8345.3643   2.89024e-17 
  8346.5654   2.64342e-17 
  8347.7676    1.4939e-17 
  8348.9688   1.69818e-17 
  8350.1699   2.09131e-17 
  8351.3721   1.69459e-17 
  8352.5732   2.22156e-17 
  8353.7754   1.77687e-17 
  8354.9766   1.97136e-17 
  8356.1787   2.16399e-17 
  8357.3799   2.05617e-17 
   8358.582   1.33045e-17 
  8359.7832   1.90254e-17 
  8360.9854   2.10731e-17 
  8362.1865   1.55893e-17 
  8363.3887    1.2961e-17 
  8364.5898   1.29079e-17 
   8365.792   1.70043e-17 
  8366.9932   2.17671e-17 
  8368.1953   1.67956e-17 
  8369.3965   1.84976e-17 
  8370.5986   1.54646e-17 
  8371.8008    1.9605e-17 
   8373.002   1.79535e-17 
  8374.2041   1.68821e-17 
  8375.4053   2.12328e-17 
  8376.6074   1.79395e-17 
  8377.8086   1.82709e-17 
  8379.0107   2.23173e-17 
  8380.2119   1.93906e-17 
  8381.4141   2.16559e-17 
  8382.6152   1.78584e-17 
  8383.8174   1.96947e-17 
  8385.0195   1.90673e-17 
  8386.2207   1.60425e-17 
  8387.4229   1.81263e-17 
   8388.624   1.76533e-17 
  8389.8262   1.74958e-17 
  8391.0273   1.81034e-17 
  8392.2295   1.82609e-17 
  8393.4316   1.83026e-17 
  8394.6328   2.12876e-17 
   8395.835    1.4923e-17 
  8397.0361   1.19359e-17 
  8398.2383   1.78113e-17 
  8399.4404   1.63164e-17 
  8400.6416   2.42525e-17 
  8401.8438   1.64407e-17 
  8403.0449   1.97327e-17 
  8404.2471   1.60571e-17 
  8405.4492   1.92576e-17 
  8406.6504   1.74425e-17 
  8407.8525   2.06794e-17 
  8409.0547   1.82596e-17 
  8410.2559   1.78743e-17 
   8411.458   1.88833e-17 
  8412.6592   1.85693e-17 
  8413.8613   2.13025e-17 
  8415.0635    2.0235e-17 
  8416.2646    1.9196e-17 
  8417.4668   2.05163e-17 
  8418.6689   1.91181e-17 
  8419.8701   1.39651e-17 
  8421.0723   1.67254e-17 
  8422.2744   1.98521e-17 
  8423.4756   1.59593e-17 
  8424.6777    1.7826e-17 
  8425.8799   1.58842e-17 
  8427.0811   2.40679e-17 
  8428.2832   3.69648e-18 
  8429.4854   2.23531e-17 
  8430.6865   4.52194e-18 
  8431.8887   2.53947e-17 
  8433.0908    1.7963e-17 
   8434.292   2.02256e-17 
  8435.4941   1.76945e-17 
  8436.6963   2.01865e-17 
  8437.8975   1.91322e-17 
  8439.0996   1.40946e-17 
  8440.3018   1.90706e-17 
  8441.5029   1.92005e-17 
  8442.7051   1.82646e-17 
  8443.9072   1.82421e-17 
  8445.1094   1.72019e-17 
  8446.3105   1.87926e-17 
  8447.5127   1.94854e-17 
  8448.7148   2.00403e-17 
   8449.916   2.33952e-17 
  8451.1182   1.93247e-17 
  8452.3203   1.62599e-17 
  8453.5215   1.55642e-17 
  8454.7236   1.85361e-17 
  8455.9258   1.46547e-17 
  8457.1279   1.58041e-17 
  8458.3291   1.80822e-17 
  8459.5312     1.606e-17 
  8460.7334   1.99262e-17 
  8461.9346   1.76676e-17 
  8463.1367    1.9196e-17 
  8464.3389   1.65838e-17 
   8465.541   1.66244e-17 
  8466.7422   1.99248e-17 
  8467.9443   1.81338e-17 
  8469.1465   2.18203e-17 
  8470.3486   1.77872e-17 
  8471.5498    1.6393e-17 
   8472.752   1.81525e-17 
  8473.9541   2.03866e-17 
  8475.1562   2.19152e-17 
  8476.3574    1.9983e-17 
  8477.5596   1.94313e-17 
  8478.7617   1.79497e-17 
  8479.9639    1.8904e-17 
   8481.165   2.01755e-17 
  8482.3672   1.81054e-17 
  8483.5693   2.09832e-17 
  8484.7715   1.92782e-17 
  8485.9727   1.78829e-17 
  8487.1748   1.85632e-17 
   8488.377   1.80007e-17 
  8489.5781   2.18738e-17 
  8490.7803   1.55888e-17 
  8491.9824   1.65765e-17 
  8493.1846   2.05167e-17 
  8494.3867   1.88737e-17 
  8495.5879   2.40324e-17 
    8496.79   1.87617e-17 
  8497.9922   1.76685e-17 
  8499.1943    1.9106e-17 
  8500.3955   1.96621e-17 
  8501.5977   2.37251e-17 
  8502.7998   2.07157e-17 
   8504.002    1.6835e-17 
  8505.2031   2.58878e-17 
  8506.4053   2.35581e-17 
  8507.6074   1.95066e-17 
  8508.8096   2.06311e-17 
  8510.0117   1.96677e-17 
  8511.2129    1.8451e-17 
   8512.415    2.0118e-17 
  8513.6172   1.75446e-17 
  8514.8193   1.79448e-17 
  8516.0215   1.73774e-17 
  8517.2227   1.85359e-17 
  8518.4248   1.85216e-17 
   8519.627   1.96968e-17 
  8520.8291   1.81759e-17 
  8522.0303   1.91112e-17 
  8523.2324   2.05627e-17 
  8524.4346   1.83959e-17 
  8525.6367    1.7816e-17 
  8526.8389   1.93411e-17 
    8528.04   1.69325e-17 
  8529.2422   2.11487e-17 
  8530.4443   1.59233e-17 
  8531.6465    2.0182e-17 
  8532.8477   1.89708e-17 
  8534.0498   2.12049e-17 
   8535.252   1.93069e-17 
  8536.4541   1.99178e-17 
  8537.6562   2.09274e-17 
  8538.8574   2.09919e-17 
  8540.0596    1.7081e-17 
  8541.2617   2.21957e-17 
  8542.4639   1.96786e-17 
   8543.666   1.95978e-17 
  8544.8672   1.88742e-17 
  8546.0693   1.68231e-17 
  8547.2715   1.91107e-17 
  8548.4736   1.70645e-17 
  8549.6758   1.76857e-17 
   8550.877   1.95709e-17 
  8552.0791   1.62433e-17 
  8553.2812   2.07753e-17 
  8554.4834   2.04019e-17 
  8555.6846   1.85856e-17 
  8556.8867   2.20353e-17 
  8558.0889   1.81349e-17 
   8559.291   1.99356e-17 
  8560.4932   1.85417e-17 
  8561.6943   1.73856e-17 
  8562.8965     1.937e-17 
  8564.0986   1.63145e-17 
  8565.3008   1.81627e-17 
  8566.5029    1.8781e-17 
  8567.7041   1.69659e-17 
  8568.9062    1.9627e-17 
  8570.1084   1.95709e-17 
  8571.3105    2.0493e-17 
  8572.5127   1.98311e-17 
  8573.7139   1.75473e-17 
   8574.916   1.86063e-17 
  8576.1182    1.8206e-17 
  8577.3203   2.10434e-17 
  8578.5225   1.80622e-17 
  8579.7236   1.79775e-17 
  8580.9258   1.89304e-17 
  8582.1279   1.87204e-17 
  8583.3301   1.75671e-17 
  8584.5312   1.99721e-17 
  8585.7334   2.10767e-17 
  8586.9355    1.9049e-17 
  8588.1377    1.9011e-17 
  8589.3398   1.92307e-17 
   8590.541   1.82307e-17 
  8591.7432   1.64173e-17 
  8592.9453   2.00213e-17 
  8594.1475   1.97184e-17 
  8595.3496   1.71219e-17 
  8596.5508    2.1225e-17 
  8597.7529   1.87736e-17 
  8598.9551   2.16676e-17 
  8600.1572   2.24414e-17 
  8601.3584    1.9807e-17 
  8602.5605   2.02557e-17 
  8603.7627   1.89211e-17 
  8604.9648   1.72238e-17 
   8606.167   1.72804e-17 
  8607.3682   1.89813e-17 
  8608.5703   1.92418e-17 
  8609.7725   2.13026e-17 
  8610.9746   1.81754e-17 
  8612.1758   2.01418e-17 
  8613.3779   1.79089e-17 
  8614.5801    2.1318e-17 
  8615.7822   2.01324e-17 
  8616.9844   1.78082e-17 
  8618.1855    2.3088e-17 
  8619.3877   1.87634e-17 
  8620.5898   2.31669e-17 
   8621.792   1.95596e-17 
  8622.9932   2.18219e-17 
  8624.1953   1.96611e-17 
  8625.3975   1.38222e-17 
  8626.5996   2.47938e-17 
  8627.8008    1.7246e-17 
  8629.0029   1.84815e-17 
  8630.2051   1.89648e-17 
  8631.4072   2.26757e-17 
  8632.6084   1.86808e-17 
  8633.8105   2.16846e-17 
  8635.0127   1.99117e-17 
  8636.2148   1.87807e-17 
   8637.416   2.03779e-17 
  8638.6182   2.05737e-17 
  8639.8203     1.943e-17 
  8641.0225   1.84199e-17 
  8642.2236   1.63367e-17 
  8643.4258   1.92998e-17 
  8644.6279   1.61962e-17 
  8645.8301   1.80061e-17 
  8647.0312   1.89961e-17 
  8648.2334   1.39729e-17 
  8649.4355   2.07797e-17 
  8650.6377    1.8776e-17 
  8651.8389     2.029e-17 
   8653.041   1.87132e-17 
  8654.2432   1.87069e-17 
  8655.4443   2.05151e-17 
  8656.6465   2.16029e-17 
  8657.8486   1.78666e-17 
  8659.0508   1.84664e-17 
   8660.252   2.03217e-17 
  8661.4541   1.97035e-17 
  8662.6562   1.72081e-17 
  8663.8574   2.27171e-17 
  8665.0596   1.85068e-17 
  8666.2617   1.92286e-17 
  8667.4639   1.60069e-17 
   8668.665   1.98246e-17 
  8669.8672    2.1669e-17 
  8671.0693   1.82712e-17 
  8672.2705   1.81929e-17 
  8673.4727   1.97492e-17 
  8674.6748   1.84904e-17 
   8675.877   1.79685e-17 
  8677.0781   1.53643e-17 
  8678.2803   2.18044e-17 
  8679.4824   2.14265e-17 
  8680.6836   1.78635e-17 
  8681.8857   2.06023e-17 
  8683.0879   1.95266e-17 
  8684.2891   1.97764e-17 
  8685.4912   1.77089e-17 
  8686.6934   2.09887e-17 
  8687.8945   1.66179e-17 
  8689.0967   1.76066e-17 
  8690.2988   2.09964e-17 
     8691.5   1.98349e-17 
  8692.7021   1.86807e-17 
  8693.9043   1.86666e-17 
  8695.1055   1.88193e-17 
  8696.3076   1.74843e-17 
  8697.5098   1.77395e-17 
  8698.7109   2.06258e-17 
  8699.9131   1.96062e-17 
  8701.1152   1.70729e-17 
  8702.3164   1.64683e-17 
  8703.5186    2.1308e-17 
  8704.7197   1.59699e-17 
  8705.9219   1.80035e-17 
   8707.124   2.13253e-17 
  8708.3252   1.56821e-17 
  8709.5273    2.1279e-17 
  8710.7295   1.92343e-17 
  8711.9307   2.03741e-17 
  8713.1328   1.68651e-17 
   8714.335   1.76226e-17 
  8715.5361   1.75685e-17 
  8716.7383   2.13082e-17 
  8717.9395   1.90623e-17 
  8719.1416   1.87684e-17 
  8720.3438   1.68101e-17 
  8721.5449    1.6699e-17 
  8722.7471   1.86669e-17 
  8723.9482     1.706e-17 
  8725.1504   1.69805e-17 
  8726.3525   1.86889e-17 
  8727.5537   1.65867e-17 
  8728.7559   1.67376e-17 
   8729.957   2.07471e-17 
  8731.1592   1.95514e-17 
  8732.3604   1.87672e-17 
  8733.5625   1.93812e-17 
  8734.7646   1.99598e-17 
  8735.9658   2.17928e-17 
   8737.168   1.89449e-17 
  8738.3691   1.91774e-17 
  8739.5713   1.85134e-17 
  8740.7725   1.81059e-17 
  8741.9746   2.14636e-17 
  8743.1768   2.10865e-17 
  8744.3779   1.95468e-17 
  8745.5801   2.00907e-17 
  8746.7812   1.75613e-17 
  8747.9834   1.77846e-17 
  8749.1846   2.16791e-17 
  8750.3867   1.81351e-17 
  8751.5879   2.23985e-17 
    8752.79   1.72965e-17 
  8753.9912    1.9712e-17 
  8755.1934   2.08525e-17 
  8756.3945   1.61374e-17 
  8757.5967   2.62312e-17 
  8758.7979   2.25352e-17 
     8760.0   1.16542e-17 
  8761.2012   1.71561e-17 
  8762.4033   1.55372e-17 
  8763.6045   1.73211e-17 
  8764.8066   1.63921e-17 
  8766.0078   1.99883e-17 
    8767.21   1.65502e-17 
  8768.4111   1.79874e-17 
  8769.6133   1.71923e-17 
  8770.8145   1.83953e-17 
  8772.0166   1.35956e-17 
  8773.2178   2.49782e-17 
  8774.4199   1.76284e-17 
  8775.6211   2.36682e-17 
  8776.8223   2.24662e-17 
  8778.0244   2.21325e-17 
  8779.2256   1.91443e-17 
  8780.4277   1.73829e-17 
  8781.6289   2.21768e-17 
  8782.8311    1.5817e-17 
  8784.0322   1.78568e-17 
  8785.2344   1.91582e-17 
  8786.4355    1.9654e-17 
  8787.6367   1.58928e-17 
  8788.8389   1.72304e-17 
    8790.04   1.46277e-17 
  8791.2422   1.94572e-17 
  8792.4434   2.13597e-17 
  8793.6445   1.58749e-17 
  8794.8467   1.98058e-17 
  8796.0479   1.83675e-17 
   8797.249    2.0644e-17 
  8798.4512   2.00067e-17 
  8799.6523   1.95433e-17 
  8800.8545   1.93983e-17 
  8802.0557   1.73466e-17 
  8803.2568   1.83848e-17 
   8804.459    2.1658e-17 
  8805.6602   1.97285e-17 
  8806.8613   1.93478e-17 
  8808.0635   1.67099e-17 
  8809.2646   1.98779e-17 
  8810.4658   2.03191e-17 
   8811.668   2.02629e-17 
  8812.8691   1.91037e-17 
  8814.0703   1.76745e-17 
  8815.2725   1.91754e-17 
  8816.4736   1.73175e-17 
  8817.6748   1.72168e-17 
   8818.877   1.85638e-17 
  8820.0781   1.72349e-17 
  8821.2793   1.68306e-17 
  8822.4814   2.05484e-17 
  8823.6826   2.82645e-17 
  8824.8838    1.8719e-17 
   8826.085   2.12801e-17 
  8827.2871   2.95468e-17 
  8828.4883   1.64956e-17 
  8829.6895   1.44504e-17 
  8830.8906    1.4685e-17 
  8832.0928   1.84594e-17 
  8833.2939   1.93934e-17 
  8834.4951   1.78728e-17 
  8835.6963   1.39626e-17 
  8836.8984   1.81712e-17 
  8838.0996   1.85857e-17 
  8839.3008   1.98772e-17 
   8840.502   1.61816e-17 
  8841.7041   1.76169e-17 
  8842.9053   1.70259e-17 
  8844.1064   1.61224e-17 
  8845.3076   1.86004e-17 
  8846.5088   1.34264e-17 
  8847.7109   1.35495e-17 
  8848.9121   1.57615e-17 
  8850.1133    1.9448e-17 
  8851.3145    1.6502e-17 
  8852.5156    1.6767e-17 
  8853.7178   1.82894e-17 
  8854.9189   1.50703e-17 
  8856.1201   1.54657e-17 
  8857.3213   1.82828e-17 
  8858.5225   1.58388e-17 
  8859.7236   1.83189e-17 
  8860.9248   1.35702e-17 
   8862.127   1.76973e-17 
  8863.3281    1.6081e-17 
  8864.5293   2.05328e-17 
  8865.7305   2.26107e-17 
  8866.9316   2.02797e-17 
  8868.1328   1.87319e-17 
   8869.334   1.95191e-17 
  8870.5352   1.64752e-17 
  8871.7363   1.56518e-17 
  8872.9385   1.86915e-17 
  8874.1396   1.66981e-17 
  8875.3408   1.71586e-17 
   8876.542   1.69031e-17 
  8877.7432   1.63368e-17 
  8878.9443   1.58557e-17 
  8880.1455   1.48153e-17 
  8881.3467   1.16749e-17 
  8882.5479   1.98928e-17 
   8883.749    1.5658e-17 
  8884.9502   2.29037e-17 
  8886.1514   2.50926e-17 
  8887.3525    2.4693e-17 
  8888.5537   1.28767e-17 
  8889.7549   1.92466e-17 
  8890.9561   1.94561e-17 
  8892.1572   1.67087e-17 
  8893.3584   1.48133e-17 
  8894.5596    1.3095e-17 
  8895.7607    1.5378e-17 
  8896.9619   1.45682e-17 
  8898.1631   1.31134e-17 
  8899.3643   1.92789e-17 
  8900.5654   2.01882e-17 
  8901.7666   1.57365e-17 
  8902.9678   1.30675e-17 
  8904.1689   1.15529e-17 
  8905.3701   2.01774e-17 
  8906.5713   1.25071e-17 
  8907.7725   1.29098e-17 
  8908.9727   1.76917e-17 
  8910.1738   1.47256e-17 
   8911.375   1.67453e-17 
  8912.5762   1.67034e-17 
  8913.7773   1.55416e-17 
  8914.9785   1.30156e-17 
  8916.1797   1.77721e-17 
  8917.3809   2.11063e-17 
   8918.582   6.83311e-18 
  8919.7822   1.25255e-18 
  8920.9834   1.43273e-17 
  8922.1846   1.83789e-17 
  8923.3857    1.0052e-17 
  8924.5869   1.07224e-17 
  8925.7881    1.7671e-17 
  8926.9883   1.55861e-17 
  8928.1895   1.40802e-17 
  8929.3906    1.4853e-17 
  8930.5918   1.48362e-17 
   8931.793   1.26405e-17 
  8932.9932   1.21254e-17 
  8934.1943   1.26764e-17 
  8935.3955   1.33759e-17 
  8936.5967   1.62846e-17 
  8937.7979   1.48607e-17 
   8938.998   1.70924e-17 
  8940.1992   1.82804e-17 
  8941.4004   2.22526e-17 
  8942.6016   1.59739e-17 
  8943.8018   1.18765e-17 
  8945.0029   1.52413e-17 
  8946.2041   1.71908e-17 
  8947.4043    1.3824e-17 
  8948.6055   1.34297e-17 
  8949.8066   1.50446e-17 
  8951.0068   1.37736e-17 
   8952.208    1.4403e-17 
  8953.4092   1.39714e-17 
  8954.6104   1.85355e-17 
  8955.8105   1.11027e-17 
  8957.0117   2.38371e-17 
  8958.2119   1.02132e-17 
  8959.4131   2.06269e-17 
  8960.6143   2.15908e-17 
  8961.8145   9.89093e-18 
  8963.0156   1.64218e-17 
  8964.2168    1.4716e-17 
   8965.417   1.32162e-17 
  8966.6182   1.63719e-17 
  8967.8193   1.49494e-17 
  8969.0195   1.28378e-17 
  8970.2207   1.50171e-17 
  8971.4209   1.66621e-17 
  8972.6221   1.63867e-17 
  8973.8223   1.22957e-17 
  8975.0234   1.38795e-17 
  8976.2246   1.54572e-17 
  8977.4248   1.51319e-17 
   8978.626   1.61649e-17 
  8979.8262   1.66163e-17 
  8981.0273   1.61268e-17 
  8982.2275   1.73329e-17 
  8983.4287   1.77203e-17 
  8984.6289   1.77468e-17 
  8985.8301   1.78204e-17 
  8987.0303   1.48462e-17 
  8988.2314   1.07038e-17 
  8989.4316   1.36744e-17 
  8990.6328   1.60064e-17 
   8991.833   1.67852e-17 
  8993.0342    1.5112e-17 
  8994.2344   1.68884e-17 
  8995.4346   1.48613e-17 
  8996.6357   1.46082e-17 
  8997.8359   1.40537e-17 
  8999.0371   1.50388e-17 
  9000.2373    1.9615e-17 
  9001.4375   1.20017e-17 
  9002.6387   1.59737e-17 
  9003.8389   1.39186e-17 
    9005.04   1.28027e-17 
  9006.2402   1.67807e-17 
  9007.4404    1.7711e-17 
  9008.6416   1.68636e-17 
  9009.8418   1.49512e-17 
   9011.042    1.6923e-17 
  9012.2432   1.43936e-17 
  9013.4434    1.5633e-17 
  9014.6436    1.6913e-17 
  9015.8447   1.83436e-17 
  9017.0449   1.64297e-17 
  9018.2451   1.62984e-17 
  9019.4453   1.67385e-17 
  9020.6465   1.66723e-17 
  9021.8467   1.53494e-17 
  9023.0469   1.62015e-17 
   9024.248   1.36591e-17 
  9025.4482   1.63913e-17 
  9026.6484   1.73916e-17 
  9027.8486   1.59362e-17 
  9029.0488    1.5494e-17 
    9030.25    1.7405e-17 
  9031.4502   1.24068e-17 
  9032.6504   1.81119e-17 
  9033.8506   1.65334e-17 
  9035.0518    1.8759e-17 
   9036.252   1.62412e-17 
  9037.4521   1.48611e-17 
  9038.6523   1.53182e-17 
  9039.8525   1.84847e-17 
  9041.0527   1.75919e-17 
  9042.2529    1.6638e-17 
  9043.4541   1.75577e-17 
  9044.6543   1.46373e-17 
  9045.8545   1.64047e-17 
  9047.0547   1.28785e-17 
  9048.2549   1.89773e-17 
  9049.4551   1.89628e-17 
  9050.6553   1.80262e-17 
  9051.8555    1.0635e-17 
  9053.0557   1.29791e-17 
  9054.2559   1.56932e-17 
  9055.4561   1.25728e-17 
  9056.6562   1.71093e-17 
  9057.8564   1.51906e-17 
  9059.0566   1.57675e-17 
  9060.2568   1.78193e-17 
   9061.457   1.49773e-17 
  9062.6572   1.56683e-17 
  9063.8574     1.567e-17 
  9065.0576   1.65933e-17 
  9066.2578   1.77796e-17 
   9067.458   1.58377e-17 
  9068.6582   1.53584e-17 
  9069.8584   1.72326e-17 
  9071.0586   1.91178e-17 
  9072.2588   1.53186e-17 
   9073.459    1.6728e-17 
  9074.6592   1.48331e-17 
  9075.8594    1.5726e-17 
  9077.0596   1.57096e-17 
  9078.2598   1.58771e-17 
    9079.46   1.75619e-17 
  9080.6592   1.64605e-17 
  9081.8594   1.91953e-17 
  9083.0596   2.00615e-17 
  9084.2598   1.83181e-17 
    9085.46    1.4945e-17 
  9086.6602   1.87653e-17 
  9087.8594   1.82506e-17 
  9089.0596     1.617e-17 
  9090.2598   1.78711e-17 
    9091.46   1.87357e-17 
  9092.6602   2.28861e-17 
  9093.8594   1.90707e-17 
  9095.0596   1.39323e-17 
  9096.2598   1.67235e-17 
    9097.46   1.81712e-17 
  9098.6592   1.72656e-17 
  9099.8594   1.72285e-17 
  9101.0596   1.80482e-17 
  9102.2598   1.50007e-17 
   9103.459     1.284e-17 
  9104.6592   1.56885e-17 
  9105.8594   1.80413e-17 
  9107.0586   1.66011e-17 
  9108.2588   1.76459e-17 
   9109.459   1.87186e-17 
  9110.6582   1.58251e-17 
  9111.8584   1.59384e-17 
  9113.0576    1.9098e-17 
  9114.2578   1.73433e-17 
   9115.458   1.88818e-17 
  9116.6572   1.82772e-17 
  9117.8574   1.87414e-17 
  9119.0566   1.75993e-17 
  9120.2568   1.73673e-17 
   9121.457   1.61497e-17 
  9122.6562    1.9606e-17 
  9123.8564   1.54052e-17 
  9125.0557    1.5313e-17 
  9126.2559   1.75632e-17 
  9127.4551   1.80321e-17 
  9128.6553   1.46165e-17 
  9129.8545   2.13333e-17 
  9131.0547    1.6149e-17 
  9132.2539   1.76611e-17 
  9133.4541   1.68369e-17 
  9134.6533   1.71292e-17 
  9135.8535   1.79111e-17 
  9137.0527   1.47572e-17 
  9138.2529   1.77368e-17 
  9139.4521   1.84215e-17 
  9140.6514   1.65637e-17 
  9141.8516   1.86664e-17 
  9143.0508   1.36955e-17 
   9144.251   1.91821e-17 
  9145.4502   1.92346e-17 
  9146.6494   1.84673e-17 
  9147.8496   1.74554e-17 
  9149.0488   2.02116e-17 
   9150.248   2.07621e-17 
  9151.4482    2.0317e-17 
  9152.6475   2.02118e-17 
  9153.8467   1.62905e-17 
  9155.0469   1.82281e-17 
  9156.2461   1.77643e-17 
  9157.4453   1.45005e-17 
  9158.6445   1.70521e-17 
  9159.8447   1.56476e-17 
  9161.0439   1.93674e-17 
  9162.2432   1.88158e-17 
  9163.4424   1.56337e-17 
  9164.6426   2.04519e-17 
  9165.8418   1.78286e-17 
   9167.041   1.89158e-17 
  9168.2402   1.91889e-17 
  9169.4395   2.04221e-17 
  9170.6396   1.92504e-17 
  9171.8389   1.71862e-17 
  9173.0381   1.99836e-17 
  9174.2373   1.68963e-17 
  9175.4365    1.9858e-17 
  9176.6357   1.86928e-17 
   9177.835   1.85969e-17 
  9179.0342    1.9525e-17 
  9180.2344   1.53537e-17 
  9181.4336    1.7488e-17 
  9182.6328    1.8129e-17 
   9183.832   1.97118e-17 
  9185.0312   1.90471e-17 
  9186.2305   1.68385e-17 
  9187.4297   1.74203e-17 
  9188.6289   1.84095e-17 
  9189.8281   1.79419e-17 
  9191.0273   1.58391e-17 
  9192.2266   1.80731e-17 
  9193.4258   1.90944e-17 
   9194.625   1.71571e-17 
  9195.8242    1.5899e-17 
  9197.0234   1.68606e-17 
  9198.2227    1.8195e-17 
  9199.4219   1.88928e-17 
  9200.6201   1.95628e-17 
  9201.8193   2.00048e-17 
  9203.0186   1.79284e-17 
  9204.2178   1.92768e-17 
   9205.417   1.84183e-17 
  9206.6162   1.95267e-17 
  9207.8154    1.6667e-17 
  9209.0146   1.85156e-17 
  9210.2129   1.90545e-17 
  9211.4121    1.8286e-17 
  9212.6113   1.86941e-17 
  9213.8105   1.71086e-17 
  9215.0098   1.76442e-17 
   9216.208   1.59739e-17 
  9217.4072    1.6475e-17 
  9218.6064   1.81649e-17 
  9219.8057   1.75112e-17 
  9221.0039   1.89313e-17 
  9222.2031   1.76157e-17 
  9223.4023   1.71799e-17 
  9224.6006    1.7012e-17 
  9225.7998    1.8558e-17 
   9226.999   2.15277e-17 
  9228.1982    1.7808e-17 
  9229.3965   1.90999e-17 
  9230.5957   1.76801e-17 
  9231.7939   1.95532e-17 
  9232.9932   1.97675e-17 
  9234.1924   1.59016e-17 
  9235.3906   1.61709e-17 
  9236.5898   1.53363e-17 
  9237.7881   1.82083e-17 
  9238.9873   1.58467e-17 
  9240.1865   2.01082e-17 
  9241.3848    1.9872e-17 
   9242.584   1.80982e-17 
  9243.7822   1.86525e-17 
  9244.9814   1.72512e-17 
  9246.1797   1.80954e-17 
  9247.3789   1.63183e-17 
  9248.5771   1.87261e-17 
  9249.7764    1.9155e-17 
  9250.9746    1.8176e-17 
  9252.1738   1.66718e-17 
  9253.3721   1.58747e-17 
  9254.5703   1.75843e-17 
  9255.7695   1.60644e-17 
  9256.9678   1.78835e-17 
   9258.167   1.86329e-17 
  9259.3652   1.86571e-17 
  9260.5635   1.68311e-17 
  9261.7627   1.75334e-17 
  9262.9609   1.91592e-17 
  9264.1592   1.79817e-17 
  9265.3584   1.93784e-17 
  9266.5566   1.78846e-17 
  9267.7549   1.86632e-17 
  9268.9541   1.83483e-17 
  9270.1523   1.74523e-17 
  9271.3506   1.84624e-17 
  9272.5488   1.76042e-17 
   9273.748   1.61536e-17 
  9274.9463   1.92547e-17 
  9276.1445   1.89723e-17 
  9277.3428   1.91694e-17 
   9278.542    1.9972e-17 
  9279.7402   1.78188e-17 
  9280.9385   1.75515e-17 
  9282.1367   1.85833e-17 
   9283.335   1.81594e-17 
  9284.5332   1.71571e-17 
  9285.7324   1.88609e-17 
  9286.9307   1.94636e-17 
  9288.1289   1.79148e-17 
  9289.3271   1.98283e-17 
  9290.5254    1.7147e-17 
  9291.7236   1.98743e-17 
  9292.9219   1.74485e-17 
  9294.1201   1.90811e-17 
  9295.3184   1.75771e-17 
  9296.5166   1.79225e-17 
  9297.7148    1.7195e-17 
  9298.9131   1.86081e-17 
  9300.1113   1.66589e-17 
  9301.3096   1.66066e-17 
  9302.5078   1.45119e-17 
  9303.7061   1.91883e-17 
  9304.9043   1.46348e-17 
  9306.1025   1.95343e-17 
  9307.3008   2.01458e-17 
   9308.499   1.26857e-17 
  9309.6973   1.45873e-17 
  9310.8945   8.87985e-18 
  9312.0928   2.40269e-17 
   9313.291   3.21246e-17 
  9314.4893   2.80879e-17 
  9315.6875   3.37431e-17 
  9316.8857   2.24381e-17 
   9318.084   1.91969e-17 
  9319.2812   1.24492e-17 
  9320.4795    3.4345e-17 
  9321.6777    1.6925e-17 
   9322.876   1.18063e-17 
  9324.0732    1.3083e-17 
  9325.2715   1.48169e-17 
  9326.4697   1.40477e-17 
   9327.668   9.41488e-18 
  9328.8652   1.63996e-17 
  9330.0635    2.2111e-17 
  9331.2617   2.10917e-17 
   9332.459   1.95799e-17 
  9333.6572   1.77466e-17 
  9334.8555   2.03914e-17 
  9336.0527   1.15554e-17 
   9337.251   1.90403e-17 
  9338.4482   1.82992e-17 
  9339.6465   1.76778e-17 
  9340.8447   1.77328e-17 
   9342.042   2.02151e-17 
  9343.2402   1.61468e-17 
  9344.4375   1.77461e-17 
  9345.6357   1.33934e-17 
   9346.833   1.70828e-17 
  9348.0312   1.86972e-17 
  9349.2285   1.98977e-17 
  9350.4268   1.86231e-17 
   9351.624    1.6539e-17 
  9352.8223   1.67942e-17 
  9354.0195    1.6246e-17 
  9355.2178   1.52434e-17 
   9356.415   2.16016e-17 
  9357.6123   1.67347e-17 
  9358.8105   1.59617e-17 
  9360.0078   1.67238e-17 
  9361.2061   1.67771e-17 
  9362.4033   1.93977e-17 
  9363.6006   1.78125e-17 
  9364.7988   1.70535e-17 
  9365.9961   2.02609e-17 
  9367.1934   1.59679e-17 
  9368.3906   2.03621e-17 
  9369.5889   1.60296e-17 
  9370.7861   1.43683e-17 
  9371.9834   1.37385e-17 
  9373.1816   2.42939e-17 
  9374.3789   2.39303e-17 
  9375.5762   1.79728e-17 
  9376.7734   2.50549e-17 
  9377.9707   1.06771e-17 
  9379.1689   1.61505e-17 
  9380.3662   2.07061e-17 
  9381.5635   1.60781e-17 
  9382.7607   1.54955e-17 
   9383.958   1.44375e-17 
  9385.1553   1.34433e-17 
  9386.3525   1.14839e-17 
  9387.5498   1.28967e-17 
  9388.7471   1.67597e-17 
  9389.9443   1.50758e-17 
  9391.1426   1.28533e-17 
  9392.3398   1.52093e-17 
  9393.5371    1.5084e-17 
  9394.7344   2.00913e-17 
  9395.9316   1.80639e-17 
  9397.1289   1.64003e-17 
  9398.3262   1.91005e-17 
  9399.5234   1.92701e-17 
  9400.7197   1.28991e-17 
   9401.917   1.70698e-17 
  9403.1143   1.68861e-17 
  9404.3115   1.65125e-17 
  9405.5088   1.36331e-17 
  9406.7061   1.76828e-17 
  9407.9033   1.59543e-17 
  9409.1006   1.74629e-17 
  9410.2979   1.77171e-17 
  9411.4941   1.48868e-17 
  9412.6914   1.37779e-17 
  9413.8887    1.5928e-17 
  9415.0859   1.83889e-17 
  9416.2822   2.48629e-17 
  9417.4795   2.37351e-17 
  9418.6768   1.34006e-17 
   9419.874   1.94695e-17 
  9421.0703   9.40326e-18 
  9422.2676   1.83925e-17 
  9423.4648   1.29626e-17 
  9424.6611   2.00866e-17 
  9425.8584   2.10697e-17 
  9427.0557   1.94847e-17 
   9428.252   1.60976e-17 
  9429.4492   1.52969e-17 
  9430.6465   1.40084e-17 
  9431.8428   1.54314e-17 
    9433.04   1.52729e-17 
  9434.2363   1.36115e-17 
  9435.4336   1.05657e-17 
  9436.6309   1.28347e-17 
  9437.8271   9.10074e-18 
  9439.0244   1.83488e-17 
  9440.2207   1.60471e-17 
   9441.418   1.46475e-17 
  9442.6143   5.05725e-18 
  9443.8105   1.07329e-17 
  9445.0078   1.70944e-17 
  9446.2041   1.99733e-17 
  9447.4014   1.81927e-17 
  9448.5977    1.4692e-17 
  9449.7949   1.58861e-17 
  9450.9912   1.17744e-17 
  9452.1875   1.79694e-17 
  9453.3848   1.94245e-17 
  9454.5811   1.31155e-17 
  9455.7773   2.68686e-17 
  9456.9746    1.5084e-17 
  9458.1709   1.76054e-17 
  9459.3672   1.84639e-17 
  9460.5635   1.60044e-17 
  9461.7607   1.71227e-17 
   9462.957   1.58329e-17 
  9464.1533   1.71299e-17 
  9465.3496   1.59482e-17 
  9466.5469   1.50432e-17 
  9467.7432   1.80185e-17 
  9468.9395   1.65073e-17 
  9470.1357   1.40641e-17 
   9471.332   1.32861e-17 
  9472.5283   1.54751e-17 
  9473.7256   2.55644e-17 
  9474.9219   1.44277e-17 
  9476.1182   2.08914e-17 
  9477.3145   1.29053e-17 
  9478.5107   1.72124e-17 
   9479.707   2.21376e-17 
  9480.9033   1.59221e-17 
  9482.0996   1.57285e-17 
  9483.2959   1.45967e-17 
  9484.4922    1.9173e-17 
  9485.6885   1.48771e-17 
  9486.8848   1.56788e-17 
  9488.0811   1.45555e-17 
  9489.2773   1.97195e-17 
  9490.4736   1.65951e-17 
  9491.6689   1.63239e-17 
  9492.8652   1.47349e-17 
  9494.0615    1.5751e-17 
  9495.2578   1.64837e-17 
  9496.4541   1.74871e-17 
  9497.6504   1.59319e-17 
  9498.8467   1.94146e-17 
   9500.042    2.6249e-17 
  9501.2383    1.4743e-17 
  9502.4346   2.27685e-17 
  9503.6309   9.68444e-18 
  9504.8262   1.48743e-17 
  9506.0225   8.37485e-18 
  9507.2188   1.51499e-17 
   9508.415   1.42282e-17 
  9509.6104   1.76844e-17 
  9510.8066   1.43325e-17 
  9512.0029   1.88245e-17 
  9513.1982   1.77793e-17 
  9514.3945   2.24481e-17 
  9515.5898   2.00714e-17 
  9516.7861   3.21999e-17 
  9517.9824   1.15856e-17 
  9519.1777   1.94222e-17 
   9520.374   2.16399e-17 
  9521.5693    1.2428e-17 
  9522.7656   1.62269e-17 
  9523.9609   1.42941e-17 
  9525.1572   1.64647e-17 
  9526.3525    1.4988e-17 
  9527.5488   1.48395e-17 
  9528.7441   1.57473e-17 
  9529.9404    1.4923e-17 
  9531.1357   1.18104e-17 
   9532.332   1.59732e-17 
  9533.5273   1.99862e-17 
  9534.7227   1.76055e-17 
  9535.9189   1.45707e-17 
  9537.1143    1.3782e-17 
  9538.3096   1.55493e-17 
  9539.5059   1.54042e-17 
  9540.7012   1.41011e-17 
  9541.8965   1.55275e-17 
  9543.0928   1.63299e-17 
  9544.2881   1.53679e-17 
  9545.4834    1.3722e-17 
  9546.6787   1.29722e-17 
   9547.875   1.86546e-17 
  9549.0703   1.43427e-17 
  9550.2656   2.06168e-17 
  9551.4609    1.5139e-17 
  9552.6562     1.733e-17 
  9553.8516   1.66705e-17 
  9555.0479   1.73573e-17 
  9556.2432   1.23649e-17 
  9557.4385   1.36541e-17 
  9558.6338   1.34323e-17 
  9559.8291   1.18398e-17 
  9561.0244   1.56192e-17 
  9562.2197   1.71085e-17 
   9563.415   1.10307e-17 
  9564.6104   2.11916e-17 
  9565.8057  -2.52137e-18 
   9567.001   1.20608e-17 
  9568.1963   1.12918e-17 
  9569.3916     9.533e-18 
  9570.5869   1.14014e-17 
  9571.7822   1.40768e-17 
  9572.9775   1.24591e-17 
  9574.1729   1.39117e-17 
  9575.3682   1.27831e-17 
  9576.5625   1.31446e-17 
  9577.7578   1.56124e-17 
  9578.9531    1.6849e-17 
  9580.1484   1.51857e-17 
  9581.3438   1.53109e-17 
  9582.5381   1.47922e-17 
  9583.7334    1.5031e-17 
  9584.9287   1.44154e-17 
   9586.124    1.4995e-17 
  9587.3184    1.6832e-17 
  9588.5137   1.66645e-17 
   9589.709   1.70036e-17 
  9590.9033   1.50485e-17 
  9592.0986   1.41753e-17 
  9593.2939    1.2526e-17 
  9594.4883   1.39868e-17 
  9595.6836   1.56593e-17 
  9596.8789   1.48616e-17 
  9598.0732   1.43707e-17 
  9599.2686   1.23515e-17 
  9600.4629   1.48331e-17 
  9601.6582    1.3916e-17 
  9602.8525   1.58502e-17 
  9604.0479    1.2853e-17 
  9605.2422   1.83412e-17 
  9606.4375   9.97535e-18 
  9607.6318   1.60479e-17 
  9608.8271   1.92341e-17 
  9610.0215    1.1854e-17 
  9611.2168   1.42682e-17 
  9612.4111   1.33933e-17 
  9613.6055    1.4539e-17 
  9614.8008   1.60764e-17 
  9615.9951   1.19996e-17 
  9617.1895   1.64091e-17 
  9618.3848   1.58578e-17 
  9619.5791   1.27829e-17 
  9620.7734   1.73341e-17 
  9621.9688   1.43936e-17 
  9623.1631   9.95574e-18 
  9624.3574   9.19516e-18 
  9625.5518    1.1731e-17 
  9626.7471    1.2205e-17 
  9627.9414   1.46796e-17 
  9629.1357   1.15631e-17 
  9630.3301   1.48005e-17 
  9631.5244   1.40095e-17 
  9632.7188   1.09621e-17 
  9633.9141   1.45713e-17 
  9635.1084   1.67669e-17 
  9636.3027   1.25805e-17 
  9637.4971   1.53344e-17 
  9638.6914   1.33964e-17 
  9639.8857   1.09159e-17 
  9641.0801   1.31783e-17 
  9642.2744   1.30923e-17 
  9643.4688   1.54946e-17 
  9644.6631   1.15335e-17 
  9645.8574   1.10817e-17 
  9647.0518   1.34251e-17 
  9648.2461   1.33456e-17 
  9649.4404   1.36067e-17 
  9650.6348   1.32559e-17 
  9651.8281   1.15484e-17 
  9653.0225   1.20752e-17 
  9654.2168   1.65615e-17 
  9655.4111   1.67524e-17 
  9656.6055   1.46091e-17 
  9657.7998   1.51799e-17 
  9658.9932    1.0951e-17 
  9660.1875   1.11191e-17 
  9661.3818   1.18261e-17 
  9662.5762   1.39922e-17 
  9663.7695   1.28958e-17 
  9664.9639   1.43527e-17 
  9666.1582   1.38264e-17 
  9667.3516   1.44751e-17 
  9668.5459   1.36101e-17 
  9669.7402    1.5295e-17 
  9670.9336   1.77084e-17 
  9672.1279   1.35418e-17 
  9673.3223   1.07932e-17 
  9674.5156   1.29998e-17 
    9675.71   1.45599e-17 
  9676.9033   1.11742e-17 
  9678.0977   1.39881e-17 
   9679.291   8.82262e-18 
  9680.4854   1.53479e-17 
  9681.6787    1.1603e-17 
   9682.873   2.64679e-18 
  9684.0664   1.42968e-17 
  9685.2607    1.2955e-17 
  9692.4229   1.51299e-17 
  9693.6162    1.2154e-17 
  9694.8096   1.53794e-17 
  9696.0039   1.28364e-17 
  9697.1973   1.42673e-17 
  9698.3906   1.48223e-17 
   9699.584   1.32931e-17 
  9700.7783   1.66405e-17 
  9701.9717   1.69735e-17 
   9703.165    1.3206e-17 
  9704.3584   1.22178e-17 
  9705.5518   1.21333e-17 
  9706.7451   1.13964e-17 
  9707.9395   9.25963e-18 
  9709.1328    7.5695e-18 
  9710.3262   1.03614e-17 
  9711.5195   1.14841e-17 
  9712.7129   1.50747e-17 
  9713.9062   9.41549e-18 
  9715.0996   9.60039e-18 
   9716.293   1.17706e-17 
  9717.4863   1.54661e-17 
  9718.6797   2.58836e-17 
   9719.873   1.34543e-17 
  9721.0664   1.64492e-17 
  9722.2598    5.8203e-18 
  9723.4531   9.65762e-18 
  9724.6465   1.45452e-17 
  9725.8389   8.60161e-18 
  9727.0322   8.03898e-18 
  9728.2256   1.50296e-17 
  9729.4189   1.21037e-17 
  9730.6123    1.2234e-17 
  9731.8057   1.37052e-17 
   9732.998   8.17349e-18 
  9734.1914   7.87714e-18 
  9735.3848   7.96551e-18 
  9736.5781   1.00374e-17 
  9737.7705   1.04764e-18 
  9738.9639   8.99697e-18 
  9740.1572   1.26265e-17 
  9741.3496   7.79275e-18 
   9742.543   1.40204e-17 
  9743.7363   1.66166e-17 
  9744.9287   1.29354e-17 
  9746.1221   1.53376e-17 
  9747.3145   1.36873e-17 
  9748.5078   1.07344e-17 
  9749.7002   8.86433e-18 
  9750.8936   1.31277e-17 
  9752.0859   1.33088e-17 
  9753.2793   1.12694e-17 
  9754.4717   1.18202e-17 
   9755.665   9.88832e-18 
  9756.8574   1.20641e-17 
  9758.0508   1.12237e-17 
  9759.2432   1.09778e-17 
  9760.4365   1.14905e-17 
  9761.6289   1.07978e-17 
  9762.8213   1.12708e-17 
  9764.0146   1.27139e-17 
   9765.207   1.28468e-17 
  9766.3994   1.19929e-17 
  9767.5928   1.39141e-17 
  9768.7852   1.03737e-17 
  9769.9775   1.28182e-17 
  9771.1699     1.352e-17 
  9772.3633   1.31118e-17 
  9773.5557   8.15497e-18 
   9774.748   1.06107e-17 
  9775.9404      1.38e-17 
  9777.1328   1.10508e-17 
  9778.3252    1.0808e-17 
  9779.5176   1.30611e-17 
  9780.7109   1.15681e-17 
  9781.9033     8.386e-18 
  9783.0957   1.15725e-17 
  9784.2881   9.36407e-18 
  9785.4805   1.41517e-17 
  9786.6729   2.24983e-17 
  9787.8652   2.33069e-17 
  9789.0576   1.14691e-17 
    9790.25   2.30136e-17 
  9791.4424   1.48056e-18 
  9792.6348   8.54932e-18 
  9793.8271    7.9689e-18 
  9795.0186    3.3621e-18 
  9796.2109   1.58429e-17 
  9797.4033   1.38519e-17 
  9798.5957   1.56565e-17 
  9799.7881   1.86336e-17 
  9800.9805   1.22702e-17 
  9802.1719   1.40926e-17 
  9803.3643   4.35113e-18 
  9804.5566   8.50631e-18 
   9805.749   9.20207e-18 
  9806.9404   1.39432e-17 
  9808.1328     1.446e-17 
  9809.3252   1.08905e-17 
  9810.5176    1.1476e-17 
   9811.709   6.10668e-18 
  9812.9014   1.22042e-17 
  9814.0928   1.82737e-18 
  9815.2852   1.26972e-17 
  9816.4775   1.03901e-17 
  9817.6689   1.14491e-17 
  9818.8613   1.02121e-17 
  9820.0527   9.22657e-18 
  9821.2451   8.81919e-18 
  9822.4365   1.23224e-17 
  9823.6289   1.28188e-17 
  9824.8203    9.9113e-18 
  9826.0127   1.43118e-17 
  9827.2041   1.37062e-17 
  9828.3965   9.27063e-18 
  9829.5879   1.36006e-17 
  9830.7793    1.3685e-17 
  9831.9717   1.19336e-17 
  9833.1631   1.02223e-17 
  9834.3545   9.93127e-18 
  9835.5469   1.18656e-17 
  9836.7383   1.24024e-17 
  9837.9297   1.04741e-17 
  9839.1211   1.21658e-17 
  9840.3135   1.04173e-17 
  9841.5049   8.06945e-18 
  9842.6963   8.14159e-18 
  9843.8877   1.20214e-17 
  9845.0791   1.02505e-17 
  9846.2715   1.35341e-17 
  9847.4629   6.78087e-18 
  9848.6543   2.20734e-18 
  9849.8457   7.18315e-18 
  9851.0371   1.24414e-17 
  9852.2285   1.26693e-17 
  9853.4199    9.8772e-18 
  9854.6113   1.24447e-17 
  9855.8027   1.22188e-17 
  9856.9941   1.23995e-17 
  9858.1855   1.17362e-17 
   9859.377   1.36138e-17 
  9860.5684   7.92718e-18 
  9861.7598   1.20745e-17 
  9862.9512   1.01355e-17 
  9864.1426   1.34765e-17 
   9865.334   1.34844e-17 
  9866.5244   1.07958e-17 
  9867.7158   7.99867e-18 
  9868.9072   8.15494e-18 
  9870.0986   1.79157e-17 
    9871.29   1.84467e-17 
  9872.4814   1.27427e-17 
  9873.6719   2.25171e-17 
  9874.8633   2.19872e-18 
  9876.0547   6.68988e-18 
  9877.2451   9.24909e-18 
  9878.4365   1.47018e-17 
  9879.6279   1.33124e-17 
  9880.8184   1.48033e-17 
  9882.0098   1.49459e-17 
  9883.2012   1.36413e-17 
  9884.3916   1.13422e-17 
   9885.583   1.50353e-17 
  9886.7734   7.43354e-18 
  9887.9648   9.85539e-18 
  9889.1553   1.16132e-17 
  9890.3467   1.00296e-17 
  9891.5371   1.95328e-17 
  9892.7285   1.60482e-17 
  9893.9189   1.44875e-17 
  9895.1104   5.87268e-18 
  9896.3008   1.40782e-17 
  9897.4922   1.13566e-17 
  9898.6826   1.22587e-17 
   9899.873   9.56054e-18 
  9901.0645   1.09991e-17 
  9902.2549   1.47667e-17 
  9903.4453   8.99578e-18 
  9904.6357   1.24033e-17 
  9905.8271   1.20226e-17 
  9907.0176   1.08723e-17 
   9908.208   6.91257e-18 
  9909.3984   1.45408e-17 
  9910.5898   2.03449e-17 
  9911.7803     8.968e-18 
  9912.9707   9.59571e-18 
  9914.1611   1.11055e-17 
  9915.3516  -2.15553e-17 
   9916.542   1.28044e-17 
  9917.7324   7.67693e-18 
  9918.9229   1.00727e-17 
  9920.1143   1.48859e-17 
  9921.3047   1.59627e-17 
  9922.4951   1.06516e-17 
  9923.6855   1.20818e-17 
   9924.876   1.04465e-17 
  9926.0654   1.25739e-17 
  9927.2559   1.52543e-17 
  9928.4463   1.08283e-17 
  9929.6367    1.1522e-17 
  9930.8271   1.00845e-17 
  9932.0176   1.18854e-17 
   9933.208   1.14453e-17 
  9934.3984   1.20918e-17 
  9935.5889   8.48053e-18 
  9936.7783   1.31921e-17 
  9937.9688   1.35724e-17 
  9939.1592   6.03996e-18 
  9940.3496   1.00447e-17 
  9941.5391   2.26694e-17 
  9942.7295   2.76347e-18 
  9943.9199   1.77289e-17 
  9945.1094   6.81701e-18 
  9946.2998   1.12525e-17 
  9947.4902    7.2354e-18 
  9948.6797   1.96814e-17 
  9949.8701   6.49552e-18 
  9951.0605   1.96905e-18 
    9952.25   1.06323e-17 
  9953.4404    5.7718e-18 
  9954.6299   8.06973e-18 
  9955.8203   2.09914e-17 
  9957.0098   2.93698e-19 
  9958.2002   2.18499e-17 
  9959.3896   2.82939e-17 
  9960.5801   1.64611e-17 
  9961.7695    1.4042e-17 
   9962.959   2.56337e-17 
  9964.1494  -1.25592e-18 
  9965.3389   1.79174e-17 
  9966.5283     1.337e-17 
  9967.7188   1.38849e-17 
  9968.9082   2.24436e-17 
  9970.0977   1.51388e-17 
  9971.2881   1.42595e-17 
  9972.4775   9.08785e-18 
   9973.667   1.20602e-17 
  9974.8564   6.17432e-18 
  9976.0469   1.26743e-17 
  9977.2363   1.94473e-17 
  9978.4258   1.07722e-17 
  9979.6152   1.32633e-17 
  9980.8047   1.49589e-17 
  9981.9941   8.83292e-18 
  9983.1846   1.35011e-17 
   9984.374    1.1526e-17 
  9985.5635   1.32188e-17 
  9986.7529   1.05176e-17 
  9987.9424   1.23653e-17 
  9989.1318   1.39112e-17 
  9990.3213   1.54761e-17 
  9991.5107   9.24815e-18 
  9992.7002   1.36847e-17 
  9993.8896   1.17777e-17 
  9995.0781   1.52929e-17 
  9996.2676   1.14413e-17 
   9997.457   1.58619e-17 
  9998.6465   1.04623e-17 
  9999.8359   9.05881e-18 
  10001.025   2.12898e-17 
  10002.214   1.43683e-17 
  10003.404   1.10306e-17 
  10004.593   1.20232e-17 
  10005.782   8.32642e-18 
  10006.971   1.18229e-17 
   10008.16   2.34597e-17 
   10009.35   8.43845e-18 
  10010.539   3.27428e-17 
  10011.728   8.36926e-18 
  10012.917   2.00642e-17 
  10014.106   1.79527e-17 
  10015.295   1.01269e-17 
  10016.484   1.58911e-17 
  10017.673   1.82687e-17 
  10018.862   1.07348e-17 
  10020.051   1.26522e-17 
   10021.24   1.19922e-17 
  10022.429   1.40033e-17 
  10023.618   1.62179e-17 
  10024.807     3.187e-18 
  10025.996   1.28038e-17 
  10027.185   1.97664e-17 
  10028.373   6.25912e-18 
  10029.562   1.11784e-17 
  10030.751   1.31279e-17 
   10031.94   1.80908e-17 
  10033.129   8.51292e-18 
  10034.318   1.50069e-17 
  10035.506   1.38898e-17 
  10036.695   1.67473e-17 
  10037.884   7.72734e-18 
  10039.072   1.23145e-17 
  10040.261   1.73299e-17 
   10041.45   2.13013e-17 
  10042.638   1.25915e-17 
  10043.827   1.27094e-17 
  10045.016   9.59839e-18 
  10046.204   1.71645e-17 
  10047.393   1.12637e-17 
  10048.581   1.52811e-17 
   10049.77   1.44876e-17 
  10050.958   1.19903e-17 
  10052.147   1.25301e-17 
  10053.335    1.2546e-17 
  10054.524   8.47908e-18 
  10055.712   1.23249e-17 
  10056.901   1.48612e-17 
  10058.089   5.40399e-18 
  10059.278   5.54719e-18 
  10060.466   1.30111e-17 
  10061.654    2.8821e-17 
  10062.843   1.76482e-17 
  10064.031   1.73275e-17 
  10065.219    1.1848e-17 
  10066.408   8.90067e-18 
  10067.596    1.0786e-17 
  10068.784   2.45679e-17 
  10069.972   1.75806e-17 
  10071.161   6.02717e-18 
  10072.349   1.06456e-17 
  10073.537   1.97619e-17 
  10074.725   1.90234e-17 
  10075.913   1.35232e-17 
  10077.101   9.34481e-18 
   10078.29   2.35049e-17 
  10079.478   9.26219e-18 
  10080.666   2.23468e-17 
  10081.854    2.8087e-17 
  10083.042   1.13044e-17 
   10084.23   8.18892e-18 
  10085.418   1.88459e-17 
  10086.606    9.5447e-18 
  10087.794   1.62471e-17 
  10088.982   1.62316e-17 
   10090.17   1.51036e-17 
  10091.357   1.03581e-17 
  10092.545   1.12229e-17 
  10093.733   1.33599e-17 
  10094.921    1.0775e-17 
  10096.109   1.57782e-17 
  10097.297   8.95184e-18 
  10098.485   1.29341e-17 
  10099.672   1.46608e-17 
   10100.86   1.78367e-17 
  10102.048   9.14691e-18 
  10103.236   1.34126e-17 
  10104.423   1.60026e-17 
  10105.611    1.4585e-17 
  10106.799    1.1272e-17 
  10107.986   1.91178e-17 
  10109.174   1.78588e-17 
  10110.362   1.64561e-17 
  10111.549    1.3472e-17 
  10112.737   1.76105e-17 
  10113.924   1.20544e-17 
  10115.112    1.8989e-17 
  10116.299   1.54205e-17 
  10117.487   1.45786e-17 
  10118.674   1.91025e-17 
  10119.862   1.35367e-17 
  10121.049   9.37195e-18 
  10122.237   1.43399e-17 
  10123.424   2.68224e-17 
  10124.611    -4.496e-18 
  10125.799   9.11077e-18 
  10126.986   1.24579e-17 
  10128.174   7.35633e-18 
  10129.361   7.71048e-18 
  10130.548   9.71517e-18 
  10131.735   1.07327e-17 
  10132.923   1.48599e-17 
   10134.11   1.98038e-17 
  10135.297   1.80201e-17 
  10136.484   1.95949e-17 
  10137.672   1.17011e-17 
  10138.859   1.47663e-17 
  10140.046   1.28555e-17 
  10141.233   8.90713e-18 
   10142.42   1.12188e-17 
  10143.607   2.22483e-17 
  10144.794    1.0726e-17 
  10145.982   1.21715e-17 
  10147.169   1.35245e-17 
  10148.356   2.39267e-17 
  10149.543    1.7043e-17 
   10150.73   1.47154e-17 
  10151.917   9.40136e-18 
  10153.104   1.26777e-17 
   10154.29   2.33615e-17 
  10155.477   2.82643e-17 
  10156.664   5.25007e-18 
  10157.851   1.23673e-17 
  10159.038   1.49883e-17 
  10160.225   1.49854e-17 
  10161.412   2.45401e-17 
  10162.599   1.34405e-17 
  10163.785    2.1189e-17 
  10164.972   1.59414e-17 
  10166.159   2.06291e-17 
  10167.346   1.89641e-17 
  10168.532   3.40573e-17 
  10169.719   2.65136e-17 
  10170.906   1.01878e-17 
  10172.092   1.26687e-17 
  10173.279   1.29154e-17 
  10174.466   1.95803e-17 
  10175.652   9.43761e-18 
  10176.839   1.48013e-17 
  10178.025   3.19293e-18 
  10179.212   4.03042e-18 
  10180.399   2.29831e-17 
  10181.585   1.50636e-17 
  10182.772   1.44949e-17 
  10183.958   7.88034e-18 
  10185.145   2.05396e-17 
  10186.331   3.42834e-17 
  10187.517   1.01051e-17 
  10188.704   2.01326e-17 
   10189.89   2.31089e-17 
  10191.077   1.83058e-17 
  10192.263   2.10595e-17 
  10193.449   7.78781e-18 
  10194.636    1.7262e-17 
  10195.822   9.79388e-18 
  10197.008   2.52779e-17 
  10198.194   1.38202e-17 
  10199.381    1.7643e-17 
  10200.567   8.48319e-18 
  10201.753   1.06438e-17 
  10202.939   1.72485e-17 
  10204.126    1.7796e-17 
  10205.312   2.33643e-17 
  10206.498  -6.22318e-20 
  10207.684    2.4601e-17 
   10208.87  -1.46658e-17 
  10210.056   2.61687e-17 
  10211.242   1.47656e-17 
  10212.428   2.34958e-17 
  10213.614   1.79577e-17 
    10214.8   2.16605e-17 
  10215.986    1.0761e-17 
  10217.172   2.37201e-17 
  10218.358   1.21603e-17 
  10219.544   9.84319e-18 
   10220.73   2.50007e-17 
  10221.916   8.09431e-18 
  10223.102   3.83725e-17 
  10224.288    3.1323e-17 
  10225.474   2.09424e-17 
  10226.659   3.08321e-17 
  10227.845   3.25331e-17 
  10229.031   1.28493e-17 
  10230.217   5.43222e-19 
  10231.403   2.29071e-18 
  10232.588   1.01232e-17 
  10233.774   1.51038e-17 
   10234.96   1.43061e-17 
  10236.145   6.06269e-18 
  10237.331   1.18865e-17 
  10238.517   1.77292e-17 
  10239.702   2.32564e-17 
  10240.888   2.23624e-17 
  10242.073   1.92559e-17 
  10243.259   8.11599e-18 
  10244.445   1.42993e-17 
   10245.63    1.6207e-17 
  10246.816   7.79184e-18 
  10248.001   1.49701e-17 
  10249.187   9.04162e-18 
  10250.372   1.42084e-17 
  10251.558   1.32034e-17 
  10252.743   1.89471e-17 
  10253.928   1.52892e-17 
  10255.114   1.20749e-17 
  10256.299   2.01294e-17 
  10257.485   8.88461e-18 
   10258.67   1.35618e-17 
  10259.855   1.49938e-17 
   10261.04   1.51243e-17 
  10262.226   1.17498e-17 
  10263.411   1.25018e-17 
  10264.596   2.13048e-17 
  10265.781   1.40957e-17 
  10266.967   1.44407e-17 
  10268.152   1.57915e-17 
  10269.337   2.08255e-17 
  10270.522    1.8121e-17 
  10271.707   1.77503e-17 
  10272.892   2.28173e-17 
  10274.078   1.77438e-17 
  10275.263   2.11934e-17 
  10276.448   1.69111e-17 
  10277.633   2.62857e-17 
  10278.818   1.24784e-17 
  10280.003   2.11379e-17 
  10281.188   4.77558e-17 
  10282.373   7.51439e-18 
  10283.558   1.12674e-17 
  10284.743   1.25316e-17 
  10285.928   5.45409e-17 
  10287.112    3.2969e-17 
  10288.297   2.73937e-17 
  10289.482  -8.62269e-19 
  10290.667   2.79249e-18 
  10291.852   1.82591e-17 
  10293.037  -1.01967e-17 
  10294.221   3.90116e-17 
  10295.406   3.24493e-17 
  10296.591  -3.28607e-18 
  10297.776   2.18876e-17 
   10298.96   5.08345e-18 
  10300.145   1.18057e-17 
   10301.33   2.16895e-17 
  10302.514   1.82743e-17 
