# STATUS =
# OBJECT = 2019gfm
# TELESCOPE = P200
# INSTRUMENT = SEDM
# DATE-OBS = 2019-07-01 00:00:00.000
# MJD = 58665.0
# EXPTIME =
# AIRMASS =
# SLIT =
# DISPERSER =
# SOURCE = DOI 10.3847/1538-4357/aca161
# FILTER =
# RESOLUTION =
# FLUX_STANDARD =
# EXTINCTION_CORRECTED =
# PHOTOMETRY_CALIBRATED =
# TELLURIC_CORRECTED =
# FLUX_UNITS =
# WAVE_UNITS =
# QUALITY =
# MIN_WAVE = 3400.0
# MAX_WAVE = 10000.5
# COMMENT =
 Wavelength         Flux 
   3401.534   6.3297e-17 
   3403.068   7.6627e-17 
   3404.602   6.0619e-17 
   3406.136   3.9092e-17 
    3407.67   6.4458e-17 
   3409.204   6.9066e-17 
   3410.738   9.1976e-17 
   3412.271   6.6272e-17 
   3413.805   2.7744e-17 
   3415.339   5.7806e-17 
   3416.873   4.5031e-17 
   3418.407   6.2815e-17 
   3419.941   6.4135e-17 
   3421.475   7.5696e-17 
   3423.009   4.4883e-17 
   3424.543   5.8627e-17 
   3426.077   6.6282e-17 
   3427.611   5.0064e-17 
   3429.145   4.9566e-17 
   3430.679   4.6378e-17 
   3432.213   5.0464e-17 
   3433.746   2.2073e-17 
    3435.28   4.2818e-17 
   3436.814   4.1218e-17 
   3438.348   5.9611e-17 
   3439.882   6.7028e-17 
   3441.416   6.0909e-17 
    3442.95    1.025e-16 
   3444.484   8.2137e-17 
   3446.018   6.6551e-17 
   3447.552    8.566e-17 
   3449.086   6.9869e-17 
    3450.62   8.4939e-17 
   3452.154   7.8727e-17 
   3453.688    6.307e-17 
   3455.221   6.6745e-17 
   3456.755   6.3353e-17 
   3458.289   6.2768e-17 
   3459.823   6.3591e-17 
   3461.357   4.7774e-17 
   3462.891   6.0342e-17 
   3464.425   5.7962e-17 
   3465.959   5.2765e-17 
   3467.493   6.8931e-17 
   3469.027   5.5714e-17 
   3470.561   7.1444e-17 
   3472.095   5.9485e-17 
   3473.629   5.3049e-17 
   3475.163    5.571e-17 
   3476.697   7.0835e-17 
    3478.23   7.7657e-17 
   3479.764   7.5414e-17 
   3481.298   8.0748e-17 
   3482.832   7.2074e-17 
   3484.366   5.5676e-17 
     3485.9   5.4788e-17 
   3487.434   4.1048e-17 
   3488.968   5.7988e-17 
   3490.502   7.4078e-17 
   3492.036   7.5064e-17 
    3493.57   5.9475e-17 
   3495.104   6.4456e-17 
   3496.638   6.8401e-17 
   3498.171   7.3098e-17 
   3499.705   6.7913e-17 
   3501.239    7.538e-17 
   3502.773   6.7586e-17 
   3504.307   6.2737e-17 
   3505.841     5.93e-17 
   3507.375   9.0107e-17 
   3508.909    7.849e-17 
   3510.443   6.5485e-17 
   3511.977   4.9031e-17 
   3513.511   5.1131e-17 
   3515.045   7.3178e-17 
   3516.579   6.8805e-17 
   3518.113   6.5736e-17 
   3519.646   6.7049e-17 
    3521.18   7.4892e-17 
   3522.714   6.7679e-17 
   3524.248   6.4155e-17 
   3525.782   5.2231e-17 
   3527.316   5.9556e-17 
    3528.85   7.4139e-17 
   3530.384   6.5228e-17 
   3531.918   8.4112e-17 
   3533.452   6.2334e-17 
   3534.986   7.8989e-17 
    3536.52   6.5225e-17 
   3538.054   3.2558e-17 
   3539.588   5.1352e-17 
   3541.122   5.3618e-17 
   3542.656   5.1682e-17 
   3544.189   5.2089e-17 
   3545.723   5.5827e-17 
   3547.257   4.2887e-17 
   3548.791   5.0638e-17 
   3550.325   6.2093e-17 
   3551.859   4.7596e-17 
   3553.393    3.799e-17 
   3554.927   5.3978e-17 
   3556.461   5.6157e-17 
   3557.995   7.5649e-17 
   3559.529   5.4134e-17 
   3561.063   4.9616e-17 
   3562.596   5.7242e-17 
    3564.13   5.2788e-17 
   3565.664   6.4807e-17 
   3567.198   5.5362e-17 
   3568.732   5.0397e-17 
   3570.266   5.3499e-17 
     3571.8    5.422e-17 
   3573.334   6.8433e-17 
   3574.868   6.0409e-17 
   3576.402   6.6496e-17 
   3577.936    6.237e-17 
    3579.47   6.4186e-17 
   3581.004   6.2837e-17 
   3582.538   4.0184e-17 
   3584.072   6.5812e-17 
   3585.605   7.8185e-17 
   3587.139   6.0201e-17 
   3588.673   5.7768e-17 
   3590.207   5.7215e-17 
   3591.741   7.3301e-17 
   3593.275    6.068e-17 
   3594.809   5.9976e-17 
   3596.343   5.0024e-17 
   3597.877   6.2106e-17 
   3599.411   5.7566e-17 
   3600.945   5.6979e-17 
   3602.479   5.2694e-17 
   3604.013   4.7832e-17 
   3605.547   5.7404e-17 
   3607.081   6.5923e-17 
   3608.615   7.1879e-17 
   3610.148   6.0944e-17 
   3611.682   6.3672e-17 
   3613.216   5.4691e-17 
    3614.75   3.9971e-17 
   3616.284   4.8531e-17 
   3617.818   4.2506e-17 
   3619.352   5.9413e-17 
   3620.886    6.453e-17 
    3622.42    4.918e-17 
   3623.954   5.6642e-17 
   3625.488   5.7221e-17 
   3627.021   4.9618e-17 
   3628.555   4.7213e-17 
   3630.089   5.0717e-17 
   3631.623   4.9306e-17 
   3633.157   4.7304e-17 
   3634.691   4.2717e-17 
   3636.225   4.1519e-17 
   3637.759   4.0765e-17 
   3639.293   4.5602e-17 
   3640.827   5.8178e-17 
   3642.361   5.9478e-17 
   3643.895    6.175e-17 
   3645.429   4.7177e-17 
   3646.963   5.0878e-17 
   3648.497   6.8546e-17 
   3650.031   6.1027e-17 
   3651.564    5.022e-17 
   3653.098   5.4054e-17 
   3654.632   6.3471e-17 
   3656.166    6.484e-17 
     3657.7   5.0984e-17 
   3659.234   5.7431e-17 
   3660.768   6.8948e-17 
   3662.302   6.8118e-17 
   3663.836   7.8273e-17 
    3665.37   7.1838e-17 
   3666.904   5.2378e-17 
   3668.438   5.6436e-17 
   3669.972   5.6334e-17 
   3671.506   4.5715e-17 
    3673.04   6.4938e-17 
   3674.573   6.9283e-17 
   3676.107   6.6618e-17 
   3677.641   5.2528e-17 
   3679.175    6.304e-17 
   3680.709   5.7836e-17 
   3682.243   5.5255e-17 
   3683.777   5.6494e-17 
   3685.311   5.5313e-17 
   3686.845   6.6429e-17 
   3688.379   6.4008e-17 
   3689.913   5.9188e-17 
   3691.447   5.7837e-17 
    3692.98   6.4615e-17 
   3694.514   5.8337e-17 
   3696.048   6.0826e-17 
   3697.582   6.4544e-17 
   3699.116   5.3151e-17 
    3700.65   6.7004e-17 
   3702.184   5.5187e-17 
   3703.718   5.7896e-17 
   3705.252   6.5431e-17 
   3706.786   6.2556e-17 
    3708.32   6.4851e-17 
   3709.854   6.0477e-17 
   3711.388    5.519e-17 
   3712.922   5.3088e-17 
   3714.456    4.813e-17 
    3715.99   5.0902e-17 
   3717.523   5.3328e-17 
   3719.057   4.5095e-17 
   3720.591    5.125e-17 
   3722.125   5.0356e-17 
   3723.659   5.4454e-17 
   3725.193   3.5962e-17 
   3726.727   5.0593e-17 
   3728.261   5.7344e-17 
   3729.795   5.5815e-17 
   3731.329   5.6111e-17 
   3732.863   6.2592e-17 
   3734.397    4.566e-17 
   3735.931   5.0849e-17 
   3737.465   5.2171e-17 
   3738.999   5.6706e-17 
   3740.532   6.2991e-17 
   3742.066   4.5396e-17 
     3743.6   4.9637e-17 
   3745.134   5.0624e-17 
   3746.668   5.6625e-17 
   3748.202   5.2064e-17 
   3749.736   4.7065e-17 
    3751.27   5.8417e-17 
   3752.804   5.5882e-17 
   3754.338   6.5129e-17 
   3755.872   5.4069e-17 
   3757.406   5.0483e-17 
   3758.939   5.6902e-17 
   3760.473   6.0683e-17 
   3762.007   6.9613e-17 
   3763.541   7.7865e-17 
   3765.075   5.7131e-17 
   3766.609   5.5951e-17 
   3768.143   5.4372e-17 
   3769.677   6.9428e-17 
   3771.211   6.7254e-17 
   3772.745   5.9622e-17 
   3774.279    7.153e-17 
   3775.813   6.4402e-17 
   3777.347   6.0021e-17 
   3778.881   6.2389e-17 
   3780.415   6.7634e-17 
   3781.948   6.2309e-17 
   3783.482   5.9567e-17 
   3785.016   6.0562e-17 
    3786.55   6.1438e-17 
   3788.084   6.0864e-17 
   3789.618   6.3782e-17 
   3791.152    5.657e-17 
   3792.686   5.4639e-17 
    3794.22   5.5532e-17 
   3795.754   5.7191e-17 
   3797.288    5.366e-17 
   3798.822   5.1519e-17 
   3800.356   5.6074e-17 
    3801.89   6.1686e-17 
   3803.424     5.94e-17 
   3804.958     5.79e-17 
   3806.491   5.9382e-17 
   3808.025   6.1546e-17 
   3809.559   5.8606e-17 
   3811.093   6.3282e-17 
   3812.627   5.6016e-17 
   3814.161   5.1598e-17 
   3815.695   4.8374e-17 
   3817.229   6.5801e-17 
   3818.763   6.2235e-17 
   3820.297   5.3323e-17 
   3821.831   5.5061e-17 
   3823.365   5.5177e-17 
   3824.898   5.3326e-17 
   3826.432   5.2131e-17 
   3827.966   5.6019e-17 
     3829.5   5.6931e-17 
   3831.034    6.167e-17 
   3832.568   6.3046e-17 
   3834.102   5.7029e-17 
   3835.636   4.7965e-17 
    3837.17   5.4471e-17 
   3838.704   5.2945e-17 
   3840.238   5.2581e-17 
   3841.772   5.2742e-17 
   3843.306   5.1838e-17 
    3844.84   5.1734e-17 
   3846.374   5.9603e-17 
   3847.907     5.99e-17 
   3849.441   6.2387e-17 
   3850.975   5.4004e-17 
   3852.509   5.9754e-17 
   3854.043   6.4035e-17 
   3855.577   6.1122e-17 
   3857.111   5.9518e-17 
   3858.645   5.8655e-17 
   3860.179   5.9723e-17 
   3861.713   5.9259e-17 
   3863.247   5.5753e-17 
   3864.781   5.0818e-17 
   3866.315   5.6007e-17 
   3867.849   6.3474e-17 
   3869.383   6.4235e-17 
   3870.917   7.2048e-17 
    3872.45   7.0141e-17 
   3873.984   5.1469e-17 
   3875.518   5.3406e-17 
   3877.052   5.8008e-17 
   3878.586   5.9848e-17 
    3880.12   6.0613e-17 
   3881.654   5.5635e-17 
   3883.188   6.7038e-17 
   3884.722   7.1139e-17 
   3886.256   7.3404e-17 
    3887.79    6.839e-17 
   3889.323   5.7103e-17 
   3890.857    6.125e-17 
   3892.391   6.4432e-17 
   3893.925   6.0486e-17 
   3895.459   6.1511e-17 
   3896.993   6.0185e-17 
   3898.527   5.3608e-17 
   3900.061    5.701e-17 
   3901.595   6.0827e-17 
   3903.129   7.0064e-17 
   3904.663   6.9452e-17 
   3906.197   6.5382e-17 
   3907.731   7.2072e-17 
   3909.265    7.251e-17 
   3910.799   6.2658e-17 
   3912.333   5.8788e-17 
   3913.866   6.2693e-17 
     3915.4   5.9347e-17 
   3916.934   6.0106e-17 
   3918.468    6.031e-17 
   3920.002   6.3094e-17 
   3921.536   6.2144e-17 
    3923.07   6.3295e-17 
   3924.604   6.7718e-17 
   3926.138   6.2601e-17 
   3927.672   6.6655e-17 
   3929.206   6.8067e-17 
    3930.74   5.4141e-17 
   3932.274   5.6733e-17 
   3933.808   5.9207e-17 
   3935.342   5.5168e-17 
   3936.875   6.0634e-17 
   3938.409   5.4512e-17 
   3939.943   5.4866e-17 
   3941.477   6.1972e-17 
   3943.011   5.8625e-17 
   3944.545   5.3977e-17 
   3946.079   6.2554e-17 
   3947.613   6.5908e-17 
   3949.147   6.7605e-17 
   3950.681   6.9565e-17 
   3952.215   6.7104e-17 
   3953.749   6.7054e-17 
   3955.282   6.6058e-17 
   3956.816   6.4601e-17 
    3958.35   6.2005e-17 
   3959.884    6.314e-17 
   3961.418   6.8986e-17 
   3962.952   6.6484e-17 
   3964.486   6.4667e-17 
    3966.02   6.2872e-17 
   3967.554   6.0122e-17 
   3969.088   4.7183e-17 
   3970.622   5.7375e-17 
   3972.156   6.6017e-17 
    3973.69   5.9363e-17 
   3975.224    6.791e-17 
   3976.758   6.4291e-17 
   3978.292   6.2856e-17 
   3979.825   7.3785e-17 
   3981.359   6.3444e-17 
   3982.893    6.988e-17 
   3984.427   6.6713e-17 
   3985.961   7.1124e-17 
   3987.495   6.4966e-17 
   3989.029   5.9291e-17 
   3990.563   4.8413e-17 
   3992.097   6.1187e-17 
   3993.631   6.2901e-17 
   3995.165   5.0741e-17 
   3996.699   6.1559e-17 
   3998.233   5.2828e-17 
   3999.767   5.3386e-17 
   4001.301   6.3867e-17 
   4002.834   5.9622e-17 
   4004.368   6.5014e-17 
   4005.902   6.2521e-17 
   4007.436   6.1992e-17 
    4008.97   6.1411e-17 
   4010.504   6.2879e-17 
   4012.038   6.5331e-17 
   4013.572   6.4094e-17 
   4015.106   7.0533e-17 
    4016.64   6.8434e-17 
   4018.174   6.0016e-17 
   4019.708   5.6741e-17 
   4021.241   6.7656e-17 
   4022.775   5.5004e-17 
   4024.309   6.1841e-17 
   4025.843   6.6373e-17 
   4027.377   5.7453e-17 
   4028.911   6.2676e-17 
   4030.445   5.7472e-17 
   4031.979   6.0207e-17 
   4033.513   5.5605e-17 
   4035.047   6.2278e-17 
   4036.581   6.6152e-17 
   4038.115   6.5453e-17 
   4039.649   6.4075e-17 
   4041.183   6.8418e-17 
   4042.717   6.8907e-17 
    4044.25   6.9674e-17 
   4045.784   6.8468e-17 
   4047.318   8.8137e-17 
   4048.852   7.5342e-17 
   4050.386   5.4745e-17 
    4051.92   6.1323e-17 
   4053.454   7.1453e-17 
   4054.988    7.055e-17 
   4056.522   6.8678e-17 
   4058.056   6.3176e-17 
    4059.59    6.905e-17 
   4061.124   7.4682e-17 
   4062.658   7.0858e-17 
   4064.192    7.374e-17 
   4065.726   6.4088e-17 
    4067.26   7.0051e-17 
   4068.793   7.2022e-17 
   4070.327   7.3676e-17 
   4071.861   7.3786e-17 
   4073.395   7.7144e-17 
   4074.929   8.1984e-17 
   4076.463   6.7057e-17 
   4077.997   7.5434e-17 
   4079.531   7.3124e-17 
   4081.065   6.8218e-17 
   4082.599   6.7771e-17 
   4084.133   7.9104e-17 
   4085.667   7.1915e-17 
     4087.2   6.9742e-17 
   4088.734   6.6566e-17 
   4090.268   7.4317e-17 
   4091.802   6.6209e-17 
   4093.336   8.4275e-17 
    4094.87   8.3048e-17 
   4096.404   7.8551e-17 
   4097.938   8.2138e-17 
   4099.472    7.088e-17 
   4101.006   7.4054e-17 
    4102.54   8.4934e-17 
   4104.074   8.2797e-17 
   4105.608   7.2597e-17 
   4107.142   7.6151e-17 
   4108.676   7.7624e-17 
   4110.209   8.1105e-17 
   4111.743   8.9725e-17 
   4113.277   8.9009e-17 
   4114.811   8.0414e-17 
   4116.345   8.3006e-17 
   4117.879   7.5659e-17 
   4119.413    7.211e-17 
   4120.947   7.7083e-17 
   4122.481   8.5234e-17 
   4124.015   7.6248e-17 
   4125.549   7.8011e-17 
   4127.083   7.7414e-17 
   4128.617   8.5359e-17 
    4130.15   8.1561e-17 
   4131.685    7.822e-17 
   4133.218   7.0177e-17 
   4134.752   7.8471e-17 
   4136.286   8.1041e-17 
    4137.82   7.8102e-17 
   4139.354   8.0528e-17 
   4140.888   8.0578e-17 
   4142.422   9.0849e-17 
   4143.956   8.8699e-17 
    4145.49   8.0751e-17 
   4147.024   8.0884e-17 
   4148.558   8.7658e-17 
   4150.092   8.1586e-17 
   4151.625   7.3019e-17 
    4153.16    7.835e-17 
   4154.693    8.512e-17 
   4156.228   9.8174e-17 
   4157.761   8.2109e-17 
   4159.295   7.7764e-17 
   4160.829   7.6901e-17 
   4162.363   7.7836e-17 
   4163.897   7.6599e-17 
   4165.431   7.4635e-17 
   4166.965   7.8104e-17 
   4168.499   8.4593e-17 
   4170.033   8.0983e-17 
   4171.567   8.3504e-17 
   4173.101   7.7711e-17 
   4174.634   8.0483e-17 
   4176.168   8.1134e-17 
   4177.702   7.4782e-17 
   4179.236   8.0827e-17 
    4180.77   7.6352e-17 
   4182.304   7.2461e-17 
   4183.838   8.7139e-17 
   4185.372   8.6657e-17 
   4186.906   7.9924e-17 
    4188.44   7.8842e-17 
   4189.974   7.9041e-17 
   4191.508     8.59e-17 
   4193.042    8.254e-17 
   4194.576   7.1967e-17 
   4196.109   6.9647e-17 
   4197.644   7.4382e-17 
   4199.177   7.2621e-17 
   4200.711   7.5144e-17 
   4202.245   7.5199e-17 
   4203.779   7.7844e-17 
   4205.313   7.1803e-17 
   4206.847   7.3259e-17 
   4208.381   7.0965e-17 
   4209.915   7.1906e-17 
   4211.449   6.6518e-17 
   4212.983   6.6512e-17 
   4214.517   6.8964e-17 
   4216.051   7.5562e-17 
   4217.584    7.121e-17 
   4219.119   7.0947e-17 
   4220.652   6.9401e-17 
   4222.187   7.4381e-17 
    4223.72   7.4633e-17 
   4225.254   7.4055e-17 
   4226.788   6.9953e-17 
   4228.322   7.2767e-17 
   4229.856   6.9515e-17 
    4231.39   6.9294e-17 
   4232.924   7.6872e-17 
   4234.458   7.9434e-17 
   4235.992   7.5772e-17 
   4237.526   8.1951e-17 
    4239.06   7.5866e-17 
   4240.593    7.483e-17 
   4242.127   8.0772e-17 
   4243.661   7.9171e-17 
   4245.195   8.0978e-17 
   4246.729   7.9933e-17 
   4248.263    7.387e-17 
   4249.797   7.7935e-17 
   4251.331   8.7819e-17 
   4252.865   7.8965e-17 
   4254.399   8.5966e-17 
   4255.933   8.3793e-17 
   4257.467    7.453e-17 
     4259.0   8.3444e-17 
   4260.535    8.944e-17 
   4262.068    8.946e-17 
   4263.603   8.6761e-17 
   4265.136   9.0691e-17 
    4266.67   8.4254e-17 
   4268.204   8.1889e-17 
   4269.738    8.363e-17 
   4271.272     8.25e-17 
   4272.806   8.2965e-17 
    4274.34   9.2031e-17 
   4275.874   9.0986e-17 
   4277.408    8.175e-17 
   4278.942   8.5608e-17 
   4280.476   8.0021e-17 
    4282.01     8.19e-17 
   4283.543   9.4066e-17 
   4285.078   9.2323e-17 
   4286.611   9.1545e-17 
   4288.146   8.6996e-17 
   4289.679   9.0559e-17 
   4291.213   8.8222e-17 
   4292.747   8.2211e-17 
   4294.281    8.055e-17 
   4295.815   8.8541e-17 
   4297.349   9.0688e-17 
   4298.883   8.6976e-17 
   4300.417    8.899e-17 
   4301.951     9.08e-17 
   4303.484   9.4178e-17 
   4305.019   9.3892e-17 
   4306.552   9.1764e-17 
   4308.086   9.5242e-17 
    4309.62   8.5555e-17 
   4311.154   8.9809e-17 
   4312.688     8.67e-17 
   4314.222   8.3184e-17 
   4315.756   8.3301e-17 
    4317.29    8.229e-17 
   4318.824   8.2673e-17 
   4320.358    8.279e-17 
   4321.892   7.9614e-17 
   4323.426   8.6282e-17 
   4324.959   8.4174e-17 
   4326.494   8.7884e-17 
   4328.027   8.1081e-17 
   4329.562   8.2619e-17 
   4331.095   8.2715e-17 
   4332.629   8.4326e-17 
   4334.163   8.7158e-17 
   4335.697   8.9478e-17 
   4337.231    9.041e-17 
   4338.765   9.3988e-17 
   4340.299   8.3762e-17 
   4341.833   8.5333e-17 
   4343.367    8.742e-17 
   4344.901   8.6317e-17 
   4346.435   7.8203e-17 
   4347.969   7.7632e-17 
   4349.502   7.4623e-17 
   4351.037   7.5413e-17 
    4352.57   8.0936e-17 
   4354.104   8.6486e-17 
   4355.638   8.9405e-17 
   4357.172   9.0144e-17 
   4358.706   8.0879e-17 
    4360.24   9.0467e-17 
   4361.774    8.036e-17 
   4363.308   7.7376e-17 
   4364.842   8.5729e-17 
   4366.376   8.3708e-17 
    4367.91   8.1721e-17 
   4369.443   8.4273e-17 
   4370.978   7.7425e-17 
   4372.511   8.2586e-17 
   4374.045   8.6157e-17 
   4375.579   8.1447e-17 
   4377.113   8.5792e-17 
   4378.647   8.3795e-17 
   4380.181   7.5733e-17 
   4381.715   8.3336e-17 
   4383.249   8.8058e-17 
   4384.783   7.0442e-17 
   4386.317   7.2935e-17 
   4387.851   8.0779e-17 
   4389.385   7.9371e-17 
   4390.918   8.7276e-17 
   4392.453   9.7208e-17 
   4393.986   9.3248e-17 
   4395.521   7.7832e-17 
   4397.054   7.8541e-17 
   4398.588   7.0935e-17 
   4400.122   6.8299e-17 
   4401.656   7.8094e-17 
    4403.19   7.8721e-17 
   4404.724   9.0587e-17 
   4406.258   9.0432e-17 
   4407.792   8.4482e-17 
   4409.326      8.2e-17 
    4410.86   6.5636e-17 
   4412.394   7.6921e-17 
   4413.928   8.2782e-17 
   4415.461   7.5493e-17 
   4416.996   7.3765e-17 
   4418.529   7.7479e-17 
   4420.063   8.5386e-17 
   4421.597    7.813e-17 
   4423.131   7.8931e-17 
   4424.665   8.2349e-17 
   4426.199   7.4684e-17 
   4427.733   7.7442e-17 
   4429.267   7.2548e-17 
   4430.801   7.8212e-17 
   4432.334   7.8555e-17 
   4433.869   7.6407e-17 
   4435.402    7.151e-17 
   4436.937   7.5165e-17 
    4438.47   7.2223e-17 
   4440.004   7.8035e-17 
   4441.538   8.6731e-17 
   4443.072   8.5462e-17 
   4444.606   7.8687e-17 
    4446.14   7.7214e-17 
   4447.674   7.0781e-17 
   4449.208   7.5123e-17 
   4450.742   7.4402e-17 
   4452.276   7.0172e-17 
    4453.81   6.8624e-17 
   4455.344   7.5258e-17 
   4456.877    7.659e-17 
   4458.412   7.6686e-17 
   4459.945   8.1193e-17 
   4461.479   7.7535e-17 
   4463.013   7.2914e-17 
   4464.547   7.4078e-17 
   4466.081   7.3181e-17 
   4467.615   7.9957e-17 
   4469.149   8.4269e-17 
   4470.683   8.6791e-17 
   4472.217   8.0161e-17 
   4473.751   7.7731e-17 
   4475.285   8.0483e-17 
   4476.819   8.0364e-17 
   4478.353   8.1323e-17 
   4479.887    7.937e-17 
    4481.42   8.5308e-17 
   4482.955   7.5685e-17 
   4484.488   7.5938e-17 
   4486.022   7.5631e-17 
   4487.556   7.9551e-17 
    4489.09   8.3399e-17 
   4490.624   7.2057e-17 
   4492.158   7.1769e-17 
   4493.692   8.1328e-17 
   4495.226   8.7664e-17 
    4496.76   9.5073e-17 
   4498.293   8.3939e-17 
   4499.828   7.3557e-17 
   4501.361   8.1661e-17 
   4502.896   7.9278e-17 
   4504.429   7.0839e-17 
   4505.963   8.0314e-17 
   4507.497   7.7026e-17 
   4509.031    7.772e-17 
   4510.565   8.5949e-17 
   4512.099   7.8739e-17 
   4513.633    7.781e-17 
   4515.167   8.0806e-17 
   4516.701    8.918e-17 
   4518.235   9.3339e-17 
   4519.769   8.5528e-17 
   4521.303   8.0612e-17 
   4522.836   8.1855e-17 
   4524.371   7.8839e-17 
   4525.904   8.4805e-17 
   4527.438    8.633e-17 
   4528.972   8.2896e-17 
   4530.506   8.4153e-17 
    4532.04   8.5354e-17 
   4533.574    8.468e-17 
   4535.108   7.5163e-17 
   4536.642    7.854e-17 
   4538.176   8.7685e-17 
    4539.71   7.7275e-17 
   4541.244   9.0894e-17 
   4542.778   9.0443e-17 
   4544.312   9.2127e-17 
   4545.846   8.8449e-17 
   4547.379   8.4088e-17 
   4548.914   7.4454e-17 
   4550.447   7.6666e-17 
   4551.981   8.5998e-17 
   4553.515   9.0488e-17 
   4555.049   8.8864e-17 
   4556.583   8.6177e-17 
   4558.117   7.9917e-17 
   4559.651   8.3458e-17 
   4561.185    9.303e-17 
   4562.719   9.7269e-17 
   4564.252   8.6001e-17 
   4565.787   8.1133e-17 
    4567.32   8.9125e-17 
   4568.854   8.5542e-17 
   4570.388   8.4142e-17 
   4571.922   9.4641e-17 
   4573.456   8.8524e-17 
    4574.99    8.806e-17 
   4576.524   8.4409e-17 
   4578.058   8.6416e-17 
   4579.592   8.2199e-17 
   4581.126   7.6169e-17 
    4582.66   8.2078e-17 
   4584.194   8.3615e-17 
   4585.728   8.4433e-17 
   4587.262   8.0562e-17 
   4588.795   7.9511e-17 
    4590.33   9.3037e-17 
   4591.863   9.0844e-17 
   4593.397   8.5716e-17 
   4594.931   8.3534e-17 
   4596.465   9.3453e-17 
   4597.999    8.732e-17 
   4599.533   8.5929e-17 
   4601.067   8.4363e-17 
   4602.601   8.4919e-17 
   4604.135   8.4626e-17 
   4605.669   8.4091e-17 
   4607.203   9.3503e-17 
   4608.737   8.3593e-17 
   4610.271   7.8067e-17 
   4611.805   8.7847e-17 
   4613.338    8.631e-17 
   4614.873   8.8318e-17 
   4616.406   8.7533e-17 
    4617.94   8.4926e-17 
   4619.474   8.6306e-17 
   4621.008   8.2752e-17 
   4622.542    7.775e-17 
   4624.076   7.9026e-17 
    4625.61   8.2208e-17 
   4627.144   8.1013e-17 
   4628.678   7.8804e-17 
   4630.211   7.7936e-17 
   4631.746   7.6538e-17 
   4633.279   8.1129e-17 
   4634.813   7.5814e-17 
   4636.347   7.1547e-17 
   4637.881   7.2272e-17 
   4639.415    7.845e-17 
   4640.949   7.7956e-17 
   4642.483   7.3213e-17 
   4644.017   8.0341e-17 
   4645.551   8.1407e-17 
   4647.085   7.4301e-17 
   4648.619   7.4032e-17 
   4650.153    7.221e-17 
   4651.687   7.6812e-17 
   4653.221   7.7735e-17 
   4654.754     7.77e-17 
   4656.289   7.7387e-17 
   4657.822   8.1746e-17 
   4659.356   7.1203e-17 
    4660.89   7.5081e-17 
   4662.424   7.0243e-17 
   4663.958   6.4655e-17 
   4665.492   7.5495e-17 
   4667.026   6.8494e-17 
    4668.56   6.1597e-17 
   4670.094   6.5882e-17 
   4671.628   7.3823e-17 
   4673.162    7.721e-17 
   4674.696   7.6708e-17 
   4676.229   7.8107e-17 
   4677.764   6.9483e-17 
   4679.297   7.4771e-17 
   4680.832   6.4648e-17 
   4682.365   6.9376e-17 
   4683.899   7.4965e-17 
   4685.433    6.323e-17 
   4686.967   6.9486e-17 
   4688.501    6.551e-17 
   4690.035   7.7352e-17 
   4691.569   8.0283e-17 
   4693.103   7.2009e-17 
   4694.637   6.8827e-17 
    4696.17   7.4141e-17 
   4697.705    7.724e-17 
   4699.238   8.4611e-17 
   4700.772   7.7558e-17 
   4702.306   8.5556e-17 
    4703.84   8.0947e-17 
   4705.374   7.7301e-17 
   4706.908   6.7796e-17 
   4708.442   8.1448e-17 
   4709.976   8.0214e-17 
    4711.51   6.7161e-17 
   4713.044   7.4636e-17 
   4714.578   7.9531e-17 
   4716.112   6.8388e-17 
   4717.646    7.209e-17 
    4719.18   7.6768e-17 
   4720.713   7.8933e-17 
   4722.248   6.9761e-17 
   4723.781   7.3122e-17 
   4725.315   7.2481e-17 
   4726.849   7.9384e-17 
   4728.383   7.5548e-17 
   4729.917   7.8772e-17 
   4731.451   8.0177e-17 
   4732.985   8.0777e-17 
   4734.519   7.9677e-17 
   4736.053   7.9555e-17 
   4737.587   7.2156e-17 
   4739.121   6.7762e-17 
   4740.655   6.8046e-17 
   4742.188   6.8436e-17 
   4743.723   7.9437e-17 
   4745.256    8.439e-17 
   4746.791   7.5688e-17 
   4748.324   7.8097e-17 
   4749.858   5.6509e-17 
   4751.392   6.6745e-17 
   4752.926   7.7258e-17 
    4754.46   6.9599e-17 
   4755.994   7.1829e-17 
   4757.528   7.1565e-17 
   4759.062   7.6138e-17 
   4760.596   7.9096e-17 
   4762.129   7.1268e-17 
   4763.664      6.8e-17 
   4765.197   7.0562e-17 
   4766.731   6.9392e-17 
   4768.265   6.7031e-17 
   4769.799   7.5599e-17 
   4771.333   7.0761e-17 
   4772.867    6.861e-17 
   4774.401   7.2582e-17 
   4775.935   6.6611e-17 
   4777.469   6.9167e-17 
   4779.003   7.8189e-17 
   4780.537   7.4513e-17 
   4782.071   7.0374e-17 
   4783.604   6.4859e-17 
   4785.139   7.0444e-17 
   4786.672   6.7774e-17 
   4788.207   6.8735e-17 
    4789.74   7.0648e-17 
   4791.274   6.7706e-17 
   4792.808   6.7654e-17 
   4794.342   7.7817e-17 
   4795.876   7.5893e-17 
    4797.41   6.7182e-17 
   4798.944   6.7343e-17 
   4800.478   6.3283e-17 
   4802.012   6.6082e-17 
   4803.546   6.7125e-17 
    4805.08   7.2837e-17 
   4806.614   7.6006e-17 
   4808.147   6.1839e-17 
   4809.682   6.5543e-17 
   4811.215   5.5321e-17 
    4812.75   6.1884e-17 
   4814.283   7.0363e-17 
   4815.817   6.7072e-17 
   4817.351    6.822e-17 
   4818.885   6.5559e-17 
   4820.419   5.7631e-17 
   4821.953    6.949e-17 
   4823.487   6.3846e-17 
   4825.021   7.2131e-17 
   4826.555   7.0552e-17 
   4828.088   7.0289e-17 
   4829.623    7.335e-17 
   4831.156   7.1496e-17 
    4832.69   6.8408e-17 
   4834.224   7.0404e-17 
   4835.758   7.6301e-17 
   4837.292   6.9948e-17 
   4838.826   7.0139e-17 
    4840.36   7.6054e-17 
   4841.894   6.9501e-17 
   4843.428   7.0564e-17 
   4844.962   7.4628e-17 
   4846.496   6.6381e-17 
    4848.03   7.0336e-17 
   4849.563    7.212e-17 
   4851.098   7.4058e-17 
   4852.631   7.4603e-17 
   4854.166   7.1884e-17 
   4855.699   6.8336e-17 
   4857.233   7.9052e-17 
   4858.767   7.0813e-17 
   4860.301   7.1548e-17 
   4861.835   6.6913e-17 
   4863.369   6.9036e-17 
   4864.903   7.0299e-17 
   4866.437   6.6842e-17 
   4867.971   7.0726e-17 
   4869.505   7.4238e-17 
   4871.039   7.1585e-17 
   4872.573   7.0169e-17 
   4874.106   8.4459e-17 
   4875.641     8.02e-17 
   4877.174   7.2838e-17 
   4878.708    7.341e-17 
   4880.242   7.3686e-17 
   4881.776   6.7782e-17 
    4883.31   6.7959e-17 
   4884.844   7.4621e-17 
   4886.378   6.6473e-17 
   4887.912   5.8362e-17 
   4889.446   6.6466e-17 
   4890.979   7.1934e-17 
   4892.514    6.913e-17 
   4894.047   6.6312e-17 
   4895.582   7.2305e-17 
   4897.115   6.3989e-17 
   4898.649   6.4641e-17 
   4900.183   6.7408e-17 
   4901.717   6.9638e-17 
   4903.251   7.5573e-17 
   4904.785   7.9093e-17 
   4906.319   7.3244e-17 
   4907.853   6.9426e-17 
   4909.387   7.7083e-17 
   4910.921   7.9516e-17 
   4912.455    7.572e-17 
   4913.989   6.3974e-17 
   4915.522   7.3443e-17 
   4917.057   8.0565e-17 
    4918.59   7.4512e-17 
   4920.125   7.5974e-17 
   4921.658   7.6913e-17 
   4923.192   6.5515e-17 
   4924.726   7.1888e-17 
    4926.26   7.4273e-17 
   4927.794   7.5009e-17 
   4929.328   7.7044e-17 
   4930.862   7.8318e-17 
   4932.396   7.2336e-17 
    4933.93   6.6836e-17 
   4935.464   6.6186e-17 
   4936.998   6.8945e-17 
   4938.532   7.7946e-17 
   4940.065   7.9143e-17 
     4941.6   6.7122e-17 
   4943.133   6.6353e-17 
   4944.667   7.2022e-17 
   4946.201   6.1987e-17 
   4947.735   6.9885e-17 
   4949.269     7.34e-17 
   4950.803   6.7099e-17 
   4952.337   6.2543e-17 
   4953.871   6.8656e-17 
   4955.405   8.3327e-17 
   4956.938   7.1793e-17 
   4958.473    7.201e-17 
   4960.006   7.3198e-17 
   4961.541   8.1171e-17 
   4963.074   7.5813e-17 
   4964.608   7.4671e-17 
   4966.142   7.6218e-17 
   4967.676   7.1858e-17 
    4969.21   6.5832e-17 
   4970.744   6.3682e-17 
   4972.278   7.3372e-17 
   4973.812   8.1151e-17 
   4975.346   7.8679e-17 
    4976.88   7.5338e-17 
   4978.414   7.9009e-17 
   4979.948   7.6174e-17 
   4981.481   8.0349e-17 
   4983.016   6.9998e-17 
   4984.549   6.8308e-17 
   4986.083   7.6906e-17 
   4987.617   7.4883e-17 
   4989.151   7.6411e-17 
   4990.685   7.7895e-17 
   4992.219   7.4011e-17 
   4993.753    6.506e-17 
   4995.287   7.1154e-17 
   4996.821   7.3043e-17 
   4998.355   7.3782e-17 
   4999.889   7.6472e-17 
   5001.423   6.8683e-17 
   5002.957    7.906e-17 
   5004.491    8.073e-17 
   5006.024   7.5657e-17 
   5007.559   7.6422e-17 
   5009.092   7.6924e-17 
   5010.626   7.0411e-17 
    5012.16   8.0227e-17 
   5013.694   7.8127e-17 
   5015.228   6.8109e-17 
   5016.762   6.9577e-17 
   5018.296   7.5991e-17 
    5019.83   6.7562e-17 
   5021.364   6.9094e-17 
   5022.897   7.6971e-17 
   5024.432   7.7203e-17 
   5025.965   7.7047e-17 
     5027.5   7.1478e-17 
   5029.033   6.9574e-17 
   5030.567   7.2303e-17 
   5032.101   7.4767e-17 
   5033.635   6.9006e-17 
   5035.169   6.3814e-17 
   5036.703   6.0213e-17 
   5038.237   6.7061e-17 
   5039.771     6.01e-17 
   5041.305   5.8777e-17 
   5042.839   6.5034e-17 
   5044.373    6.816e-17 
   5045.907   6.5371e-17 
    5047.44   5.9268e-17 
   5048.975   6.1797e-17 
   5050.508   6.3703e-17 
   5052.042   6.5802e-17 
   5053.576   6.8673e-17 
    5055.11    6.853e-17 
   5056.644   6.4313e-17 
   5058.178    5.873e-17 
   5059.712   6.2829e-17 
   5061.246   5.8466e-17 
    5062.78   5.6023e-17 
   5064.314   7.2537e-17 
   5065.848   7.0306e-17 
   5067.382   6.5754e-17 
   5068.916   5.9886e-17 
    5070.45   6.3251e-17 
   5071.983    5.809e-17 
   5073.518    5.363e-17 
   5075.051   5.8486e-17 
   5076.585   6.3699e-17 
   5078.119    6.837e-17 
   5079.653   6.6575e-17 
   5081.187   6.0042e-17 
   5082.721   6.0487e-17 
   5084.255   5.3789e-17 
   5085.789   6.1903e-17 
   5087.323   6.3365e-17 
   5088.856   6.1158e-17 
   5090.391   5.5093e-17 
   5091.924   6.0545e-17 
   5093.458   6.3324e-17 
   5094.992   6.7146e-17 
   5096.526   6.5697e-17 
    5098.06   6.2045e-17 
   5099.594   6.0536e-17 
   5101.128   6.5385e-17 
   5102.662   5.9647e-17 
   5104.196   6.2269e-17 
    5105.73   6.3998e-17 
   5107.264   5.7334e-17 
   5108.798   5.6889e-17 
   5110.332   6.6739e-17 
   5111.866   5.7436e-17 
   5113.399    4.879e-17 
   5114.934   5.4645e-17 
   5116.467   7.1146e-17 
   5118.001   7.3186e-17 
   5119.535   6.9424e-17 
   5121.069   6.8945e-17 
   5122.603    5.684e-17 
   5124.137   5.4505e-17 
   5125.671   5.3827e-17 
   5127.205   5.5777e-17 
   5128.739    6.282e-17 
   5130.273   6.6702e-17 
   5131.807   5.5842e-17 
   5133.341   6.0353e-17 
   5134.875   6.2027e-17 
   5136.409   7.0962e-17 
   5137.942   6.3258e-17 
   5139.477   6.9046e-17 
    5141.01   6.4112e-17 
   5142.544   6.1095e-17 
   5144.078   6.5915e-17 
   5145.612   6.5718e-17 
   5147.146   6.5008e-17 
    5148.68   6.8907e-17 
   5150.214   7.0001e-17 
   5151.748   6.8245e-17 
   5153.282   6.7776e-17 
   5154.815   6.3356e-17 
    5156.35   5.7918e-17 
   5157.883   6.7327e-17 
   5159.417   7.5055e-17 
   5160.951   7.5439e-17 
   5162.485   7.2511e-17 
   5164.019    7.166e-17 
   5165.553   7.5509e-17 
   5167.087   6.3605e-17 
   5168.621   6.9429e-17 
   5170.155   7.2399e-17 
   5171.689   7.5714e-17 
   5173.223   7.4155e-17 
   5174.757   6.3012e-17 
   5176.291   7.0173e-17 
   5177.825   7.2891e-17 
   5179.358   6.9108e-17 
   5180.893   6.7622e-17 
   5182.426   6.8002e-17 
    5183.96   7.0258e-17 
   5185.494   6.8362e-17 
   5187.028   6.8065e-17 
   5188.562   6.4068e-17 
   5190.096   7.4857e-17 
    5191.63   7.0453e-17 
   5193.164   6.1258e-17 
   5194.698   7.2208e-17 
   5196.232   7.2396e-17 
   5197.766   7.5696e-17 
     5199.3   6.9423e-17 
   5200.833    6.428e-17 
   5202.368   6.9439e-17 
   5203.901   6.7568e-17 
   5205.435   6.5354e-17 
   5206.969   6.7579e-17 
   5208.503   7.0643e-17 
   5210.037   7.1947e-17 
   5211.571   7.1289e-17 
   5213.105   6.9247e-17 
   5214.639   7.3894e-17 
   5216.173   6.9268e-17 
   5217.707   6.5979e-17 
   5219.241    6.932e-17 
   5220.774   7.3185e-17 
   5222.309    7.899e-17 
   5223.842   6.9642e-17 
   5225.376   7.0669e-17 
    5226.91   7.0015e-17 
   5228.444   7.7023e-17 
   5229.978   6.7569e-17 
   5231.512   6.7464e-17 
   5233.046   7.6178e-17 
    5234.58   6.6091e-17 
   5236.114   6.4214e-17 
   5237.648   7.1656e-17 
   5239.182   7.4072e-17 
   5240.716   7.7598e-17 
    5242.25   7.3589e-17 
   5243.784   7.3745e-17 
   5245.317   6.8219e-17 
   5246.852   8.5839e-17 
   5248.385   7.9894e-17 
   5249.919   7.4896e-17 
   5251.453   7.8736e-17 
   5252.987    7.522e-17 
   5254.521   8.2918e-17 
   5256.055   8.8872e-17 
   5257.589   8.3416e-17 
   5259.123   8.8233e-17 
   5260.657   9.1139e-17 
   5262.191   7.9201e-17 
   5263.725   8.5543e-17 
   5265.259   8.5787e-17 
   5266.792   9.0127e-17 
   5268.327   8.8214e-17 
    5269.86   8.4608e-17 
   5271.394   8.7169e-17 
   5272.928   8.5681e-17 
   5274.462   7.4313e-17 
   5275.996   7.4285e-17 
    5277.53   7.0212e-17 
   5279.064    8.017e-17 
   5280.598   9.4477e-17 
   5282.132   8.8197e-17 
   5283.666   8.6784e-17 
     5285.2   9.0308e-17 
   5286.733   9.3238e-17 
   5288.268   8.6729e-17 
   5289.801    9.137e-17 
   5291.335   8.7556e-17 
   5292.869   9.3597e-17 
   5294.403   8.9999e-17 
   5295.937   8.3239e-17 
   5297.471   8.4785e-17 
   5299.005   8.0285e-17 
   5300.539   7.6285e-17 
   5302.073   8.8649e-17 
   5303.607   9.7629e-17 
   5305.141    8.955e-17 
   5306.675   8.9653e-17 
   5308.208   8.1153e-17 
   5309.743   8.3809e-17 
   5311.276    8.847e-17 
   5312.811   9.4476e-17 
   5314.344    8.213e-17 
   5315.878   8.3724e-17 
   5317.412   9.4027e-17 
   5318.946   1.0092e-16 
    5320.48   8.6158e-17 
   5322.014   7.4881e-17 
   5323.548   8.6453e-17 
   5325.082   9.0191e-17 
   5326.616   8.8648e-17 
    5328.15   8.3581e-17 
   5329.684   8.8162e-17 
   5331.218   1.0006e-16 
   5332.751   9.5069e-17 
   5334.285   9.0676e-17 
   5335.819   8.3102e-17 
   5337.353   8.6372e-17 
   5338.887   8.7477e-17 
   5340.421   8.8105e-17 
   5341.955   8.4455e-17 
   5343.489   8.5727e-17 
   5345.023   8.5618e-17 
   5346.557   9.0574e-17 
   5348.091   8.6008e-17 
   5349.625   8.5121e-17 
   5351.159   8.5617e-17 
   5352.692   8.5125e-17 
   5354.227   7.9566e-17 
    5355.76   8.9232e-17 
   5357.294   9.0195e-17 
   5358.828   8.3434e-17 
   5360.362   8.2066e-17 
   5361.896   8.6025e-17 
    5363.43   8.9638e-17 
   5364.964   8.8299e-17 
   5366.498   8.1965e-17 
   5368.032   7.7405e-17 
   5369.566    7.702e-17 
     5371.1   7.6272e-17 
   5372.634   9.2809e-17 
   5374.167   7.9038e-17 
   5375.702   7.4772e-17 
   5377.235   7.2939e-17 
    5378.77    7.695e-17 
   5380.303   7.9118e-17 
   5381.837   8.3646e-17 
   5383.371   8.4881e-17 
   5384.905   7.9226e-17 
   5386.439   7.5703e-17 
   5387.973   7.7097e-17 
   5389.507   7.6045e-17 
   5391.041   7.3659e-17 
   5392.575    7.588e-17 
   5394.109   7.9266e-17 
   5395.643   7.7604e-17 
   5397.177   7.2141e-17 
    5398.71   8.1129e-17 
   5400.244   8.0754e-17 
   5401.778   7.8204e-17 
   5403.312    7.318e-17 
   5404.846   7.9015e-17 
    5406.38   8.5171e-17 
   5407.914   8.2629e-17 
   5409.448   7.5057e-17 
   5410.982   6.9557e-17 
   5412.516   5.9853e-17 
    5414.05   7.7208e-17 
   5415.583   7.7337e-17 
   5417.118   7.0899e-17 
   5418.651   6.9866e-17 
   5420.186   6.0902e-17 
   5421.719   5.6887e-17 
   5423.253   7.2252e-17 
   5424.787   8.4524e-17 
   5426.321   8.1319e-17 
   5427.855   7.4868e-17 
   5429.389   6.6033e-17 
   5430.923   5.5294e-17 
   5432.457   6.6943e-17 
   5433.991   6.2783e-17 
   5435.525   6.7647e-17 
   5437.059   7.8152e-17 
   5438.593   7.6121e-17 
   5440.126   8.5509e-17 
   5441.661   9.7594e-17 
   5443.194    7.298e-17 
   5444.729   7.0754e-17 
   5446.262   7.8105e-17 
   5447.796   8.0575e-17 
    5449.33   7.5691e-17 
   5450.864   7.3689e-17 
   5452.398   9.3062e-17 
   5453.932   6.9178e-17 
   5455.466   5.1984e-17 
     5457.0   6.3677e-17 
   5458.534   8.4175e-17 
   5460.068   8.5049e-17 
   5461.602   7.9206e-17 
   5463.135   5.7541e-17 
   5464.669   6.9858e-17 
   5466.203   8.0775e-17 
   5467.737   6.1904e-17 
   5469.271   5.3366e-17 
   5470.805    7.319e-17 
   5472.339   8.2675e-17 
   5473.873   6.8181e-17 
   5475.407   5.9835e-17 
   5476.941   6.4505e-17 
   5478.475   6.6903e-17 
   5480.009   7.1528e-17 
   5481.542   7.3591e-17 
   5483.077   7.2053e-17 
    5484.61   9.1925e-17 
   5486.145   9.3263e-17 
   5487.678    9.186e-17 
   5489.212   7.8375e-17 
   5490.746   7.8305e-17 
    5492.28   6.6042e-17 
   5493.814   5.8215e-17 
   5495.348   7.2828e-17 
   5496.882   7.1113e-17 
   5498.416   9.2288e-17 
    5499.95   8.0575e-17 
   5501.484   7.3825e-17 
   5503.018   7.0151e-17 
   5504.552   6.7942e-17 
   5506.085   7.3604e-17 
    5507.62   7.1616e-17 
   5509.153   6.5349e-17 
   5510.688   6.7487e-17 
   5512.221   6.6434e-17 
   5513.755    6.792e-17 
   5515.289   5.7615e-17 
   5516.823     6.11e-17 
   5518.357   7.1118e-17 
   5519.891   6.3884e-17 
   5521.425   6.3375e-17 
   5522.959   6.3334e-17 
   5524.493    6.846e-17 
   5526.027   7.1278e-17 
   5527.561   6.9186e-17 
   5529.094   7.4112e-17 
   5530.628    7.741e-17 
   5532.162   6.8909e-17 
   5533.696   6.8458e-17 
    5535.23    8.021e-17 
   5536.764   7.0951e-17 
   5538.298   7.8102e-17 
   5539.832   7.1689e-17 
   5541.366   7.1021e-17 
     5542.9    8.131e-17 
   5544.434    7.643e-17 
   5545.968   6.8664e-17 
   5547.501   7.5188e-17 
   5549.036   7.6831e-17 
   5550.569   7.7659e-17 
   5552.104   7.4172e-17 
   5553.637   7.0998e-17 
   5555.171   7.9492e-17 
   5556.705    7.978e-17 
   5558.239   8.6789e-17 
   5559.773   8.3493e-17 
   5561.307   8.0094e-17 
   5562.841   7.7525e-17 
   5564.375   8.2578e-17 
   5565.909   7.9114e-17 
   5567.443   8.3596e-17 
   5568.977   7.6951e-17 
   5570.511   7.3569e-17 
   5572.044   1.0623e-16 
   5573.579   1.1232e-16 
   5575.112   9.6227e-17 
   5576.646   9.4852e-17 
    5578.18    8.544e-17 
   5579.714   8.2542e-17 
   5581.248   6.9952e-17 
   5582.782   7.5457e-17 
   5584.316    8.941e-17 
    5585.85    8.988e-17 
   5587.384    8.908e-17 
   5588.918   8.5098e-17 
   5590.452   8.8306e-17 
   5591.985    8.659e-17 
    5593.52   9.0049e-17 
   5595.053   8.2191e-17 
   5596.587   8.1259e-17 
   5598.121    9.336e-17 
   5599.655    8.539e-17 
   5601.189   7.2025e-17 
   5602.723   8.0706e-17 
   5604.257   7.5518e-17 
   5605.791   7.2071e-17 
   5607.325   7.5475e-17 
   5608.859   7.5771e-17 
   5610.393   7.9481e-17 
   5611.927   8.2252e-17 
    5613.46   7.4839e-17 
   5614.995   6.1165e-17 
   5616.528   6.5623e-17 
   5618.062    8.043e-17 
   5619.596   8.0781e-17 
    5621.13   6.9284e-17 
   5622.664   6.7296e-17 
   5624.198   6.6433e-17 
   5625.732   7.7185e-17 
   5627.266   7.7118e-17 
     5628.8    7.261e-17 
   5630.334   8.2379e-17 
   5631.868   7.6024e-17 
   5633.402   7.2819e-17 
   5634.936   6.9456e-17 
    5636.47   6.4216e-17 
   5638.003   6.8822e-17 
   5639.538   7.1814e-17 
   5641.071   7.4817e-17 
   5642.605   7.9745e-17 
   5644.139   7.7839e-17 
   5645.673   7.4728e-17 
   5647.207   7.7119e-17 
   5648.741   7.9901e-17 
   5650.275   7.5162e-17 
   5651.809   7.7304e-17 
   5653.343   6.7262e-17 
   5654.877   6.1837e-17 
   5656.411   7.5309e-17 
   5657.944   7.8384e-17 
   5659.479   7.2811e-17 
   5661.012   6.8755e-17 
   5662.546   7.0051e-17 
    5664.08   7.2584e-17 
   5665.614   7.4333e-17 
   5667.148   8.1038e-17 
   5668.682   7.9443e-17 
   5670.216   7.8934e-17 
    5671.75   8.4082e-17 
   5673.284    8.004e-17 
   5674.818   8.3887e-17 
   5676.352   9.8492e-17 
   5677.886   9.3576e-17 
   5679.419   9.0446e-17 
   5680.954   8.8893e-17 
   5682.487   7.8725e-17 
   5684.021   7.5137e-17 
   5685.555   7.9062e-17 
   5687.089   7.9663e-17 
   5688.623   8.3227e-17 
   5690.157   8.4441e-17 
   5691.691   8.4036e-17 
   5693.225   7.7751e-17 
   5694.759   7.3401e-17 
   5696.293   7.3302e-17 
   5697.827   8.6179e-17 
   5699.361   9.2785e-17 
   5700.895   8.9384e-17 
   5702.429   8.9125e-17 
   5703.962   7.2443e-17 
   5705.497   7.6891e-17 
    5707.03   8.6859e-17 
   5708.564   8.0066e-17 
   5710.098   8.0713e-17 
   5711.632    8.384e-17 
   5713.166   8.1906e-17 
     5714.7   9.1175e-17 
   5716.234   9.3805e-17 
   5717.768   8.8744e-17 
   5719.302   8.6317e-17 
   5720.835   7.3056e-17 
    5722.37   7.8762e-17 
   5723.903    9.283e-17 
   5725.438   8.7043e-17 
   5726.971   7.8863e-17 
   5728.505   8.4673e-17 
   5730.039   8.5628e-17 
   5731.573   8.3289e-17 
   5733.107   7.3126e-17 
   5734.641   8.2343e-17 
   5736.175   8.5902e-17 
   5737.709   8.6468e-17 
   5739.243   8.4605e-17 
   5740.777   8.2819e-17 
   5742.311   7.3941e-17 
   5743.845   7.5889e-17 
   5745.378   7.9509e-17 
   5746.913   7.9593e-17 
   5748.446   8.3003e-17 
    5749.98   7.4661e-17 
   5751.514   7.4881e-17 
   5753.048   8.5253e-17 
   5754.582   8.2647e-17 
   5756.116    7.651e-17 
    5757.65   8.5573e-17 
   5759.184   6.9045e-17 
   5760.718   7.3658e-17 
   5762.252   6.8696e-17 
   5763.786   6.9192e-17 
    5765.32   7.5601e-17 
   5766.854   7.5567e-17 
   5768.388   8.2109e-17 
   5769.921   7.6881e-17 
   5771.456   8.3675e-17 
   5772.989   8.1149e-17 
   5774.523   7.5117e-17 
   5776.057   7.9462e-17 
   5777.591   7.9181e-17 
   5779.125   7.8345e-17 
   5780.659   7.2773e-17 
   5782.193   7.4686e-17 
   5783.727   7.1894e-17 
   5785.261    7.757e-17 
   5786.794   7.9055e-17 
   5788.329   7.5429e-17 
   5789.862   7.1926e-17 
   5791.396   6.3721e-17 
    5792.93   6.7455e-17 
   5794.464   7.0673e-17 
   5795.998   6.6341e-17 
   5797.532   6.6912e-17 
   5799.066   7.7244e-17 
     5800.6   6.6336e-17 
   5802.134   6.2997e-17 
   5803.668   6.4311e-17 
   5805.202   5.9439e-17 
   5806.736   6.5353e-17 
    5808.27   6.5472e-17 
   5809.804   6.5779e-17 
   5811.337   7.1512e-17 
   5812.872   7.2999e-17 
   5814.405   7.0273e-17 
   5815.939   7.3387e-17 
   5817.473   7.5739e-17 
   5819.007   6.7512e-17 
   5820.541   6.5691e-17 
   5822.075   6.7649e-17 
   5823.609   7.0547e-17 
   5825.143    7.195e-17 
   5826.677   7.4069e-17 
   5828.211   7.0315e-17 
   5829.745   7.2969e-17 
   5831.279   7.1378e-17 
   5832.812    6.337e-17 
   5834.347   6.2158e-17 
    5835.88   6.5394e-17 
   5837.415   7.3181e-17 
   5838.948   7.6694e-17 
   5840.482   6.5115e-17 
   5842.016   6.2434e-17 
    5843.55   7.3303e-17 
   5845.084   7.6585e-17 
   5846.618   7.5532e-17 
   5848.152   7.6953e-17 
   5849.686   8.2504e-17 
    5851.22   7.9932e-17 
   5852.753   7.6648e-17 
   5854.288   7.7121e-17 
   5855.821   6.7176e-17 
   5857.355    6.283e-17 
   5858.889   7.1097e-17 
   5860.423   7.6993e-17 
   5861.957   8.0701e-17 
   5863.491   8.1578e-17 
   5865.025   7.1819e-17 
   5866.559    6.332e-17 
   5868.093   7.0701e-17 
   5869.627    8.126e-17 
   5871.161   7.7375e-17 
   5872.695   6.8921e-17 
   5874.229   7.8536e-17 
   5875.763   8.3293e-17 
   5877.296    8.092e-17 
   5878.831   7.9599e-17 
   5880.364   7.2018e-17 
   5881.898   7.1522e-17 
   5883.432   7.1068e-17 
   5884.966   7.7151e-17 
     5886.5   7.6225e-17 
   5888.034   5.5917e-17 
   5889.568   8.0392e-17 
   5891.102   8.3595e-17 
   5892.636   6.3207e-17 
    5894.17   6.1102e-17 
   5895.704   5.9668e-17 
   5897.238   6.4643e-17 
   5898.771   6.7166e-17 
   5900.306   7.3603e-17 
   5901.839    7.414e-17 
   5903.374   7.5419e-17 
   5904.907   7.7565e-17 
   5906.441   6.8504e-17 
   5907.975   7.2043e-17 
   5909.509    7.134e-17 
   5911.043   6.3429e-17 
   5912.577   6.4279e-17 
   5914.111   7.1528e-17 
   5915.645   8.8452e-17 
   5917.179   8.1815e-17 
   5918.712   7.5859e-17 
   5920.247   7.4274e-17 
    5921.78   7.3502e-17 
   5923.314   7.2029e-17 
   5924.848   6.6851e-17 
   5926.382   7.7371e-17 
   5927.916   7.9939e-17 
    5929.45   8.2921e-17 
   5930.984   7.8299e-17 
   5932.518   7.2131e-17 
   5934.052   5.8693e-17 
   5935.586    6.226e-17 
    5937.12     7.93e-17 
   5938.654   7.8853e-17 
   5940.188   7.3441e-17 
   5941.722   8.2835e-17 
   5943.255   7.6078e-17 
    5944.79   6.2736e-17 
   5946.323    7.006e-17 
   5947.857   6.9809e-17 
   5949.391   7.2763e-17 
   5950.925   7.0877e-17 
   5952.459   6.9474e-17 
   5953.993   7.0122e-17 
   5955.527   7.0807e-17 
   5957.061   6.6334e-17 
   5958.595   7.1529e-17 
   5960.129   7.3431e-17 
   5961.663   7.0425e-17 
   5963.197    7.247e-17 
    5964.73   7.5362e-17 
   5966.265   7.6298e-17 
   5967.798   7.6421e-17 
   5969.333   6.7555e-17 
   5970.866   7.0265e-17 
     5972.4    7.427e-17 
   5973.934   7.2313e-17 
   5975.468    7.146e-17 
   5977.002   7.6033e-17 
   5978.536   8.0075e-17 
    5980.07    7.635e-17 
   5981.604   7.8437e-17 
   5983.138   8.1452e-17 
   5984.671   7.9514e-17 
   5986.206   7.7751e-17 
   5987.739   8.1961e-17 
   5989.273   7.4407e-17 
   5990.807   7.8389e-17 
   5992.341   7.6986e-17 
   5993.875   7.5715e-17 
   5995.409   8.0823e-17 
   5996.943   8.2685e-17 
   5998.477   7.6295e-17 
   6000.011   8.0768e-17 
   6001.545   7.7973e-17 
   6003.079   7.0242e-17 
   6004.613   8.2458e-17 
   6006.146   8.1613e-17 
   6007.681    7.408e-17 
   6009.214    8.594e-17 
   6010.749   8.5709e-17 
   6012.282   7.3236e-17 
   6013.816   6.9118e-17 
    6015.35   7.9424e-17 
   6016.884   8.7822e-17 
   6018.418   8.3261e-17 
   6019.952   8.0512e-17 
   6021.486   8.0039e-17 
    6023.02   8.2352e-17 
   6024.554   8.2819e-17 
   6026.088   7.6043e-17 
   6027.622   7.6197e-17 
   6029.156    7.948e-17 
   6030.689   8.0668e-17 
   6032.224   7.9167e-17 
   6033.757   7.8097e-17 
   6035.292   7.9466e-17 
   6036.825   8.0123e-17 
   6038.359   8.0576e-17 
   6039.893   8.5873e-17 
   6041.427   9.5883e-17 
   6042.961   8.8936e-17 
   6044.495   7.5876e-17 
   6046.029   8.5086e-17 
   6047.562   8.8297e-17 
   6049.097   8.9211e-17 
    6050.63   8.7427e-17 
   6052.165   7.4741e-17 
   6053.698   7.3871e-17 
   6055.232   8.2617e-17 
   6056.766   8.3353e-17 
     6058.3   8.0351e-17 
   6059.834   7.8796e-17 
   6061.368   8.2473e-17 
   6062.902   7.8057e-17 
   6064.436   8.0145e-17 
    6065.97   9.0386e-17 
   6067.504   8.1781e-17 
   6069.038   8.2727e-17 
   6070.572   8.4143e-17 
   6072.105     7.89e-17 
    6073.64   8.4317e-17 
   6075.173   8.9581e-17 
   6076.708   8.4459e-17 
   6078.241   7.7268e-17 
   6079.775    7.881e-17 
   6081.309   7.1424e-17 
   6082.843    7.325e-17 
   6084.377   8.8256e-17 
   6085.911   8.6917e-17 
   6087.445   8.4623e-17 
   6088.979   8.3636e-17 
   6090.513   7.5362e-17 
   6092.047   7.9732e-17 
   6093.581   8.6131e-17 
   6095.115   8.4918e-17 
   6096.648   8.5299e-17 
   6098.183   8.1543e-17 
   6099.716   7.7917e-17 
    6101.25   9.0853e-17 
   6102.784   9.0855e-17 
   6104.318    8.749e-17 
   6105.852   8.6744e-17 
   6107.386   8.0464e-17 
    6108.92   7.9633e-17 
   6110.454   7.8005e-17 
   6111.988   7.9182e-17 
   6113.521   8.0572e-17 
   6115.056   7.8084e-17 
   6116.589   8.6871e-17 
   6118.124   9.0473e-17 
   6119.657   9.3694e-17 
   6121.191   8.8057e-17 
   6122.725   8.0555e-17 
   6124.259   8.4169e-17 
   6125.793   8.8013e-17 
   6127.327   8.6978e-17 
   6128.861   8.3847e-17 
   6130.395   8.7147e-17 
   6131.929   8.8884e-17 
   6133.463   8.7567e-17 
   6134.997   7.9181e-17 
   6136.531   7.0918e-17 
   6138.064   9.2064e-17 
   6139.599   1.0314e-16 
   6141.132   9.1191e-17 
   6142.667   8.7867e-17 
     6144.2   9.2509e-17 
   6145.734   9.3749e-17 
   6147.268   8.6501e-17 
   6148.802     7.84e-17 
   6150.336   8.4838e-17 
    6151.87   8.4359e-17 
   6153.404   8.4252e-17 
   6154.938   7.9026e-17 
   6156.472   8.4999e-17 
   6158.006   8.3007e-17 
    6159.54   8.4925e-17 
   6161.074   8.5229e-17 
   6162.607   8.7417e-17 
   6164.142    8.952e-17 
   6165.675   8.7068e-17 
   6167.209   8.8009e-17 
   6168.743   8.3948e-17 
   6170.277   8.5333e-17 
   6171.811   9.0312e-17 
   6173.345   7.9146e-17 
   6174.879   8.1822e-17 
   6176.413   8.0669e-17 
   6177.947   7.7285e-17 
    6179.48   8.1393e-17 
   6181.015   8.5439e-17 
   6182.548   8.3355e-17 
   6184.083   9.1642e-17 
   6185.616   8.8737e-17 
    6187.15   7.7381e-17 
   6188.684    8.144e-17 
   6190.218   8.0144e-17 
   6191.752   8.5405e-17 
   6193.286   7.9517e-17 
    6194.82   7.8725e-17 
   6196.354   8.5638e-17 
   6197.888   8.5846e-17 
   6199.422   8.1839e-17 
   6200.956   8.3066e-17 
    6202.49   7.9082e-17 
   6204.023   8.4046e-17 
   6205.558   8.6399e-17 
   6207.091   8.1868e-17 
   6208.625   7.6626e-17 
   6210.159   7.5448e-17 
   6211.693   7.7385e-17 
   6213.227   7.9055e-17 
   6214.761   7.7635e-17 
   6216.295   8.2338e-17 
   6217.829   8.6247e-17 
   6219.363   7.5954e-17 
   6220.897   7.6393e-17 
   6222.431    8.768e-17 
   6223.965   8.1455e-17 
   6225.499   8.4492e-17 
   6227.033   8.3943e-17 
   6228.566   7.8426e-17 
   6230.101   8.9254e-17 
   6231.634   8.8114e-17 
   6233.168   8.2316e-17 
   6234.702   8.5641e-17 
   6236.236   8.3535e-17 
    6237.77   8.8174e-17 
   6239.304   8.9783e-17 
   6240.838   8.5119e-17 
   6242.372   7.7185e-17 
   6243.906   8.3103e-17 
   6245.439   7.8042e-17 
   6246.974   7.7449e-17 
   6248.507   8.1719e-17 
   6250.042   8.4328e-17 
   6251.575   8.4427e-17 
   6253.109   9.5677e-17 
   6254.643   9.0483e-17 
   6256.177   8.7441e-17 
   6257.711   8.4983e-17 
   6259.245   8.7591e-17 
   6260.779   7.7826e-17 
   6262.313   7.2436e-17 
   6263.847   7.9009e-17 
   6265.381   7.9068e-17 
   6266.915   7.5053e-17 
   6268.449   7.5629e-17 
   6269.982    7.578e-17 
   6271.517   7.8982e-17 
    6273.05   9.5204e-17 
   6274.584   9.1137e-17 
   6276.118   8.4987e-17 
   6277.652   8.6924e-17 
   6279.186   7.7231e-17 
    6280.72   8.3926e-17 
   6282.254   8.9498e-17 
   6283.788   8.1102e-17 
   6285.322    7.928e-17 
   6286.856   8.2518e-17 
    6288.39   7.5458e-17 
   6289.924   7.5715e-17 
   6291.458   8.1071e-17 
   6292.992   8.0323e-17 
   6294.525   8.8627e-17 
    6296.06   9.6431e-17 
   6297.593   8.9999e-17 
   6299.127   7.2272e-17 
   6300.661   7.6794e-17 
   6302.195   7.9195e-17 
   6303.729   7.8125e-17 
   6305.263   8.4884e-17 
   6306.797   7.8666e-17 
   6308.331   7.7782e-17 
   6309.865   8.1546e-17 
   6311.398   7.7507e-17 
   6312.933   7.4737e-17 
   6314.466   8.5514e-17 
     6316.0   8.7447e-17 
   6317.534   8.6773e-17 
   6319.068   8.9559e-17 
   6320.602   8.4465e-17 
   6322.136   8.1731e-17 
    6323.67   8.6737e-17 
   6325.204   8.6405e-17 
   6326.738   8.5779e-17 
   6328.272    8.762e-17 
   6329.806   8.6665e-17 
    6331.34   7.3269e-17 
   6332.874    7.917e-17 
   6334.408   8.2722e-17 
   6335.941   8.5815e-17 
   6337.476   8.3111e-17 
   6339.009   7.7128e-17 
   6340.543   8.0036e-17 
   6342.077   8.5071e-17 
   6343.611   7.9993e-17 
   6345.145   7.7344e-17 
   6346.679   8.4205e-17 
   6348.213   8.5353e-17 
   6349.747   8.4396e-17 
   6351.281   7.8135e-17 
   6352.815   7.5622e-17 
   6354.349   7.6187e-17 
   6355.883   8.9607e-17 
   6357.417   8.3289e-17 
   6358.951   7.4464e-17 
   6360.484   8.6446e-17 
   6362.019   8.4075e-17 
   6363.552   7.5643e-17 
   6365.086   7.6041e-17 
    6366.62   7.5321e-17 
   6368.154   8.5473e-17 
   6369.688   8.3988e-17 
   6371.222   7.4881e-17 
   6372.756   7.6277e-17 
    6374.29   8.2945e-17 
   6375.824   8.5291e-17 
   6377.357   7.6902e-17 
   6378.892   8.1877e-17 
   6380.425   8.8068e-17 
   6381.959   8.1301e-17 
   6383.493   8.2717e-17 
   6385.027   8.5747e-17 
   6386.561   7.6887e-17 
   6388.095   7.6253e-17 
   6389.629   8.1972e-17 
   6391.163   7.8557e-17 
   6392.697   7.7326e-17 
   6394.231    7.912e-17 
   6395.765   7.9876e-17 
   6397.299   8.1476e-17 
   6398.833   7.8849e-17 
   6400.367   8.3706e-17 
     6401.9    8.797e-17 
   6403.435   8.1894e-17 
   6404.968   7.9408e-17 
   6406.502   7.6465e-17 
   6408.036   7.2153e-17 
    6409.57   7.6311e-17 
   6411.104    8.212e-17 
   6412.638   7.8046e-17 
   6414.172   7.5808e-17 
   6415.706   8.4534e-17 
    6417.24   8.1289e-17 
   6418.774   7.6396e-17 
   6420.308   8.4362e-17 
   6421.842   7.4703e-17 
   6423.375   7.5155e-17 
    6424.91   9.0969e-17 
   6426.443   8.3182e-17 
   6427.978   7.7302e-17 
   6429.511   7.6085e-17 
   6431.045   7.4329e-17 
   6432.579   7.3122e-17 
   6434.113   7.5543e-17 
   6435.647    7.539e-17 
   6437.181   7.7836e-17 
   6438.715     8.27e-17 
   6440.249   7.9806e-17 
   6441.783   7.8104e-17 
   6443.316   8.1587e-17 
   6444.851   8.1018e-17 
   6446.384   7.6585e-17 
   6447.918   7.5299e-17 
   6449.452   7.1853e-17 
   6450.986   7.5612e-17 
    6452.52   7.6595e-17 
   6454.054   7.3212e-17 
   6455.588    7.217e-17 
   6457.122   7.2408e-17 
   6458.656   7.7418e-17 
    6460.19   8.7008e-17 
   6461.724   9.3445e-17 
   6463.258   8.0958e-17 
   6464.792   7.4398e-17 
   6466.326   8.1832e-17 
   6467.859   8.0275e-17 
   6469.394   7.4431e-17 
   6470.927   7.9644e-17 
   6472.461   7.7066e-17 
   6473.995   7.3061e-17 
   6475.529   7.1839e-17 
   6477.063   6.7215e-17 
   6478.597   6.9865e-17 
   6480.131   6.9025e-17 
   6481.665     7.24e-17 
   6483.199   7.7344e-17 
   6484.733   7.4123e-17 
   6486.267   7.3629e-17 
   6487.801   6.8551e-17 
   6489.334   7.2231e-17 
   6490.869   7.5715e-17 
   6492.402   7.0816e-17 
   6493.937    7.773e-17 
    6495.47   7.5105e-17 
   6497.004   7.0712e-17 
   6498.538   7.5365e-17 
   6500.072   7.8344e-17 
   6501.606   7.4106e-17 
    6503.14    7.116e-17 
   6504.674   7.5653e-17 
   6506.208   7.8131e-17 
   6507.742   8.1221e-17 
   6509.275   7.5913e-17 
    6510.81   7.0174e-17 
   6512.343    7.123e-17 
   6513.877   7.3445e-17 
   6515.411   7.5972e-17 
   6516.945   7.2475e-17 
   6518.479   6.5419e-17 
   6520.013   6.3828e-17 
   6521.547   6.6752e-17 
   6523.081   6.9323e-17 
   6524.615   7.2594e-17 
   6526.149   7.1325e-17 
   6527.683   6.6014e-17 
   6529.217   6.6943e-17 
    6530.75   7.3624e-17 
   6532.285   7.3424e-17 
   6533.818   7.6463e-17 
   6535.353   7.6815e-17 
   6536.886   6.6408e-17 
    6538.42    6.812e-17 
   6539.954    7.654e-17 
   6541.488   7.3236e-17 
   6543.022   6.7736e-17 
   6544.556   7.2347e-17 
    6546.09   7.4505e-17 
   6547.624   6.6598e-17 
   6549.158   7.2131e-17 
   6550.692   7.3212e-17 
   6552.226   7.8944e-17 
    6553.76   8.0396e-17 
   6555.293   7.6925e-17 
   6556.828   8.0937e-17 
   6558.361   7.9895e-17 
   6559.895   7.9003e-17 
   6561.429   7.6806e-17 
   6562.963   7.8153e-17 
   6564.497   8.3933e-17 
   6566.031   7.9932e-17 
   6567.565    8.178e-17 
   6569.099   8.1375e-17 
   6570.633   7.1895e-17 
   6572.167   6.7966e-17 
   6573.701     6.93e-17 
   6575.234   7.1929e-17 
   6576.769   6.9449e-17 
   6578.302   6.5507e-17 
   6579.836   6.5031e-17 
    6581.37   7.1035e-17 
   6582.904    7.437e-17 
   6584.438   6.6403e-17 
   6585.972   6.4094e-17 
   6587.506    6.936e-17 
    6589.04   7.1212e-17 
   6590.574   6.6662e-17 
   6592.108   6.0485e-17 
   6593.642   6.1083e-17 
   6595.176   6.3708e-17 
   6596.709    6.478e-17 
   6598.244    6.525e-17 
   6599.777   6.1911e-17 
   6601.312   6.3251e-17 
   6602.845   7.4483e-17 
   6604.379   7.2313e-17 
   6605.913   7.0613e-17 
   6607.447   7.4096e-17 
   6608.981    6.697e-17 
   6610.515   6.1787e-17 
   6612.049   5.9829e-17 
   6613.583   6.2597e-17 
   6615.117   6.8328e-17 
   6616.651   7.0891e-17 
   6618.185   7.0073e-17 
   6619.719   6.9577e-17 
   6621.252   6.8532e-17 
   6622.787   6.7558e-17 
    6624.32   6.6018e-17 
   6625.854   6.5929e-17 
   6627.388   6.9273e-17 
   6628.922   7.2362e-17 
   6630.456   7.2015e-17 
    6631.99   6.7191e-17 
   6633.524   6.7954e-17 
   6635.058   6.8901e-17 
   6636.592   6.5404e-17 
   6638.125   6.7704e-17 
    6639.66    6.733e-17 
   6641.193   6.8854e-17 
   6642.728   6.6423e-17 
   6644.261   6.2641e-17 
   6645.795   6.1313e-17 
   6647.329    5.835e-17 
   6648.863   6.4637e-17 
   6650.397   7.2001e-17 
   6651.931   6.4582e-17 
   6653.465   6.2444e-17 
   6654.999   7.0922e-17 
   6656.533   7.0202e-17 
   6658.067   6.4934e-17 
   6659.601   6.0416e-17 
   6661.135   6.0334e-17 
   6662.668   5.7975e-17 
   6664.203   6.3603e-17 
   6665.736   7.1359e-17 
   6667.271   6.5435e-17 
   6668.804     6.31e-17 
   6670.338    6.478e-17 
   6671.872   6.1789e-17 
   6673.406   7.0434e-17 
    6674.94   7.2324e-17 
   6676.474   6.9556e-17 
   6678.008   6.4138e-17 
   6679.542   5.7494e-17 
   6681.076   5.7359e-17 
    6682.61   5.9699e-17 
   6684.144   6.4265e-17 
   6685.678   6.5253e-17 
   6687.211   6.4729e-17 
   6688.745   6.1955e-17 
   6690.279   5.9866e-17 
   6691.813   5.8808e-17 
   6693.347   6.6235e-17 
   6694.881   7.1206e-17 
   6696.415   6.1685e-17 
   6697.949   6.2466e-17 
   6699.483   6.4555e-17 
   6701.017   5.9826e-17 
   6702.551   6.0971e-17 
   6704.084   5.7423e-17 
   6705.619   5.6699e-17 
   6707.152   5.5742e-17 
   6708.687   5.4944e-17 
    6710.22    5.758e-17 
   6711.754   6.0879e-17 
   6713.288    6.024e-17 
   6714.822   5.9825e-17 
   6716.356   6.0546e-17 
    6717.89   5.9646e-17 
   6719.424   6.4906e-17 
   6720.958   6.8585e-17 
   6722.492   6.2377e-17 
   6724.026   5.8604e-17 
    6725.56    6.045e-17 
   6727.094   6.1145e-17 
   6728.627   6.5506e-17 
   6730.162   6.1457e-17 
   6731.695   6.2074e-17 
   6733.229   6.4359e-17 
   6734.763   6.2812e-17 
   6736.297   6.1773e-17 
   6737.831    6.212e-17 
   6739.365   6.3922e-17 
   6740.899   6.3332e-17 
   6742.433   6.7743e-17 
   6743.967   6.6093e-17 
   6745.501   6.1162e-17 
   6747.035   6.4243e-17 
   6748.569   6.2733e-17 
   6750.103   6.2801e-17 
   6751.637   6.5789e-17 
    6753.17   6.4599e-17 
   6754.704   5.8282e-17 
   6756.238   5.9235e-17 
   6757.772   6.4162e-17 
   6759.306    5.996e-17 
    6760.84   6.1659e-17 
   6762.374   6.8442e-17 
   6763.908   6.3358e-17 
   6765.442   5.8989e-17 
   6766.976   6.4661e-17 
    6768.51   6.8508e-17 
   6770.043   6.2692e-17 
   6771.578   6.2723e-17 
   6773.111   6.0245e-17 
   6774.646   6.2171e-17 
   6776.179   6.5548e-17 
   6777.713     6.31e-17 
   6779.247   5.9537e-17 
   6780.781   6.0094e-17 
   6782.315   6.4119e-17 
   6783.849   6.5107e-17 
   6785.383    6.371e-17 
   6786.917   6.0279e-17 
   6788.451   5.8198e-17 
   6789.985    5.995e-17 
   6791.519   5.7956e-17 
   6793.053   5.5804e-17 
   6794.586   6.1109e-17 
   6796.121    6.803e-17 
   6797.654   6.6701e-17 
   6799.188   6.2922e-17 
   6800.722   6.0018e-17 
   6802.256   5.6904e-17 
    6803.79   6.5942e-17 
   6805.324    6.634e-17 
   6806.858   6.0356e-17 
   6808.392   6.2688e-17 
   6809.926   6.2014e-17 
    6811.46   6.1794e-17 
   6812.994   6.2462e-17 
   6814.528    5.816e-17 
   6816.062   6.2682e-17 
   6817.595   6.7994e-17 
   6819.129   6.4187e-17 
   6820.663   6.5023e-17 
   6822.197   6.7229e-17 
   6823.731   6.2534e-17 
   6825.265   6.6938e-17 
   6826.799   6.8047e-17 
   6828.333   6.3073e-17 
   6829.867   6.8987e-17 
   6831.401   6.5148e-17 
   6832.935    5.842e-17 
   6834.469   6.5555e-17 
   6836.002   6.5736e-17 
   6837.537   6.2009e-17 
    6839.07   6.3015e-17 
   6840.604   5.8986e-17 
   6842.138   5.9541e-17 
   6843.672   5.9612e-17 
   6845.206   6.2953e-17 
    6846.74   6.2404e-17 
   6848.274   5.7264e-17 
   6849.808   5.5457e-17 
   6851.342   5.9614e-17 
   6852.876   6.3819e-17 
    6854.41   6.9608e-17 
   6855.944   6.7157e-17 
   6857.478   6.3018e-17 
   6859.012   7.1155e-17 
   6860.545   7.1747e-17 
    6862.08   6.3908e-17 
   6863.613   6.3533e-17 
   6865.147   6.5777e-17 
   6866.681   6.3679e-17 
   6868.215     5.71e-17 
   6869.749   5.5625e-17 
   6871.283   5.9576e-17 
   6872.817   6.0813e-17 
   6874.351   5.9861e-17 
   6875.885   6.1717e-17 
   6877.419   6.2363e-17 
   6878.953   6.3237e-17 
   6880.487   6.6916e-17 
   6882.021    6.396e-17 
   6883.554   5.7058e-17 
   6885.088   5.8862e-17 
   6886.622   6.1196e-17 
   6888.156    6.108e-17 
    6889.69   6.1635e-17 
   6891.224    6.487e-17 
   6892.758   6.4705e-17 
   6894.292   6.1693e-17 
   6895.826   5.8279e-17 
    6897.36   5.7048e-17 
   6898.894   5.3623e-17 
   6900.428   5.9874e-17 
   6901.961   6.0895e-17 
   6903.496   4.8906e-17 
   6905.029   5.4275e-17 
   6906.563   6.3467e-17 
   6908.097   6.3135e-17 
   6909.631   6.3128e-17 
   6911.165   6.1522e-17 
   6912.699    5.734e-17 
   6914.233    5.593e-17 
   6915.767   5.3952e-17 
   6917.301   5.6389e-17 
   6918.835   5.5019e-17 
   6920.369   5.5904e-17 
   6921.903   6.4282e-17 
   6923.437   6.4866e-17 
   6924.971   5.9108e-17 
   6926.504   5.8725e-17 
   6928.039   6.1993e-17 
   6929.572   5.9139e-17 
   6931.106    5.305e-17 
    6932.64   5.3973e-17 
   6934.174   5.6075e-17 
   6935.708   5.6144e-17 
   6937.242    5.686e-17 
   6938.776   6.3149e-17 
    6940.31   6.2641e-17 
   6941.844   6.0138e-17 
   6943.378   5.7104e-17 
   6944.912   5.8182e-17 
   6946.445   6.0293e-17 
   6947.979   5.8029e-17 
   6949.513   5.9406e-17 
   6951.047   6.4248e-17 
   6952.581   6.2095e-17 
   6954.115   5.2072e-17 
   6955.649   5.6554e-17 
   6957.183   6.0683e-17 
   6958.717   5.3267e-17 
   6960.251   5.3773e-17 
   6961.785   6.2466e-17 
   6963.319   5.8752e-17 
   6964.853   4.8925e-17 
   6966.387   5.0616e-17 
    6967.92   5.1795e-17 
   6969.455   5.8608e-17 
   6970.988   6.0747e-17 
   6972.522   5.0444e-17 
   6974.056   5.3376e-17 
    6975.59   6.1664e-17 
   6977.124   5.8783e-17 
   6978.658   5.4976e-17 
   6980.192   5.5869e-17 
   6981.726   5.3497e-17 
    6983.26   5.7151e-17 
   6984.794    6.037e-17 
   6986.328   5.7769e-17 
   6987.862   5.6719e-17 
   6989.396     5.82e-17 
    6990.93   5.5028e-17 
   6992.463   5.3065e-17 
   6993.998   5.7529e-17 
   6995.531   5.3519e-17 
   6997.065   5.3814e-17 
   6998.599   5.7027e-17 
   7000.133   5.6788e-17 
   7001.667   5.6719e-17 
   7003.201   5.5144e-17 
   7004.735   5.2209e-17 
   7006.269   5.2961e-17 
   7007.803   5.4294e-17 
   7009.337   4.9045e-17 
   7010.871   4.9368e-17 
   7012.404   5.4905e-17 
   7013.938   5.7625e-17 
   7015.472   5.5108e-17 
   7017.006   5.3643e-17 
    7018.54   5.3157e-17 
   7020.074   5.6355e-17 
   7021.608   5.5656e-17 
   7023.142   4.9005e-17 
   7024.676   5.3417e-17 
    7026.21   5.7593e-17 
   7027.744   5.7813e-17 
   7029.278   6.0677e-17 
   7030.812   5.9669e-17 
   7032.346   5.2674e-17 
   7033.879   5.3656e-17 
   7035.414   6.2556e-17 
   7036.947   6.0549e-17 
   7038.481   5.6555e-17 
   7040.015   5.9588e-17 
   7041.549   5.4861e-17 
   7043.083   5.2138e-17 
   7044.617   5.9701e-17 
   7046.151   6.4697e-17 
   7047.685   5.2049e-17 
   7049.219   5.0777e-17 
   7050.753    5.302e-17 
   7052.287    5.171e-17 
   7053.821   5.7078e-17 
   7055.354   5.8549e-17 
   7056.889   5.6898e-17 
   7058.422   5.5327e-17 
   7059.957   5.1912e-17 
    7061.49   5.4018e-17 
   7063.024   6.2146e-17 
   7064.558   6.3473e-17 
   7066.092   5.9053e-17 
   7067.626   5.7848e-17 
    7069.16   5.6932e-17 
   7070.694   5.7044e-17 
   7072.228   6.0652e-17 
   7073.762   5.4192e-17 
   7075.295   4.8178e-17 
    7076.83   5.5046e-17 
   7078.363   6.0675e-17 
   7079.897   5.7343e-17 
   7081.431   5.4678e-17 
   7082.965   5.7092e-17 
   7084.499   5.8357e-17 
   7086.033   5.5663e-17 
   7087.567   5.4656e-17 
   7089.101   5.5279e-17 
   7090.635   5.3157e-17 
   7092.169    5.797e-17 
   7093.703   5.6476e-17 
   7095.237   5.3903e-17 
   7096.771   5.4815e-17 
   7098.305   4.9008e-17 
   7099.838   4.6687e-17 
   7101.373   5.1673e-17 
   7102.906   5.6643e-17 
    7104.44   5.0513e-17 
   7105.974   5.0276e-17 
   7107.508   5.3811e-17 
   7109.042   5.7991e-17 
   7110.576   5.6598e-17 
    7112.11   5.0308e-17 
   7113.644   5.1786e-17 
   7115.178   5.3969e-17 
   7116.712   5.2542e-17 
   7118.246   5.7251e-17 
    7119.78   5.6938e-17 
   7121.313   4.8427e-17 
   7122.848   5.2076e-17 
   7124.381   5.4685e-17 
   7125.916   5.1915e-17 
   7127.449   5.1134e-17 
   7128.983   4.9416e-17 
   7130.517   5.5817e-17 
   7132.051   6.0498e-17 
   7133.585   5.6554e-17 
   7135.119   5.4623e-17 
   7136.653   5.7606e-17 
   7138.187   5.8431e-17 
   7139.721   5.5406e-17 
   7141.254   5.4092e-17 
   7142.789   5.6312e-17 
   7144.322   5.4493e-17 
   7145.856   5.5763e-17 
    7147.39    5.505e-17 
   7148.924   4.9804e-17 
   7150.458   5.4195e-17 
   7151.992   5.7078e-17 
   7153.526   5.0104e-17 
    7155.06   5.0883e-17 
   7156.594   5.3216e-17 
   7158.128   5.2416e-17 
   7159.662   5.3379e-17 
   7161.196   5.4035e-17 
   7162.729   5.6407e-17 
   7164.264   5.4692e-17 
   7165.797   5.5494e-17 
   7167.332   5.3287e-17 
   7168.865   5.2125e-17 
   7170.399   4.9111e-17 
   7171.933   5.1271e-17 
   7173.467   4.8599e-17 
   7175.001   5.5992e-17 
   7176.535   5.9717e-17 
   7178.069    6.104e-17 
   7179.603   5.6825e-17 
   7181.137    5.234e-17 
   7182.671   5.1328e-17 
   7184.205   5.5306e-17 
   7185.739   5.7418e-17 
   7187.272   5.2474e-17 
   7188.807    5.471e-17 
    7190.34   5.4421e-17 
   7191.875   5.6832e-17 
   7193.408   5.7433e-17 
   7194.942   5.5947e-17 
   7196.476   5.4065e-17 
    7198.01   5.3396e-17 
   7199.544   5.2148e-17 
   7201.078   5.3065e-17 
   7202.612   5.2145e-17 
   7204.146   5.0126e-17 
    7205.68   5.2653e-17 
   7207.213   5.5759e-17 
   7208.748    5.184e-17 
   7210.281   5.2031e-17 
   7211.815   5.5718e-17 
   7213.349   5.3406e-17 
   7214.883   5.3091e-17 
   7216.417   5.1925e-17 
   7217.951   4.9374e-17 
   7219.485    5.123e-17 
   7221.019   5.8688e-17 
   7222.553   5.3054e-17 
   7224.087   4.7548e-17 
   7225.621   5.1474e-17 
   7227.155   4.8493e-17 
   7228.688   5.1374e-17 
   7230.223   5.1395e-17 
   7231.756   5.0414e-17 
   7233.291   4.7131e-17 
   7234.824    5.906e-17 
   7236.358     6.48e-17 
   7237.892   4.9624e-17 
   7239.426   5.0863e-17 
    7240.96   5.2969e-17 
   7242.494   4.8898e-17 
   7244.028   4.4592e-17 
   7245.562   4.7102e-17 
   7247.096   5.0746e-17 
    7248.63    4.571e-17 
   7250.164   4.4498e-17 
   7251.698   5.0002e-17 
   7253.231   5.1455e-17 
   7254.766    5.152e-17 
   7256.299   5.0543e-17 
   7257.833   4.8738e-17 
   7259.367   5.2257e-17 
   7260.901   5.5141e-17 
   7262.435   4.6118e-17 
   7263.969   3.8056e-17 
   7265.503   4.6251e-17 
   7267.037   6.1592e-17 
   7268.571   5.4798e-17 
   7270.104   4.6056e-17 
   7271.639   4.7896e-17 
   7273.172   5.9926e-17 
   7274.707   5.1313e-17 
    7276.24   4.8332e-17 
   7277.774   5.1628e-17 
   7279.308    4.934e-17 
   7280.842   4.9456e-17 
   7282.376   4.8829e-17 
    7283.91   4.8705e-17 
   7285.444   5.2659e-17 
   7286.978   5.6894e-17 
   7288.512   5.0639e-17 
   7290.046   4.7738e-17 
    7291.58   4.7983e-17 
   7293.114   5.2474e-17 
   7294.647   5.0619e-17 
   7296.182   4.7719e-17 
   7297.715   5.5961e-17 
    7299.25   5.5666e-17 
   7300.783   5.0615e-17 
   7302.317   5.1769e-17 
   7303.851   4.9625e-17 
   7305.385    5.327e-17 
   7306.919   5.3373e-17 
   7308.453   4.5109e-17 
   7309.987   4.4865e-17 
   7311.521    5.077e-17 
   7313.055   4.9385e-17 
   7314.589   5.5316e-17 
   7316.123   5.6661e-17 
   7317.657   5.0471e-17 
    7319.19   4.9755e-17 
   7320.725   5.6064e-17 
   7322.258   5.1727e-17 
   7323.792   5.5964e-17 
   7325.326   5.6223e-17 
    7326.86   5.3137e-17 
   7328.394    5.362e-17 
   7329.928   4.7431e-17 
   7331.462   5.1186e-17 
   7332.996   5.4981e-17 
    7334.53   5.2649e-17 
   7336.063   5.9267e-17 
   7337.598   6.1124e-17 
   7339.131   5.6568e-17 
   7340.666   5.6351e-17 
   7342.199   5.3903e-17 
   7343.733   5.6324e-17 
   7345.267   5.5008e-17 
   7346.801   5.2593e-17 
   7348.335   4.9058e-17 
   7349.869   5.0032e-17 
   7351.403   5.1508e-17 
   7352.937   5.3236e-17 
   7354.471   5.4004e-17 
   7356.005   4.9425e-17 
   7357.539   4.4465e-17 
   7359.073   4.9766e-17 
   7360.606   5.2783e-17 
   7362.141   5.1582e-17 
   7363.674   4.7441e-17 
   7365.208   4.9008e-17 
   7366.742   6.2676e-17 
   7368.276   6.1046e-17 
    7369.81   5.7491e-17 
   7371.344    5.559e-17 
   7372.878   4.9228e-17 
   7374.412   4.8004e-17 
   7375.946   5.3157e-17 
    7377.48   4.9501e-17 
   7379.014   5.4095e-17 
   7380.548   5.8266e-17 
   7382.082   5.4569e-17 
   7383.616   5.0588e-17 
   7385.149   4.8202e-17 
   7386.684   5.1446e-17 
   7388.217   5.4192e-17 
   7389.751   6.6713e-17 
   7391.285    6.751e-17 
   7392.819   5.5676e-17 
   7394.353   5.2681e-17 
   7395.887   5.4104e-17 
   7397.421   5.3414e-17 
   7398.955   5.1808e-17 
   7400.489   5.6622e-17 
   7402.022   5.5258e-17 
   7403.557   5.7195e-17 
    7405.09   6.0958e-17 
   7406.625   5.9223e-17 
   7408.158   5.2533e-17 
   7409.692   4.9361e-17 
   7411.226   5.3459e-17 
    7412.76    5.619e-17 
   7414.294    5.463e-17 
   7415.828   5.5842e-17 
   7417.362   5.3075e-17 
   7418.896   5.5266e-17 
    7420.43   5.5338e-17 
   7421.964   5.5508e-17 
   7423.498   5.5985e-17 
   7425.032   5.4289e-17 
   7426.565   5.1985e-17 
     7428.1   5.4443e-17 
   7429.633   5.9338e-17 
   7431.167   6.1043e-17 
   7432.701   5.9931e-17 
   7434.235   5.5897e-17 
   7435.769   5.1018e-17 
   7437.303   5.7449e-17 
   7438.837   6.1674e-17 
   7440.371   6.1289e-17 
   7441.905   5.8293e-17 
   7443.439   5.3413e-17 
   7444.973    5.534e-17 
   7446.507   5.7025e-17 
   7448.041   5.8988e-17 
   7449.575   5.8955e-17 
   7451.108   5.5172e-17 
   7452.643   5.1764e-17 
   7454.176   5.5048e-17 
    7455.71   5.6267e-17 
   7457.244   5.4771e-17 
   7458.778   5.6843e-17 
   7460.312   5.3627e-17 
   7461.846   5.0922e-17 
    7463.38   4.9502e-17 
   7464.914   5.0301e-17 
   7466.448    5.689e-17 
   7467.981   5.9894e-17 
   7469.516    5.689e-17 
   7471.049   5.3704e-17 
   7472.583   5.7418e-17 
   7474.117   5.8605e-17 
   7475.651   5.5053e-17 
   7477.185   5.7511e-17 
   7478.719   5.5848e-17 
   7480.253   5.3975e-17 
   7481.787   5.4654e-17 
   7483.321   5.4354e-17 
   7484.855   5.3993e-17 
   7486.389   5.3054e-17 
   7487.923   5.5902e-17 
   7489.457   5.7735e-17 
   7490.991   5.4498e-17 
   7492.524   5.2406e-17 
   7494.059   5.3307e-17 
   7495.592   5.7953e-17 
   7497.126   5.8662e-17 
    7498.66   6.0271e-17 
   7500.194    6.585e-17 
   7501.728   5.3122e-17 
   7503.262   4.7001e-17 
   7504.796   5.6504e-17 
    7506.33   6.0579e-17 
   7507.864   5.8635e-17 
   7509.398   5.7807e-17 
   7510.932   5.7263e-17 
   7512.466   5.6526e-17 
     7514.0   6.0022e-17 
   7515.534   6.0337e-17 
   7517.067    6.061e-17 
   7518.602   6.4605e-17 
   7520.135   6.2866e-17 
   7521.669   6.1187e-17 
   7523.203   6.4142e-17 
   7524.737   5.6901e-17 
   7526.271   5.3548e-17 
   7527.805    5.362e-17 
   7529.339   5.2223e-17 
   7530.873   5.8279e-17 
   7532.407   5.7789e-17 
    7533.94   5.2292e-17 
   7535.475   5.2816e-17 
   7537.008   5.6455e-17 
   7538.542   5.8822e-17 
   7540.076   5.1596e-17 
    7541.61   5.3739e-17 
   7543.144   6.3413e-17 
   7544.678   5.4764e-17 
   7546.212   5.5502e-17 
   7547.746   5.7175e-17 
    7549.28   5.7651e-17 
   7550.814   5.4073e-17 
   7552.348   5.6836e-17 
   7553.882   5.5491e-17 
   7555.416   5.6054e-17 
    7556.95   5.4788e-17 
   7558.483   4.9272e-17 
   7560.018   4.9907e-17 
   7561.551   4.8508e-17 
   7563.085   4.5818e-17 
   7564.619   4.8899e-17 
   7566.153    5.768e-17 
   7567.687   6.1533e-17 
   7569.221   6.7571e-17 
   7570.755   6.5475e-17 
   7572.289   5.5026e-17 
   7573.823   5.6828e-17 
   7575.357   5.4498e-17 
   7576.891    5.236e-17 
   7578.425   5.3462e-17 
   7579.958   5.9485e-17 
   7581.493   6.0668e-17 
   7583.026   5.2689e-17 
   7584.561   5.3778e-17 
   7586.094   5.7388e-17 
   7587.628   5.8752e-17 
   7589.162   6.4941e-17 
   7590.696   6.2239e-17 
    7592.23   5.5707e-17 
   7593.764   5.7741e-17 
   7595.298   4.5078e-17 
   7596.832   4.6898e-17 
   7598.366   4.7851e-17 
   7599.899   5.4199e-17 
   7601.434   6.4522e-17 
   7602.967   7.5533e-17 
   7604.501   6.2727e-17 
   7606.035   6.5849e-17 
   7607.569   6.3823e-17 
   7609.103    5.723e-17 
   7610.637    4.719e-17 
   7612.171   4.7608e-17 
   7613.705   6.3442e-17 
   7615.239    5.927e-17 
   7616.773   5.8952e-17 
   7618.307   5.9925e-17 
   7619.841   5.7411e-17 
   7621.375   6.5363e-17 
   7622.909   5.7049e-17 
   7624.442   5.2989e-17 
   7625.977   6.2914e-17 
    7627.51   5.1223e-17 
   7629.044   5.1751e-17 
   7630.578   6.2493e-17 
   7632.112   5.5196e-17 
   7633.646   4.9946e-17 
    7635.18   4.7547e-17 
   7636.714   5.7032e-17 
   7638.248   5.7106e-17 
   7639.782   5.4047e-17 
   7641.316   4.8788e-17 
    7642.85    5.402e-17 
   7644.384   5.8462e-17 
   7645.917   5.9736e-17 
   7647.452    5.571e-17 
   7648.985   5.7347e-17 
    7650.52   5.3922e-17 
   7652.053   5.0002e-17 
   7653.587   5.0005e-17 
   7655.121   4.6357e-17 
   7656.655   5.0171e-17 
   7658.189   5.2787e-17 
   7659.723   4.9926e-17 
   7661.257   5.4325e-17 
   7662.791   5.6339e-17 
   7664.325   5.5575e-17 
   7665.858   5.7669e-17 
   7667.393   5.3595e-17 
   7668.926   5.8801e-17 
    7670.46   5.6253e-17 
   7671.994   5.8214e-17 
   7673.528   5.8129e-17 
   7675.062    5.512e-17 
   7676.596   5.4721e-17 
    7678.13   5.5444e-17 
   7679.664    5.714e-17 
   7681.198   5.8467e-17 
   7682.732    5.496e-17 
   7684.266   4.9772e-17 
     7685.8   4.6562e-17 
   7687.333    4.875e-17 
   7688.868   5.2153e-17 
   7690.401    5.809e-17 
   7691.936   5.5677e-17 
   7693.469   4.9639e-17 
   7695.003   5.6305e-17 
   7696.537   5.8152e-17 
   7698.071   5.0128e-17 
   7699.605   5.1092e-17 
   7701.139   5.3671e-17 
   7702.673    4.851e-17 
   7704.207   5.3674e-17 
   7705.741   5.7381e-17 
   7707.275   5.5855e-17 
   7708.809   5.7102e-17 
   7710.343    5.348e-17 
   7711.876   4.3406e-17 
   7713.411   4.1873e-17 
   7714.944   5.0498e-17 
   7716.479   5.1772e-17 
   7718.012   5.6318e-17 
   7719.546   6.0721e-17 
    7721.08   6.0118e-17 
   7722.614   6.1549e-17 
   7724.148   5.5289e-17 
   7725.682   5.2186e-17 
   7727.216    5.808e-17 
    7728.75   5.5351e-17 
   7730.284   5.5266e-17 
   7731.817   5.5135e-17 
   7733.352   5.4109e-17 
   7734.885   5.3173e-17 
   7736.419   5.0859e-17 
   7737.953   5.6301e-17 
   7739.487   5.7884e-17 
   7741.021   5.2667e-17 
   7742.555   5.1899e-17 
   7744.089   5.1524e-17 
   7745.623   5.0147e-17 
   7747.157   5.7649e-17 
   7748.691   6.5047e-17 
   7750.225    6.587e-17 
   7751.759   6.9134e-17 
   7753.292   7.2638e-17 
   7754.827   7.2542e-17 
    7756.36   7.2763e-17 
   7757.895   6.4903e-17 
   7759.428   5.4426e-17 
   7760.962   5.4569e-17 
   7762.496   5.5063e-17 
    7764.03   5.0811e-17 
   7765.564    5.307e-17 
   7767.098   5.6674e-17 
   7768.632   5.6099e-17 
   7770.166   5.6737e-17 
     7771.7   5.3648e-17 
   7773.234   5.4103e-17 
   7774.768   5.6345e-17 
   7776.302   5.5012e-17 
   7777.835   5.5443e-17 
    7779.37    5.512e-17 
   7780.903   5.4357e-17 
   7782.438   5.6109e-17 
   7783.971   5.4758e-17 
   7785.505   5.4124e-17 
   7787.039   5.6822e-17 
   7788.573   5.7864e-17 
   7790.107   6.5321e-17 
   7791.641    6.443e-17 
   7793.175   4.9065e-17 
   7794.708   4.4331e-17 
   7796.243   4.5204e-17 
   7797.776    5.219e-17 
   7799.311   5.6053e-17 
   7800.844   5.0224e-17 
   7802.378   4.9012e-17 
   7803.912   5.3273e-17 
   7805.446   5.6864e-17 
    7806.98   5.6991e-17 
   7808.514   5.8529e-17 
   7810.048   5.6629e-17 
   7811.582   4.8376e-17 
   7813.116   4.6687e-17 
    7814.65   4.3189e-17 
   7816.184   4.7214e-17 
   7817.718   5.4017e-17 
   7819.251   6.0717e-17 
   7820.786   6.3577e-17 
   7822.319     5.45e-17 
   7823.854   5.0959e-17 
   7825.387   5.0325e-17 
   7826.921   5.6342e-17 
   7828.455   5.9801e-17 
   7829.989   5.6192e-17 
   7831.523   5.8505e-17 
   7833.057   5.1755e-17 
   7834.591   4.9848e-17 
   7836.125   5.8124e-17 
   7837.659   5.4299e-17 
   7839.193    5.391e-17 
   7840.727   5.7394e-17 
   7842.261   5.2681e-17 
   7843.794   5.1243e-17 
   7845.329    5.044e-17 
   7846.862   5.0081e-17 
   7848.396   4.7798e-17 
    7849.93    4.774e-17 
   7851.464   5.8381e-17 
   7852.998   5.0166e-17 
   7854.532   5.0914e-17 
   7856.066    5.747e-17 
     7857.6   5.1422e-17 
   7859.134   5.3785e-17 
   7860.667   4.9713e-17 
   7862.202   4.6937e-17 
   7863.735   4.4729e-17 
    7865.27   4.2811e-17 
   7866.803   4.4635e-17 
   7868.337   5.5711e-17 
   7869.871   5.1239e-17 
   7871.405   4.7262e-17 
   7872.939    5.643e-17 
   7874.473   5.7505e-17 
   7876.007   5.5489e-17 
   7877.541   5.2169e-17 
   7879.075   5.0416e-17 
   7880.609    4.865e-17 
   7882.143   5.4261e-17 
   7883.677    5.475e-17 
    7885.21   5.4493e-17 
   7886.745   5.7953e-17 
   7888.278   5.5415e-17 
   7889.812   4.2963e-17 
   7891.346   5.2667e-17 
    7892.88   5.4614e-17 
   7894.414   4.8283e-17 
   7895.948   5.7287e-17 
   7897.482   5.3761e-17 
   7899.016   4.7756e-17 
    7900.55   5.5928e-17 
   7902.084   5.3514e-17 
   7903.618    5.449e-17 
   7905.152   5.5263e-17 
   7906.686   4.7818e-17 
    7908.22   4.8009e-17 
   7909.753   5.5393e-17 
   7911.288   4.3814e-17 
   7912.821   3.4683e-17 
   7914.355   4.1203e-17 
   7915.889   5.4621e-17 
   7917.423    5.061e-17 
   7918.957   4.9594e-17 
   7920.491   4.9803e-17 
   7922.025   4.9132e-17 
   7923.559   5.1527e-17 
   7925.093   5.1898e-17 
   7926.626   4.9826e-17 
   7928.161   5.1815e-17 
   7929.694   5.7789e-17 
   7931.229   5.7063e-17 
   7932.762   5.5221e-17 
   7934.296   5.5472e-17 
    7935.83   4.8998e-17 
   7937.364    4.763e-17 
   7938.898   5.0191e-17 
   7940.432   4.6272e-17 
   7941.966   5.1625e-17 
     7943.5   5.2789e-17 
   7945.034   5.2193e-17 
   7946.568   4.9202e-17 
   7948.102   4.9978e-17 
   7949.636   5.4272e-17 
   7951.169   4.9245e-17 
   7952.704   5.1151e-17 
   7954.237   5.6243e-17 
   7955.771   5.3792e-17 
   7957.305   4.6036e-17 
   7958.839   4.7846e-17 
   7960.373   5.6123e-17 
   7961.907   5.7831e-17 
   7963.441   4.7077e-17 
   7964.975   4.4604e-17 
   7966.509   4.9936e-17 
   7968.043   4.7572e-17 
   7969.577   4.9121e-17 
   7971.111   4.9478e-17 
   7972.645   4.2033e-17 
   7974.179   3.8821e-17 
   7975.712   5.1867e-17 
   7977.246   5.5114e-17 
    7978.78   5.0752e-17 
   7980.314   4.8201e-17 
   7981.848   5.1682e-17 
   7983.382   5.2142e-17 
   7984.916   4.9519e-17 
    7986.45   4.5372e-17 
   7987.984   4.8315e-17 
   7989.518   5.1823e-17 
   7991.052   5.3554e-17 
   7992.585   5.4669e-17 
    7994.12   5.1193e-17 
   7995.653   4.5719e-17 
   7997.188   4.9704e-17 
   7998.721   5.3339e-17 
   8000.255   4.8067e-17 
   8001.789   4.7752e-17 
   8003.323   5.1281e-17 
   8004.857   5.0544e-17 
   8006.391   4.3485e-17 
   8007.925   4.5195e-17 
   8009.459   4.4361e-17 
   8010.993   4.6152e-17 
   8012.527   5.5357e-17 
   8014.061   5.2048e-17 
   8015.595   4.6492e-17 
   8017.128   4.2509e-17 
   8018.663   4.1897e-17 
   8020.196   4.2189e-17 
    8021.73   4.0927e-17 
   8023.264   3.9713e-17 
   8024.798   4.3365e-17 
   8026.332   5.3605e-17 
   8027.866   5.1973e-17 
     8029.4   4.2669e-17 
   8030.934   4.4105e-17 
   8032.468   5.0541e-17 
   8034.002   4.8424e-17 
   8035.536   5.1993e-17 
    8037.07   5.2362e-17 
   8038.604   4.5513e-17 
   8040.138   4.9214e-17 
   8041.671   4.8935e-17 
   8043.205   4.4964e-17 
   8044.739   5.0105e-17 
   8046.273   5.3152e-17 
   8047.807   4.6302e-17 
   8049.341   3.9119e-17 
   8050.875   4.6099e-17 
   8052.409   5.1042e-17 
   8053.943   4.9682e-17 
   8055.477   4.8494e-17 
   8057.011   4.4889e-17 
   8058.544   4.3824e-17 
   8060.079   4.5492e-17 
   8061.612   4.2638e-17 
   8063.146    4.146e-17 
    8064.68   4.6939e-17 
   8066.214   4.0555e-17 
   8067.748   4.1896e-17 
   8069.282   4.6029e-17 
   8070.816   4.2946e-17 
    8072.35   4.3765e-17 
   8073.884   4.4091e-17 
   8075.418   3.9428e-17 
   8076.952   4.2274e-17 
   8078.486   4.6077e-17 
    8080.02   3.9842e-17 
   8081.554   4.0796e-17 
   8083.087    4.475e-17 
   8084.622   4.4236e-17 
   8086.155   4.0014e-17 
   8087.689   4.2852e-17 
   8089.223   4.1957e-17 
   8090.757   4.2904e-17 
   8092.291   4.6786e-17 
   8093.825   3.9791e-17 
   8095.359    3.807e-17 
   8096.893   4.5394e-17 
   8098.427   4.9562e-17 
   8099.961   4.5993e-17 
   8101.495    4.443e-17 
   8103.029   4.8496e-17 
   8104.562   4.4853e-17 
   8106.096   4.5076e-17 
    8107.63   4.0678e-17 
   8109.164   4.2047e-17 
   8110.698    4.642e-17 
   8112.232    4.227e-17 
   8113.766   3.7493e-17 
     8115.3   4.4732e-17 
   8116.834   4.3553e-17 
   8118.368   4.3769e-17 
   8119.902   4.7235e-17 
   8121.436   4.4733e-17 
    8122.97   4.1863e-17 
   8124.503   4.4973e-17 
   8126.038    4.561e-17 
   8127.571   4.5093e-17 
   8129.105   4.9341e-17 
   8130.639   4.9354e-17 
   8132.173   3.9209e-17 
   8133.707   4.3809e-17 
   8135.241   4.4177e-17 
   8136.775    4.068e-17 
   8138.309   4.5664e-17 
   8139.843   4.3908e-17 
   8141.377   4.7042e-17 
   8142.911   5.4813e-17 
   8144.445   4.4317e-17 
   8145.979   3.4154e-17 
   8147.513   3.8872e-17 
   8149.046   4.4581e-17 
   8150.581   4.0182e-17 
   8152.114   4.3053e-17 
   8153.648    4.685e-17 
   8155.182   4.1649e-17 
   8156.716   4.1268e-17 
    8158.25   4.4611e-17 
   8159.784   3.6835e-17 
   8161.318   4.4142e-17 
   8162.852   4.1779e-17 
   8164.386   3.7776e-17 
    8165.92   4.1498e-17 
   8167.454   3.8304e-17 
   8168.988   3.5693e-17 
   8170.521   4.0188e-17 
   8172.055   4.1371e-17 
   8173.589   4.0347e-17 
   8175.123   3.7769e-17 
   8176.657   3.8093e-17 
   8178.191   3.9445e-17 
   8179.725    4.431e-17 
   8181.259   4.6058e-17 
   8182.793   3.7826e-17 
   8184.327   4.0826e-17 
   8185.861   4.7385e-17 
   8187.395   3.8074e-17 
   8188.929   3.6872e-17 
   8190.462      3.9e-17 
   8191.997   3.8097e-17 
    8193.53   4.5802e-17 
   8195.064   5.2296e-17 
   8196.599   4.5078e-17 
   8198.132   4.3327e-17 
   8199.666   4.4674e-17 
     8201.2   4.0011e-17 
   8202.734   3.7443e-17 
   8204.268   4.3195e-17 
   8205.802   4.5499e-17 
   8207.336    4.379e-17 
    8208.87    4.284e-17 
   8210.403   3.6092e-17 
   8211.938   3.7755e-17 
   8213.472   4.7149e-17 
   8215.006   4.3236e-17 
   8216.539   4.4289e-17 
   8218.073   4.7771e-17 
   8219.607   4.3133e-17 
   8221.142   4.3998e-17 
   8222.675   4.3749e-17 
   8224.209    3.795e-17 
   8225.743   3.3163e-17 
   8227.277   3.5112e-17 
   8228.811   3.5417e-17 
   8230.345   3.8583e-17 
   8231.879   4.5201e-17 
   8233.413   3.9953e-17 
   8234.946   3.5039e-17 
    8236.48   4.1805e-17 
   8238.015   4.2669e-17 
   8239.548    4.082e-17 
   8241.082   4.3786e-17 
   8242.616   4.0049e-17 
    8244.15   4.0083e-17 
   8245.684   4.4875e-17 
   8247.218   3.6451e-17 
   8248.752   3.3209e-17 
   8250.286   4.4973e-17 
   8251.819   4.4372e-17 
   8253.354    3.806e-17 
   8254.888   4.0727e-17 
   8256.422   4.2273e-17 
   8257.955   4.2324e-17 
   8259.489   4.8026e-17 
   8261.023   4.7588e-17 
   8262.558   3.7374e-17 
   8264.091   4.9015e-17 
   8265.625   4.9992e-17 
   8267.159   4.1304e-17 
   8268.693    4.357e-17 
   8270.227   3.6476e-17 
   8271.761   3.4522e-17 
   8273.295   4.7265e-17 
   8274.829   4.9344e-17 
   8276.362   4.6038e-17 
   8277.896   4.9694e-17 
   8279.431   5.0019e-17 
   8280.965   4.5136e-17 
   8282.498   4.2253e-17 
   8284.032   4.2253e-17 
   8285.566   4.0392e-17 
   8287.101   3.7848e-17 
   8288.634   4.1447e-17 
   8290.168   3.9252e-17 
   8291.702   3.9907e-17 
   8293.236   4.1558e-17 
    8294.77   4.7009e-17 
   8296.304   4.6979e-17 
   8297.838   4.6731e-17 
   8299.371   4.1062e-17 
   8300.905   3.3298e-17 
   8302.439   3.8585e-17 
   8303.974   3.8073e-17 
   8305.507   3.7528e-17 
   8307.041    4.623e-17 
   8308.575   4.0333e-17 
   8310.109   4.0189e-17 
   8311.643   4.7362e-17 
   8313.177     4.31e-17 
   8314.711   4.0563e-17 
   8316.245   4.5462e-17 
   8317.778    3.759e-17 
   8319.312   3.6975e-17 
   8320.847   4.1886e-17 
   8322.381    3.892e-17 
   8323.914   3.9143e-17 
   8325.448   4.5417e-17 
   8326.982   4.2572e-17 
   8328.517   3.8139e-17 
    8330.05   4.3998e-17 
   8331.584   4.0926e-17 
   8333.118   3.7528e-17 
   8334.652   4.0724e-17 
   8336.186   3.5614e-17 
    8337.72   3.7274e-17 
   8339.254   4.3826e-17 
   8340.788   5.4765e-17 
   8342.321    5.026e-17 
   8343.855   5.4961e-17 
    8345.39   5.1839e-17 
   8346.924   2.9841e-17 
   8348.457    4.002e-17 
   8349.991    4.381e-17 
   8351.525    2.942e-17 
    8353.06   5.0399e-17 
   8354.593   4.5364e-17 
   8356.127   3.2677e-17 
   8357.661   4.0419e-17 
   8359.195   4.2706e-17 
   8360.729   3.7901e-17 
   8362.263   4.6278e-17 
   8363.797    5.025e-17 
    8365.33   4.0343e-17 
   8366.864   4.3989e-17 
   8368.398   4.1426e-17 
   8369.933   3.5419e-17 
   8371.466   4.3253e-17 
     8373.0   4.5565e-17 
   8374.534   3.9053e-17 
   8376.068   3.7885e-17 
   8377.602   4.5225e-17 
   8379.136   4.5808e-17 
    8380.67   4.1958e-17 
   8382.204    4.732e-17 
   8383.737   4.6677e-17 
   8385.271   4.3613e-17 
   8386.806    4.517e-17 
    8388.34   3.9962e-17 
   8389.873    4.047e-17 
   8391.407   4.2092e-17 
   8392.941    4.109e-17 
   8394.476   4.5445e-17 
   8396.009   4.3251e-17 
   8397.543   3.2676e-17 
   8399.077   4.3905e-17 
   8400.611   4.0751e-17 
   8402.145    2.765e-17 
   8403.679   3.5014e-17 
   8405.213   3.8735e-17 
   8406.747   3.3524e-17 
    8408.28   3.5886e-17 
   8409.814   4.7735e-17 
   8411.349   4.1244e-17 
   8412.883   3.5293e-17 
   8414.416   4.1135e-17 
    8415.95   3.8302e-17 
   8417.484   3.8916e-17 
   8419.019   4.3161e-17 
   8420.552   3.7006e-17 
   8422.086    3.415e-17 
    8423.62   3.8897e-17 
   8425.154   4.5023e-17 
   8426.688   5.3336e-17 
   8428.222   4.0253e-17 
   8429.756   3.2498e-17 
   8431.289   3.8506e-17 
   8432.823   3.1621e-17 
   8434.357   3.0057e-17 
   8435.892   3.7696e-17 
   8437.425   4.1694e-17 
   8438.959    3.545e-17 
   8440.493   4.0404e-17 
   8442.027   4.8312e-17 
   8443.561   4.0878e-17 
   8445.095   3.4143e-17 
   8446.629   3.9564e-17 
   8448.163   4.5816e-17 
   8449.696   4.1077e-17 
    8451.23   4.8914e-17 
   8452.765   4.6536e-17 
   8454.299   3.6336e-17 
   8455.832   4.4404e-17 
   8457.366   4.5682e-17 
     8458.9   3.2663e-17 
   8460.435   3.1558e-17 
   8461.968   3.6006e-17 
   8463.502   4.4702e-17 
   8465.036   5.7459e-17 
    8466.57    4.947e-17 
   8468.104   4.4927e-17 
   8469.638   4.7104e-17 
   8471.172   4.3385e-17 
   8472.706   3.7546e-17 
   8474.239   4.5144e-17 
   8475.773   4.4509e-17 
   8477.308   3.6756e-17 
   8478.842   4.0721e-17 
   8480.375   4.4707e-17 
   8481.909   3.9713e-17 
   8483.443   4.0685e-17 
   8484.978   4.5592e-17 
   8486.511   4.1542e-17 
   8488.045    4.295e-17 
   8489.579   4.6591e-17 
   8491.113   3.7792e-17 
   8492.646   3.6653e-17 
   8494.181   4.2349e-17 
   8495.715   3.9726e-17 
   8497.248   4.3628e-17 
   8498.782    4.606e-17 
   8500.316   4.0349e-17 
   8501.851   3.7104e-17 
   8503.384   5.8107e-17 
   8504.918   4.6543e-17 
   8506.452   3.8614e-17 
   8507.986   4.4009e-17 
    8509.52   4.0967e-17 
   8511.054   4.9814e-17 
   8512.588   4.6148e-17 
   8514.122   4.2804e-17 
   8515.655   4.5196e-17 
   8517.189   4.9626e-17 
   8518.724   4.5134e-17 
   8520.258   4.3244e-17 
   8521.791   4.1863e-17 
   8523.325   3.6094e-17 
   8524.859   4.0524e-17 
   8526.394    4.252e-17 
   8527.927   4.0833e-17 
   8529.461   4.4951e-17 
   8530.995   4.7632e-17 
   8532.529   4.6563e-17 
   8534.062   4.6206e-17 
   8535.597   4.7317e-17 
   8537.131   4.0166e-17 
   8538.665   4.5263e-17 
   8540.198   4.7663e-17 
   8541.732   3.8554e-17 
   8543.267     4.01e-17 
   8544.801   4.9605e-17 
   8546.334   4.2153e-17 
   8547.868   3.7593e-17 
   8549.402    4.176e-17 
   8550.937   3.6664e-17 
    8552.47   4.1043e-17 
   8554.004   4.6944e-17 
   8555.538   4.1101e-17 
   8557.071   3.6993e-17 
   8558.605   4.6261e-17 
    8560.14   4.5836e-17 
   8561.674   3.4415e-17 
   8563.207   3.7209e-17 
   8564.741   3.7819e-17 
   8566.275   3.6173e-17 
    8567.81   4.4084e-17 
   8569.343    4.558e-17 
   8570.877   4.4236e-17 
   8572.411   4.2086e-17 
   8573.945   3.8084e-17 
   8575.479   4.1781e-17 
   8577.013   4.5758e-17 
   8578.547   4.3778e-17 
   8580.081   3.7366e-17 
   8581.614    3.858e-17 
   8583.148   4.6608e-17 
   8584.683    4.637e-17 
   8586.217   4.4445e-17 
    8587.75   4.4585e-17 
   8589.284   3.7488e-17 
   8590.818   4.1876e-17 
   8592.353   4.5374e-17 
   8593.886   3.6965e-17 
    8595.42    4.107e-17 
   8596.954   4.4649e-17 
   8598.488   4.4735e-17 
   8600.021   4.4513e-17 
   8601.556   3.9026e-17 
    8603.09   3.7359e-17 
   8604.624   3.8667e-17 
   8606.157   3.7545e-17 
   8607.691   3.4388e-17 
   8609.226   4.2102e-17 
    8610.76   4.5627e-17 
   8612.293   3.5729e-17 
   8613.827   3.4836e-17 
   8615.361   3.7364e-17 
   8616.896   3.8035e-17 
   8618.429   4.5074e-17 
   8619.963   4.6636e-17 
   8621.497   3.6142e-17 
    8623.03   4.2605e-17 
   8624.564   4.8428e-17 
   8626.099   3.9736e-17 
   8627.633   4.3461e-17 
   8629.166    4.475e-17 
     8630.7   3.8055e-17 
   8632.234   4.1423e-17 
   8633.769   4.7064e-17 
   8635.302   3.9308e-17 
   8636.836   3.8841e-17 
    8638.37   4.0473e-17 
   8639.904   3.3202e-17 
   8641.438   3.3392e-17 
   8642.972   4.4868e-17 
   8644.506   3.9684e-17 
    8646.04   4.0774e-17 
   8647.573   5.1373e-17 
   8649.107   5.0202e-17 
   8650.642   4.3988e-17 
   8652.176   4.1609e-17 
   8653.709   3.5247e-17 
   8655.243   2.6315e-17 
   8656.777   3.6526e-17 
   8658.312   4.3841e-17 
   8659.845   4.8508e-17 
   8661.379   4.6038e-17 
   8662.913   3.6488e-17 
   8664.447    3.499e-17 
    8665.98   4.4486e-17 
   8667.515   4.2881e-17 
   8669.049   4.0078e-17 
   8670.583   4.1654e-17 
   8672.116   3.7397e-17 
    8673.65   3.5228e-17 
   8675.185   4.3107e-17 
   8676.719   4.3039e-17 
   8678.252   3.5552e-17 
   8679.786   3.7618e-17 
    8681.32    4.414e-17 
   8682.854    4.167e-17 
   8684.388   4.5246e-17 
   8685.922   4.4862e-17 
   8687.456   3.3289e-17 
   8688.989   3.7494e-17 
   8690.523   4.5259e-17 
   8692.058   3.9695e-17 
   8693.592   3.9973e-17 
   8695.125   3.7911e-17 
   8696.659   3.5262e-17 
   8698.193   4.3766e-17 
   8699.728   4.7975e-17 
   8701.261   3.9626e-17 
   8702.795   4.2552e-17 
   8704.329   4.4235e-17 
   8705.863   3.2192e-17 
   8707.396   3.6445e-17 
   8708.931    3.373e-17 
   8710.465   2.5891e-17 
   8711.999   3.5249e-17 
   8713.532   3.7614e-17 
   8715.066    3.397e-17 
   8716.601   3.7875e-17 
   8718.135    3.704e-17 
   8719.668   3.3819e-17 
   8721.202   3.7549e-17 
   8722.736   4.1735e-17 
   8724.271   3.5786e-17 
   8725.804   3.2176e-17 
   8727.338   3.9125e-17 
   8728.872   3.7179e-17 
   8730.406   3.4761e-17 
   8731.939   3.2381e-17 
   8733.474   2.8113e-17 
   8735.008    3.222e-17 
   8736.542    3.367e-17 
   8738.075   3.7623e-17 
   8739.609   3.4906e-17 
   8741.144   3.4232e-17 
   8742.678   3.3013e-17 
   8744.211   3.4326e-17 
   8745.745   4.2701e-17 
   8747.279   3.5957e-17 
   8748.813   3.2348e-17 
   8750.347   4.0471e-17 
   8751.881   3.7539e-17 
   8753.415   3.4287e-17 
   8754.948   3.5773e-17 
   8756.482   2.9865e-17 
   8758.017   3.4491e-17 
   8759.551   4.4595e-17 
   8761.084   3.4621e-17 
   8762.618   2.5852e-17 
   8764.152   3.7463e-17 
   8765.687   2.9996e-17 
    8767.22   2.5606e-17 
   8768.754    3.169e-17 
   8770.288   3.3534e-17 
   8771.822   3.8355e-17 
   8773.355   5.4579e-17 
    8774.89   4.3567e-17 
   8776.424   3.5018e-17 
   8777.958   3.4522e-17 
   8779.491   3.8292e-17 
   8781.025   3.6401e-17 
    8782.56   3.2038e-17 
   8784.094   3.2825e-17 
   8785.627   3.6082e-17 
   8787.161   4.0761e-17 
   8788.695     4.32e-17 
   8790.229   4.2962e-17 
   8791.763   3.9195e-17 
   8793.297    3.028e-17 
   8794.831   2.7828e-17 
   8796.365   3.9156e-17 
   8797.898   3.9403e-17 
   8799.433   3.3452e-17 
   8800.967   3.7606e-17 
   8802.501   3.7951e-17 
   8804.034   3.2415e-17 
   8805.568   3.9792e-17 
   8807.103   4.3065e-17 
   8808.637   3.5854e-17 
    8810.17   3.5927e-17 
   8811.704   3.6752e-17 
   8813.238   3.5972e-17 
   8814.772   3.5947e-17 
   8816.306   3.5546e-17 
    8817.84   3.1373e-17 
   8819.374   3.2521e-17 
   8820.907   3.7877e-17 
   8822.441   3.4006e-17 
   8823.976   3.2968e-17 
    8825.51   3.8655e-17 
   8827.043   2.4995e-17 
   8828.577   1.9946e-17 
   8830.111   2.9375e-17 
   8831.646   2.2226e-17 
   8833.179   1.9708e-17 
   8834.713   2.9477e-17 
   8836.247   3.5574e-17 
   8837.781   3.6365e-17 
   8839.314   3.5873e-17 
   8840.849    3.811e-17 
   8842.383    4.142e-17 
   8843.917   3.7943e-17 
    8845.45   3.5499e-17 
   8846.984   4.2952e-17 
   8848.519   4.3644e-17 
   8850.053   3.2041e-17 
   8851.586   2.9882e-17 
    8853.12    3.632e-17 
   8854.654   3.4649e-17 
   8856.188    3.005e-17 
   8857.722   3.7709e-17 
   8859.256   3.3915e-17 
    8860.79    2.925e-17 
   8862.324   4.2643e-17 
   8863.857   4.0467e-17 
   8865.392   4.1347e-17 
   8866.926    4.922e-17 
    8868.46    3.425e-17 
   8869.993   3.1977e-17 
   8871.527     3.72e-17 
   8873.062   3.8121e-17 
   8874.596   3.9245e-17 
   8876.129   3.8348e-17 
   8877.663   3.1466e-17 
   8879.197   2.8216e-17 
    8880.73   4.3192e-17 
   8882.265   3.1432e-17 
   8883.799   3.1535e-17 
   8885.333   4.6841e-17 
   8886.866   3.6119e-17 
     8888.4   2.9478e-17 
   8889.935   3.4827e-17 
   8891.469   3.6835e-17 
   8893.002   3.5566e-17 
   8894.536   3.3769e-17 
    8896.07   2.8994e-17 
   8897.604   2.6365e-17 
   8899.138     2.26e-17 
   8900.672   2.3059e-17 
   8902.206   3.3073e-17 
    8903.74   4.6031e-17 
   8905.273   3.8635e-17 
   8906.808   3.3228e-17 
   8908.342   3.4785e-17 
   8909.876   3.1878e-17 
   8911.409   3.4308e-17 
   8912.943   3.4539e-17 
   8914.478    3.616e-17 
   8916.012   2.6862e-17 
   8917.545    3.917e-17 
   8919.079   5.8306e-17 
   8920.613   3.9003e-17 
   8922.147    3.253e-17 
   8923.681   3.5926e-17 
   8925.215    3.497e-17 
   8926.749   4.1382e-17 
   8928.283   3.9064e-17 
   8929.816   3.4899e-17 
   8931.351   3.6935e-17 
   8932.885   3.4915e-17 
   8934.419   3.3928e-17 
   8935.952   3.5921e-17 
   8937.486   3.3369e-17 
   8939.021   3.7844e-17 
   8940.555   3.9061e-17 
   8942.088   2.8518e-17 
   8943.622   2.0669e-17 
   8945.156    2.554e-17 
   8946.689   3.4175e-17 
   8948.224   3.5669e-17 
   8949.758   3.3156e-17 
   8951.292   2.5578e-17 
   8952.825   4.4236e-17 
   8954.359   3.9456e-17 
   8955.894   2.1523e-17 
   8957.428   2.6892e-17 
   8958.961   4.0158e-17 
   8960.495   3.8955e-17 
   8962.029   3.1738e-17 
   8963.563   3.4949e-17 
   8965.097   3.5241e-17 
   8966.631   3.0035e-17 
   8968.165   3.2885e-17 
   8969.699   3.3979e-17 
   8971.232    2.966e-17 
   8972.767   3.5319e-17 
   8974.301   3.4236e-17 
   8975.835   3.1784e-17 
   8977.368   3.4033e-17 
   8978.902   3.6886e-17 
   8980.437   3.5088e-17 
   8981.971   3.1779e-17 
   8983.504   3.0838e-17 
   8985.038   2.9543e-17 
   8986.572   2.9607e-17 
   8988.106   4.2266e-17 
    8989.64   3.9773e-17 
   8991.174   2.5613e-17 
   8992.708   3.2679e-17 
   8994.242   3.7272e-17 
   8995.775   3.5885e-17 
    8997.31   3.6365e-17 
   8998.844   3.2439e-17 
   9000.378   4.3336e-17 
   9001.911    5.567e-17 
   9003.445   4.0176e-17 
   9004.979   2.8686e-17 
   9006.514   3.5098e-17 
   9008.047   2.9459e-17 
   9009.581   2.2441e-17 
   9011.115   3.6383e-17 
   9012.648   3.8559e-17 
   9014.183   3.0603e-17 
   9015.717   3.1086e-17 
   9017.251   3.1239e-17 
   9018.784    3.065e-17 
   9020.318   3.2118e-17 
   9021.853   3.2039e-17 
   9023.387   2.7162e-17 
    9024.92   3.1706e-17 
   9026.454   3.4805e-17 
   9027.988   2.9224e-17 
   9029.522   2.9405e-17 
   9031.056    3.136e-17 
    9032.59    2.969e-17 
   9034.124   3.3298e-17 
   9035.658   3.5261e-17 
   9037.191   3.6689e-17 
   9038.726   3.6815e-17 
    9040.26   3.3531e-17 
   9041.794   3.0897e-17 
   9043.327   3.1764e-17 
   9044.861   3.0478e-17 
   9046.396    3.199e-17 
    9047.93   4.1153e-17 
   9049.463    4.097e-17 
   9050.997   3.0404e-17 
   9052.531   3.5182e-17 
   9054.065   3.3975e-17 
   9055.599   2.5644e-17 
   9057.133   3.0838e-17 
   9058.667   3.4873e-17 
   9060.201   2.8219e-17 
   9061.734   3.2144e-17 
   9063.269   2.9141e-17 
   9064.803   2.9168e-17 
   9066.337   3.0937e-17 
    9067.87   3.0839e-17 
   9069.404   2.1756e-17 
   9070.938     2.44e-17 
   9072.473   2.9611e-17 
   9074.006   3.1146e-17 
    9075.54   2.6865e-17 
   9077.074   2.6999e-17 
   9078.607   2.3519e-17 
   9080.142   3.5923e-17 
   9081.676   3.7285e-17 
    9083.21   3.0754e-17 
   9084.743   2.6442e-17 
   9086.277   3.1683e-17 
   9087.812   2.8196e-17 
   9089.346   3.1857e-17 
   9090.879   3.7229e-17 
   9092.413   3.0578e-17 
   9093.947   2.6819e-17 
   9095.481   3.0394e-17 
   9097.015    3.292e-17 
   9098.549   3.3122e-17 
   9100.083   3.4593e-17 
   9101.617   3.5244e-17 
    9103.15   3.6605e-17 
   9104.685   4.2705e-17 
   9106.219   3.9271e-17 
   9107.753   3.5067e-17 
   9109.286   3.3682e-17 
    9110.82   2.9731e-17 
   9112.354    3.003e-17 
   9113.889   3.2705e-17 
   9115.422   2.5916e-17 
   9116.956   2.7736e-17 
    9118.49   3.5272e-17 
   9120.024   2.9567e-17 
   9121.558   2.6998e-17 
   9123.092   3.5367e-17 
   9124.626   3.0718e-17 
    9126.16   2.7227e-17 
   9127.693   3.4597e-17 
   9129.228   3.1624e-17 
   9130.762   2.6958e-17 
   9132.296    2.919e-17 
   9133.829   3.6198e-17 
   9135.363   3.6071e-17 
   9136.897   3.7875e-17 
   9138.431   3.9914e-17 
   9139.965   2.8613e-17 
   9141.499   2.7838e-17 
   9143.033   3.0907e-17 
   9144.566   2.9433e-17 
   9146.101   3.0039e-17 
   9147.635   2.9732e-17 
   9149.169   2.3229e-17 
   9150.702    2.811e-17 
   9152.236   3.2958e-17 
   9153.771   3.0715e-17 
   9155.305   3.0605e-17 
   9156.838   2.7256e-17 
   9158.372   2.6625e-17 
   9159.906   3.0345e-17 
    9161.44   3.1497e-17 
   9162.974    2.886e-17 
   9164.508   3.1719e-17 
   9166.042   3.1082e-17 
   9167.576   3.3286e-17 
   9169.109   3.7366e-17 
   9170.644   3.2883e-17 
   9172.178   2.8331e-17 
   9173.712   2.9759e-17 
   9175.245   3.3219e-17 
   9176.779   3.1746e-17 
   9178.313   3.2913e-17 
   9179.848    3.304e-17 
   9181.381   3.2875e-17 
   9182.915   3.6255e-17 
   9184.449   3.7189e-17 
   9185.983    3.097e-17 
   9187.517   2.9235e-17 
   9189.051   3.6255e-17 
   9190.585   3.3167e-17 
   9192.119   3.2292e-17 
   9193.652   3.5482e-17 
   9195.187   2.8926e-17 
   9196.721   3.0834e-17 
   9198.255   3.2694e-17 
   9199.788   2.7698e-17 
   9201.322   2.8868e-17 
   9202.856   3.3653e-17 
    9204.39   3.0807e-17 
   9205.924   3.0942e-17 
   9207.458   3.8765e-17 
   9208.992   3.3917e-17 
   9210.525   3.0327e-17 
    9212.06   3.1856e-17 
   9213.594   3.2022e-17 
   9215.128   3.7254e-17 
   9216.661   3.5912e-17 
   9218.195   3.2012e-17 
   9219.729   2.9953e-17 
   9221.264   2.8748e-17 
   9222.797   2.8835e-17 
   9224.331   3.1743e-17 
   9225.865   3.3191e-17 
   9227.399   3.0956e-17 
   9228.933   3.6401e-17 
   9230.467   3.4239e-17 
   9232.001   2.9553e-17 
   9233.535   3.0215e-17 
   9235.068   3.0135e-17 
   9236.603   2.9351e-17 
   9238.137   2.5589e-17 
   9239.671   3.2765e-17 
   9241.204   3.3533e-17 
   9242.738   3.1129e-17 
   9244.272   3.6836e-17 
   9245.807    3.509e-17 
    9247.34   2.9725e-17 
   9248.874   2.7995e-17 
   9250.408   3.1483e-17 
   9251.942   3.2844e-17 
   9253.476   3.6255e-17 
    9255.01   3.3999e-17 
   9256.544   2.6804e-17 
   9258.078   2.6271e-17 
   9259.611   3.0618e-17 
   9261.146   2.7532e-17 
    9262.68   3.3209e-17 
   9264.214   3.2979e-17 
   9265.747   3.3139e-17 
   9267.281   3.8642e-17 
   9268.815   3.3242e-17 
   9270.349   3.1654e-17 
   9271.883   3.3473e-17 
   9273.417   2.8935e-17 
   9274.951   2.6326e-17 
   9276.484   2.9306e-17 
   9278.019   3.6808e-17 
   9279.553   3.2749e-17 
   9281.087   3.0379e-17 
    9282.62    3.279e-17 
   9284.154   3.3881e-17 
   9285.688    3.512e-17 
   9287.223   3.2211e-17 
   9288.756   3.2684e-17 
    9290.29   2.6615e-17 
   9291.824   2.6413e-17 
   9293.358   3.3393e-17 
   9294.892   3.5916e-17 
   9296.426   3.2773e-17 
    9297.96   2.7174e-17 
   9299.494   3.0304e-17 
   9301.027   3.3401e-17 
   9302.562   4.1667e-17 
   9304.096   3.3497e-17 
    9305.63   2.2816e-17 
   9307.163   1.9991e-17 
   9308.697   4.8593e-17 
   9310.231   1.4251e-17 
   9311.766    1.004e-17 
   9313.299   3.5611e-17 
   9314.833    3.174e-17 
   9316.367   2.3275e-17 
   9317.901   4.3577e-17 
   9319.435    4.648e-17 
   9320.969   5.4424e-17 
   9322.503   5.5804e-17 
   9324.037   3.7623e-17 
    9325.57   3.2213e-17 
   9327.104    2.918e-17 
   9328.639   2.7251e-17 
   9330.173   2.2922e-17 
   9331.706    2.811e-17 
    9333.24   4.9981e-17 
   9334.774   4.6073e-17 
   9336.308   3.7879e-17 
   9337.842   3.3633e-17 
   9339.376   2.2911e-17 
    9340.91   2.8223e-17 
   9342.443   4.5592e-17 
   9343.978   3.7994e-17 
   9345.512   2.3916e-17 
   9347.046   2.1457e-17 
   9348.579   2.0638e-17 
   9350.113   2.1712e-17 
   9351.647   3.6924e-17 
   9353.182   1.5878e-17 
   9354.715    2.046e-18 
   9356.249   2.7104e-17 
   9357.783   2.8818e-17 
   9359.317   2.7009e-17 
   9360.851   3.1299e-17 
   9362.385   2.5009e-17 
   9363.919   2.1821e-17 
   9365.453   2.9731e-17 
   9366.986   1.3478e-17 
   9368.521  -9.6675e-19 
   9370.055   3.2182e-17 
   9371.589   7.0041e-17 
   9373.122    5.421e-17 
   9374.656   3.9718e-17 
    9376.19   6.1059e-17 
   9377.725   2.3751e-17 
   9379.258   1.2275e-17 
   9380.792   2.6022e-17 
   9382.326   2.1606e-17 
    9383.86   1.8961e-17 
   9385.394   2.3845e-17 
   9386.928   2.9053e-17 
   9388.462   2.5854e-17 
   9389.996   2.4457e-17 
   9391.529   2.0658e-17 
   9393.063   1.8851e-17 
   9394.598   2.2554e-17 
   9396.131   2.3416e-17 
   9397.665   2.8521e-17 
   9399.199   2.8586e-17 
   9400.733   2.7104e-17 
   9402.267   3.3862e-17 
   9403.801   2.9958e-17 
   9405.335    1.893e-17 
   9406.869   1.9002e-17 
   9408.402   2.2166e-17 
   9409.937   2.2917e-17 
   9411.471   1.8724e-17 
   9413.005   2.1214e-17 
   9414.538   2.5621e-17 
   9416.072   2.8425e-17 
   9417.606   1.9862e-17 
   9419.141   1.3286e-17 
   9420.674   2.6363e-17 
   9422.208   2.3562e-17 
   9423.742    1.902e-17 
   9425.276    2.277e-17 
    9426.81   2.9199e-17 
   9428.344   2.5185e-17 
   9429.878   2.5287e-17 
   9431.412   2.2941e-17 
   9432.945   2.6796e-17 
   9434.479   4.1093e-17 
   9436.014   4.5715e-17 
   9437.548   5.0994e-17 
   9439.081    4.755e-17 
   9440.615   3.1342e-17 
   9442.149   1.7285e-17 
   9443.684   1.8112e-17 
   9445.217   1.7357e-17 
   9446.751   2.0776e-17 
   9448.285   1.9955e-17 
   9449.819   2.4654e-17 
   9451.353   1.6064e-17 
   9452.887   1.8924e-17 
   9454.421   2.8563e-17 
   9455.955   1.8923e-17 
   9457.488    1.131e-17 
   9459.022   5.4536e-18 
   9460.557    1.629e-17 
    9462.09   2.5749e-17 
   9463.624    2.501e-17 
   9465.158   1.7954e-17 
   9466.692   1.9027e-17 
   9468.226    1.843e-17 
    9469.76   2.0545e-17 
   9471.294   3.0428e-17 
   9472.828   4.3601e-17 
   9474.361   4.9898e-17 
   9475.896   4.3268e-17 
    9477.43   2.6168e-17 
   9478.964   2.1767e-17 
   9480.497    2.051e-17 
   9482.031   1.9816e-17 
   9483.565   1.9592e-17 
     9485.1   1.6366e-17 
   9486.633    1.425e-17 
   9488.167   2.5421e-17 
   9489.701   2.2253e-17 
   9491.235   1.7241e-17 
   9492.769   2.4916e-17 
   9494.303   2.2814e-17 
   9495.837   2.4028e-17 
   9497.371    3.627e-17 
   9498.904   3.9948e-17 
   9500.438   1.6303e-17 
   9501.973   1.7284e-17 
   9503.507   1.9977e-17 
    9505.04   1.9408e-17 
   9506.574   2.0102e-17 
   9508.108   2.0823e-17 
   9509.643    2.373e-17 
   9511.176   2.7803e-17 
    9512.71   2.5355e-17 
   9514.244   2.2822e-17 
   9515.778   2.1299e-17 
   9517.312   2.0813e-17 
   9518.846   2.1806e-17 
    9520.38   2.3775e-17 
   9521.914   2.5195e-17 
   9523.447   2.1242e-17 
   9524.981     1.71e-17 
   9526.516   2.5365e-17 
   9528.049    2.265e-17 
   9529.583   1.9857e-17 
   9531.117   2.2616e-17 
   9532.651   2.0661e-17 
   9534.185   2.4148e-17 
   9535.719   2.5537e-17 
   9537.253   1.8385e-17 
   9538.787   2.1465e-17 
    9540.32   2.6282e-17 
   9541.854   2.3505e-17 
   9543.389   2.1035e-17 
   9544.923   2.2842e-17 
   9546.456   2.4762e-17 
    9547.99   3.0907e-17 
   9549.524   2.7198e-17 
   9551.059   1.5529e-17 
   9552.592   2.1663e-17 
   9554.126   2.8081e-17 
    9555.66   3.4782e-17 
   9557.194   2.8626e-17 
   9558.728   1.9487e-17 
   9560.262   1.5961e-17 
   9561.796   9.6726e-18 
    9563.33   1.3182e-17 
   9564.863    1.488e-17 
   9566.397   2.5847e-17 
   9567.932   2.9065e-17 
   9569.466   1.7308e-17 
   9570.999   2.0223e-17 
   9572.533   2.3797e-17 
   9574.067   2.0765e-17 
   9575.602   1.4918e-17 
   9577.135   1.6777e-17 
   9578.669   2.3068e-17 
   9580.203   2.3926e-17 
   9581.737   1.8705e-17 
   9583.271   1.9815e-17 
   9584.805   1.9447e-17 
   9586.339   2.4508e-17 
   9587.873   3.4044e-17 
   9589.406   2.9326e-17 
    9590.94   2.7304e-17 
   9592.475   2.8648e-17 
   9594.008   2.1934e-17 
   9595.542   2.2828e-17 
   9597.076   2.5486e-17 
    9598.61   1.9651e-17 
   9600.144   2.6666e-17 
   9601.678   2.6389e-17 
   9603.212   2.6629e-17 
   9604.746   3.4609e-17 
   9606.279   3.3435e-17 
   9607.813   3.2194e-17 
   9609.348   3.2857e-17 
   9610.882   2.4587e-17 
   9612.415   2.0877e-17 
   9613.949   1.7853e-17 
   9615.483   2.9267e-17 
   9617.018   2.1662e-17 
   9618.551   1.3902e-17 
   9620.085   3.0551e-17 
   9621.619   2.5754e-17 
   9623.153   2.1815e-17 
   9624.687   2.9481e-17 
   9626.221   3.3531e-17 
   9627.755   2.7097e-17 
   9629.289   2.3243e-17 
   9630.822   2.1616e-17 
   9632.356   2.7992e-17 
   9633.891   2.7705e-17 
   9635.425   2.2925e-17 
   9636.958   2.0384e-17 
   9638.492   2.8518e-17 
   9640.026   2.9645e-17 
   9641.561   2.7299e-17 
   9643.094    3.483e-17 
   9644.628   2.9923e-17 
   9646.162   2.5701e-17 
   9647.696   2.2634e-17 
   9649.229   1.9277e-17 
   9650.764   2.4268e-17 
   9652.298   2.7163e-17 
   9653.831   2.0392e-17 
   9655.365    2.189e-17 
   9656.899   2.4516e-17 
   9658.434   2.2356e-17 
   9659.967    1.661e-17 
   9661.501   2.1278e-17 
   9663.035   2.5007e-17 
   9664.569   2.7356e-17 
   9666.103   3.8395e-17 
   9667.637   3.4765e-17 
   9669.171   1.9545e-17 
   9670.705   2.6669e-17 
   9672.238   2.7773e-17 
   9673.772   2.3761e-17 
   9675.307   2.4297e-17 
   9676.841   3.2059e-17 
   9678.374   2.6399e-17 
   9679.908   3.3153e-17 
   9681.442   2.2845e-17 
   9682.977   1.7419e-17 
    9684.51   2.2007e-17 
   9686.044   3.3061e-17 
   9687.578   2.7657e-17 
   9689.112   2.9107e-17 
   9690.646   2.9203e-17 
    9692.18   2.3589e-17 
   9693.714   3.4268e-17 
   9695.248   2.5228e-17 
   9696.781   2.4381e-17 
   9698.315   4.1124e-17 
    9699.85   4.6319e-17 
   9701.384   3.0245e-17 
   9702.917   2.3638e-17 
   9704.451   2.7208e-17 
   9705.985   1.6207e-17 
    9707.52   2.2177e-17 
   9709.053    4.096e-17 
   9710.587   3.6461e-17 
   9712.121   2.5051e-17 
   9713.655   2.0261e-17 
   9715.188   4.3378e-17 
   9716.723   5.1448e-17 
   9718.257   2.7205e-17 
    9719.79   1.9945e-17 
   9721.324   2.2082e-17 
   9722.858   2.5281e-17 
   9724.393   2.9499e-17 
   9725.926   3.6939e-17 
    9727.46   3.3159e-17 
   9728.994   1.8811e-17 
   9730.528   2.1317e-17 
   9732.062   2.8333e-17 
   9733.596   2.5328e-17 
    9735.13   3.3942e-17 
   9736.664   3.5235e-17 
   9738.197    2.775e-17 
   9739.731   2.6011e-17 
   9741.266   2.6652e-17 
     9742.8   2.5154e-17 
   9744.333   2.7187e-17 
   9745.867   2.1211e-17 
   9747.401   1.5423e-17 
   9748.936   2.9007e-17 
   9750.469   2.8482e-17 
   9752.003   2.7659e-17 
   9753.537   4.0238e-17 
   9755.071   4.7255e-17 
   9756.604   3.7721e-17 
   9758.139   2.4405e-17 
   9759.673    2.946e-17 
   9761.207   2.5051e-17 
    9762.74   2.7222e-17 
   9764.274   3.9862e-17 
   9765.809   2.8703e-17 
   9767.343   1.9341e-17 
   9768.876   3.3198e-17 
    9770.41   3.5333e-17 
   9771.944   3.1226e-17 
   9773.479   3.7126e-17 
   9775.012    2.957e-17 
   9776.546    2.944e-17 
    9778.08   3.9528e-17 
   9779.614   3.2278e-17 
   9781.147   1.9431e-17 
   9782.682   2.2782e-17 
   9784.216   2.9968e-17 
   9785.749   2.3937e-17 
   9787.283   3.1791e-17 
   9788.817   5.0671e-17 
   9790.352   4.3428e-17 
   9791.885   3.5865e-17 
   9793.419   1.7641e-17 
   9794.953   2.6103e-17 
   9796.487   3.5506e-17 
   9798.021   3.3713e-17 
   9799.555   3.2806e-17 
   9801.089   2.5811e-17 
   9802.623   2.4955e-17 
   9804.156   2.8654e-17 
    9805.69   3.1398e-17 
   9807.225   3.2374e-17 
   9808.759   2.9748e-17 
   9810.292   2.4369e-17 
   9811.826   1.9624e-17 
    9813.36   2.7317e-17 
   9814.895   4.7026e-17 
   9816.428   3.7717e-17 
   9817.962   3.1031e-17 
   9819.496   2.9745e-17 
    9821.03   2.8727e-17 
   9822.563   1.7192e-17 
   9824.098    2.427e-17 
   9825.632   3.9367e-17 
   9827.166   2.9173e-17 
   9828.699   2.5605e-17 
   9830.233   3.9336e-17 
   9831.768   3.8135e-17 
   9833.302   4.2682e-17 
   9834.835   4.6302e-17 
   9836.369   3.5148e-17 
   9837.903   3.3822e-17 
   9839.438   3.6578e-17 
   9840.971   2.9322e-17 
   9842.505   3.0538e-17 
   9844.039   3.9723e-17 
   9845.573   3.7291e-17 
   9847.106   4.5468e-17 
   9848.641   4.2557e-17 
   9850.175   3.1167e-17 
   9851.708   2.8352e-17 
   9853.242    3.318e-17 
   9854.776   2.8446e-17 
   9856.311   2.5281e-17 
   9857.844   2.5109e-17 
   9859.378   3.1002e-17 
   9860.912   2.3631e-17 
   9862.446   2.7836e-17 
   9863.979   3.0252e-17 
   9865.514   3.3229e-17 
   9867.048    5.368e-17 
   9868.582   5.3427e-17 
   9870.115   3.0863e-17 
   9871.649   3.5512e-17 
   9873.184   3.7752e-17 
   9874.718   2.0738e-17 
   9876.251   2.9419e-17 
   9877.785   2.3392e-17 
   9879.319   1.8485e-17 
   9880.854   2.6278e-17 
   9882.387   3.3483e-17 
   9883.921   3.4798e-17 
   9885.455   4.2007e-17 
   9886.989   3.6293e-17 
   9888.522   2.8287e-17 
   9890.057   3.5062e-17 
   9891.591   3.7569e-17 
   9893.125   3.3142e-17 
   9894.658   3.0723e-17 
   9896.192   1.1871e-17 
   9897.727   1.1675e-17 
   9899.261   2.6639e-17 
   9900.794   3.4649e-17 
   9902.328   3.8626e-17 
   9903.862   3.3242e-17 
   9905.396   4.3322e-17 
    9906.93   3.5687e-17 
   9908.464   2.9299e-17 
   9909.998   6.8655e-17 
   9911.531   5.7922e-17 
   9913.065   1.6649e-17 
     9914.6   2.2235e-17 
   9916.134   1.3568e-17 
   9917.667    2.026e-17 
   9919.201   3.1486e-17 
   9920.735   2.4876e-17 
    9922.27   3.3135e-17 
   9923.803   2.6593e-17 
   9925.337    2.247e-17 
   9926.871   3.1127e-17 
   9928.405   3.2196e-17 
   9929.938   1.7337e-17 
   9931.473   2.2942e-17 
   9933.007   3.3461e-17 
   9934.541   2.6492e-17 
   9936.074    4.007e-17 
   9937.608   4.6619e-17 
   9939.143   1.9578e-17 
   9940.677    4.367e-17 
    9942.21   6.6315e-17 
   9943.744   4.9086e-17 
   9945.278   4.1052e-17 
   9946.812   5.0835e-17 
   9948.346   4.5396e-17 
    9949.88   2.1645e-17 
   9951.414   2.8098e-17 
   9952.948   3.1017e-17 
   9954.481   2.1453e-17 
   9956.016   3.4743e-17 
    9957.55   4.8261e-17 
   9959.084   4.6773e-17 
   9960.617   4.9295e-17 
   9962.151   3.5769e-17 
   9963.686   1.4834e-17 
    9965.22   2.3051e-17 
   9966.753   3.1048e-17 
   9968.287   3.0155e-17 
   9969.821   2.4619e-17 
   9971.355   2.8185e-17 
   9972.889   3.8681e-17 
   9974.423   3.4585e-17 
   9975.957   2.2612e-17 
    9977.49   2.6138e-17 
   9979.024   3.8506e-17 
   9980.559     2.96e-17 
   9982.093   2.4207e-17 
   9983.626   2.9929e-17 
    9985.16   3.4784e-17 
   9986.694   4.1167e-17 
   9988.229   3.5667e-17 
   9989.762    2.159e-17 
   9991.296   2.8328e-17 
    9992.83   3.7946e-17 
   9994.364   3.4558e-17 
   9995.897   2.1448e-17 
   9997.432   1.9314e-17 
   9998.966   2.3566e-17 
    10000.5   3.5776e-17 
