# STATUS =
# OBJECT = 2019szu
# TELESCOPE = P200
# INSTRUMENT = SEDM
# DATE-OBS = 2019-11-24 00:00:00.000
# MJD = 58811.0
# EXPTIME =
# AIRMASS =
# SLIT =
# DISPERSER =
# SOURCE = DOI 10.3847/1538-4357/aca161
# FILTER =
# RESOLUTION =
# FLUX_STANDARD =
# EXTINCTION_CORRECTED =
# PHOTOMETRY_CALIBRATED =
# TELLURIC_CORRECTED =
# FLUX_UNITS =
# WAVE_UNITS =
# QUALITY =
# MIN_WAVE = 3400.0
# MAX_WAVE = 9998.7886
# COMMENT =
  Wavelength         Flux 
 3401.534602   2.0599e-16 
 3403.069204   1.5845e-16 
 3404.603806   1.7303e-16 
 3406.138408     1.59e-16 
  3407.67301   1.3971e-16 
 3409.207612   1.6187e-16 
 3410.742214    9.609e-17 
 3412.276816   1.0767e-16 
 3413.811418   1.3158e-16 
  3415.34602   1.2665e-16 
 3416.880622   1.3332e-16 
 3418.415224   8.5451e-17 
 3419.949826   1.2156e-16 
 3421.484428   9.4406e-17 
  3423.01903   9.7637e-17 
 3424.553632   1.2441e-16 
 3426.088234   1.3151e-16 
 3427.622836   1.2266e-16 
 3429.157438   1.1755e-16 
  3430.69204   8.4265e-17 
 3432.226642   8.7008e-17 
 3433.761244   7.4367e-17 
 3435.295846   7.1593e-17 
 3436.830448   5.8539e-17 
  3438.36505   8.0845e-17 
 3439.899652   6.7573e-17 
 3441.434254   9.3268e-17 
 3442.968856   7.2112e-17 
 3444.503458    7.045e-17 
  3446.03806   1.0076e-16 
 3447.572662   9.8751e-17 
 3449.107264   9.4891e-17 
 3450.641866   8.1337e-17 
 3452.176468   8.6285e-17 
  3453.71107   8.9913e-17 
 3455.245672   5.1885e-17 
 3456.780274   8.0191e-17 
 3458.314876   1.1095e-16 
 3459.849478   1.0329e-16 
  3461.38408    9.873e-17 
 3462.918682   8.3794e-17 
 3464.453284   1.0203e-16 
 3465.987886   7.3882e-17 
 3467.522488    9.458e-17 
  3469.05709   8.6155e-17 
 3470.591692   1.0122e-16 
 3472.126294   7.5765e-17 
 3473.660896   8.5112e-17 
 3475.195498   7.9896e-17 
   3476.7301   7.4388e-17 
 3478.264702   8.0192e-17 
 3479.799304   8.7596e-17 
 3481.333906    8.425e-17 
 3482.868508   8.1303e-17 
  3484.40311   9.1616e-17 
 3485.937712   9.3463e-17 
 3487.472314   8.0168e-17 
 3489.006916   7.7676e-17 
 3490.541518   8.8805e-17 
  3492.07612   7.1754e-17 
 3493.610722   6.5977e-17 
 3495.145324   9.0928e-17 
 3496.679926   7.6408e-17 
 3498.214528   6.7068e-17 
  3499.74913    7.635e-17 
 3501.283732   8.4588e-17 
 3502.818334   6.9668e-17 
 3504.352936   6.7498e-17 
 3505.887538   6.8184e-17 
  3507.42214   8.9138e-17 
 3508.956742   9.5505e-17 
 3510.491344   1.1769e-16 
 3512.025946   9.8557e-17 
 3513.560548   9.6172e-17 
  3515.09515   1.0877e-16 
 3516.629752   9.6428e-17 
 3518.164354   1.0113e-16 
 3519.698956   1.1136e-16 
 3521.233558   1.2132e-16 
  3522.76816   1.2479e-16 
 3524.302762   1.4442e-16 
 3525.837364   1.5015e-16 
 3527.371966   1.1925e-16 
 3528.906568   1.4537e-16 
  3530.44117    1.615e-16 
 3531.975772   1.4395e-16 
 3533.510374   1.4837e-16 
 3535.044976   1.3843e-16 
 3536.579578   1.1921e-16 
  3538.11418   1.3366e-16 
 3539.648782   1.6493e-16 
 3541.183384   1.6506e-16 
 3542.717986   1.5658e-16 
 3544.252588   1.5297e-16 
  3545.78719   1.1001e-16 
 3547.321792   1.2812e-16 
 3548.856394   1.2886e-16 
 3550.390996   1.2061e-16 
 3551.925598   1.2042e-16 
   3553.4602   1.0569e-16 
 3554.994802   1.2169e-16 
 3556.529404   1.3536e-16 
 3558.064006   1.2679e-16 
 3559.598608    1.187e-16 
  3561.13321   1.1317e-16 
 3562.667812    1.272e-16 
 3564.202414   9.9187e-17 
 3565.737016   1.1234e-16 
 3567.271618   1.1435e-16 
  3568.80622   1.0482e-16 
 3570.340822    1.122e-16 
 3571.875424    9.944e-17 
 3573.410026   1.0855e-16 
 3574.944628   1.1414e-16 
  3576.47923   1.1672e-16 
 3578.013832   1.1771e-16 
 3579.548434   1.0192e-16 
 3581.083036   1.1043e-16 
 3582.617638    1.146e-16 
  3584.15224   1.1765e-16 
 3585.686842   1.2544e-16 
 3587.221444   1.1143e-16 
 3588.756046   1.3365e-16 
 3590.290648   1.3582e-16 
  3591.82525   1.1284e-16 
 3593.359852   1.4827e-16 
 3594.894454   1.5796e-16 
 3596.429056   1.3565e-16 
 3597.963658    1.294e-16 
  3599.49826   1.4557e-16 
 3601.032862   1.5712e-16 
 3602.567464   1.5353e-16 
 3604.102066   1.4181e-16 
 3605.636668   1.4283e-16 
  3607.17127   1.4561e-16 
 3608.705872   1.3445e-16 
 3610.240474   1.3469e-16 
 3611.775076   1.4527e-16 
 3613.309678   1.3619e-16 
  3614.84428   1.2748e-16 
 3616.378882   1.2401e-16 
 3617.913484   1.2528e-16 
 3619.448086   1.3257e-16 
 3620.982688    1.497e-16 
  3622.51729   1.3049e-16 
 3624.051892   1.3562e-16 
 3625.586494   1.1947e-16 
 3627.121096   1.2628e-16 
 3628.655698   1.1639e-16 
   3630.1903   1.4103e-16 
 3631.724902   1.1933e-16 
 3633.259504   1.2136e-16 
 3634.794106   1.4022e-16 
 3636.328708   1.3376e-16 
  3637.86331   1.2969e-16 
 3639.397912   1.2531e-16 
 3640.932514   1.4002e-16 
 3642.467116   1.2275e-16 
 3644.001718   1.2214e-16 
  3645.53632   1.2948e-16 
 3647.070922   1.0485e-16 
 3648.605524   1.3241e-16 
 3650.140126   1.0068e-16 
 3651.674728   1.0742e-16 
  3653.20933   1.2097e-16 
 3654.743932   1.1178e-16 
 3656.278534   1.3111e-16 
 3657.813136   1.3303e-16 
 3659.347738   1.0809e-16 
  3660.88234   1.1518e-16 
 3662.416942   1.1935e-16 
 3663.951544   1.1019e-16 
 3665.486146   1.1915e-16 
 3667.020748   1.0975e-16 
  3668.55535    1.065e-16 
 3670.089952   1.0991e-16 
 3671.624554    9.426e-17 
 3673.159156   1.1505e-16 
 3674.693758    1.299e-16 
  3676.22836    1.167e-16 
 3677.762962   1.2337e-16 
 3679.297564   1.1264e-16 
 3680.832166   1.0921e-16 
 3682.366768   1.2088e-16 
  3683.90137   1.1048e-16 
 3685.435972    1.332e-16 
 3686.970574    1.218e-16 
 3688.505176   1.0644e-16 
 3690.039778     1.04e-16 
  3691.57438   9.8568e-17 
 3693.108982   1.1242e-16 
 3694.643584   1.1543e-16 
 3696.178186   1.1123e-16 
 3697.712788   1.1314e-16 
  3699.24739   1.0287e-16 
 3700.781992   9.7806e-17 
 3702.316594   9.6535e-17 
 3703.851196   9.9707e-17 
 3705.385798    1.125e-16 
   3706.9204    1.095e-16 
 3708.455002    1.094e-16 
 3709.989604   1.1575e-16 
 3711.524206   8.6394e-17 
 3713.058808   9.5335e-17 
  3714.59341   9.8541e-17 
 3716.128012   7.9899e-17 
 3717.662614   8.8272e-17 
 3719.197216    8.899e-17 
 3720.731818   8.6483e-17 
  3722.26642   9.2578e-17 
 3723.801022   9.3467e-17 
 3725.335624   8.5377e-17 
 3726.870226   8.6345e-17 
 3728.404828   8.8107e-17 
  3729.93943   7.6133e-17 
 3731.474032   9.6118e-17 
 3733.008634   7.5627e-17 
 3734.543236   8.2389e-17 
 3736.077838   8.6412e-17 
  3737.61244    9.665e-17 
 3739.147042   9.9374e-17 
 3740.681644   8.9156e-17 
 3742.216246   9.2708e-17 
 3743.750848   9.3385e-17 
  3745.28545   8.3617e-17 
 3746.820052   7.1773e-17 
 3748.354654   8.9554e-17 
 3749.889256   8.9916e-17 
 3751.423858   9.1707e-17 
  3752.95846   8.5499e-17 
 3754.493062   9.9269e-17 
 3756.027664   1.0089e-16 
 3757.562266   9.3817e-17 
 3759.096868   8.5325e-17 
  3760.63147    9.303e-17 
 3762.166072   9.4531e-17 
 3763.700674    8.362e-17 
 3765.235276   1.0334e-16 
 3766.769878   1.0181e-16 
  3768.30448   9.1154e-17 
 3769.839082   8.7157e-17 
 3771.373684   9.8533e-17 
 3772.908286   9.4213e-17 
 3774.442888   1.0049e-16 
  3775.97749   1.0701e-16 
 3777.512092   1.0644e-16 
 3779.046694   9.3677e-17 
 3780.581296   9.4349e-17 
 3782.115898   1.0459e-16 
   3783.6505   1.1062e-16 
 3785.185102   1.1707e-16 
 3786.719704   1.1248e-16 
 3788.254306   1.0609e-16 
 3789.788908   1.0868e-16 
  3791.32351   1.1657e-16 
 3792.858112   1.0985e-16 
 3794.392714   1.1351e-16 
 3795.927316    1.008e-16 
 3797.461918   9.8166e-17 
  3798.99652    9.325e-17 
 3800.531122   9.3312e-17 
 3802.065724   1.0196e-16 
 3803.600326   1.0248e-16 
 3805.134928   1.0338e-16 
  3806.66953   9.5122e-17 
 3808.204132   1.1088e-16 
 3809.738734   1.1735e-16 
 3811.273336   1.2266e-16 
 3812.807938   1.0966e-16 
  3814.34254   1.0389e-16 
 3815.877142   1.1744e-16 
 3817.411744   1.1722e-16 
 3818.946346   1.0257e-16 
 3820.480948   1.0657e-16 
  3822.01555   1.0675e-16 
 3823.550152   1.1165e-16 
 3825.084754   1.2088e-16 
 3826.619356   1.2297e-16 
 3828.153958   1.1702e-16 
  3829.68856   1.2123e-16 
 3831.223162   1.2235e-16 
 3832.757764   1.0067e-16 
 3834.292366   1.1351e-16 
 3835.826968   1.1295e-16 
  3837.36157   1.0373e-16 
 3838.896172   1.0191e-16 
 3840.430774   1.1037e-16 
 3841.965376   1.1606e-16 
 3843.499978   1.0962e-16 
  3845.03458   1.1768e-16 
 3846.569182   1.0747e-16 
 3848.103784   9.7647e-17 
 3849.638386   1.1581e-16 
 3851.172988   1.0451e-16 
  3852.70759   1.0133e-16 
 3854.242192   1.1138e-16 
 3855.776794   1.2066e-16 
 3857.311396   1.0691e-16 
 3858.845998    1.104e-16 
   3860.3806   1.0293e-16 
 3861.915202   1.0054e-16 
 3863.449804   1.0371e-16 
 3864.984406   1.0046e-16 
 3866.519008   1.1243e-16 
  3868.05361   9.6791e-17 
 3869.588212   1.0374e-16 
 3871.122814   1.0454e-16 
 3872.657416   9.7922e-17 
 3874.192018   9.1792e-17 
  3875.72662   9.3636e-17 
 3877.261222   9.6167e-17 
 3878.795824   9.7434e-17 
 3880.330426   9.3844e-17 
 3881.865028   1.0416e-16 
  3883.39963   1.0025e-16 
 3884.934232   9.9423e-17 
 3886.468834   9.8766e-17 
 3888.003436   1.0562e-16 
 3889.538038   1.1235e-16 
  3891.07264   1.0872e-16 
 3892.607242   1.2024e-16 
 3894.141844   1.1763e-16 
 3895.676446   1.0902e-16 
 3897.211048   1.1462e-16 
  3898.74565   1.1516e-16 
 3900.280252   1.2898e-16 
 3901.814854   1.2181e-16 
 3903.349456   1.1224e-16 
 3904.884058   1.1305e-16 
  3906.41866   1.2773e-16 
 3907.953262    1.125e-16 
 3909.487864   1.1208e-16 
 3911.022466   1.1116e-16 
 3912.557068   1.3343e-16 
  3914.09167   1.1527e-16 
 3915.626272   1.1775e-16 
 3917.160874   1.2713e-16 
 3918.695476    1.112e-16 
 3920.230078   1.1577e-16 
  3921.76468   1.0826e-16 
 3923.299282   1.2235e-16 
 3924.833884   1.0797e-16 
 3926.368486   1.1844e-16 
 3927.903088   1.0847e-16 
  3929.43769   1.1038e-16 
 3930.972292   1.0786e-16 
 3932.506894   1.1809e-16 
 3934.041496   1.1146e-16 
 3935.576098   1.0752e-16 
   3937.1107   1.1641e-16 
 3938.645302   1.1602e-16 
 3940.179904   1.1208e-16 
 3941.714506   1.2539e-16 
 3943.249108   1.0519e-16 
  3944.78371   1.0912e-16 
 3946.318312   1.0399e-16 
 3947.852914   9.8217e-17 
 3949.387516   1.0933e-16 
 3950.922118   1.1661e-16 
  3952.45672   1.0896e-16 
 3953.991322   1.3162e-16 
 3955.525924   1.2654e-16 
 3957.060526   1.0172e-16 
 3958.595128   1.1093e-16 
  3960.12973    1.071e-16 
 3961.664332   9.6218e-17 
 3963.198934   1.0052e-16 
 3964.733536   1.1258e-16 
 3966.268138   9.7405e-17 
  3967.80274   1.0388e-16 
 3969.337342   1.0517e-16 
 3970.871944   1.0159e-16 
 3972.406546   1.1495e-16 
 3973.941148   1.0511e-16 
  3975.47575   8.8633e-17 
 3977.010352   1.1612e-16 
 3978.544954   1.1176e-16 
 3980.079556   1.0925e-16 
 3981.614158   1.1547e-16 
  3983.14876   9.6246e-17 
 3984.683362   1.1154e-16 
 3986.217964   1.0229e-16 
 3987.752566   1.0492e-16 
 3989.287168   1.0207e-16 
  3990.82177   1.1362e-16 
 3992.356372   1.0174e-16 
 3993.890974   9.7828e-17 
 3995.425576   9.6362e-17 
 3996.960178   9.9483e-17 
  3998.49478    1.199e-16 
 4000.029382   1.1673e-16 
 4001.563984   1.1583e-16 
 4003.098586   1.0722e-16 
 4004.633188   9.7897e-17 
  4006.16779   9.7261e-17 
 4007.702392   1.0595e-16 
 4009.236994   1.0712e-16 
 4010.771596    1.062e-16 
 4012.306198   9.5313e-17 
   4013.8408   1.2012e-16 
 4015.375402   1.0197e-16 
 4016.910004   9.1211e-17 
 4018.444606   1.0398e-16 
 4019.979208   1.0562e-16 
  4021.51381   9.9368e-17 
 4023.048412   1.1087e-16 
 4024.583014   1.1765e-16 
 4026.117616   1.0486e-16 
 4027.652218    1.123e-16 
  4029.18682    1.148e-16 
 4030.721422   1.0452e-16 
 4032.256024   1.0917e-16 
 4033.790626   1.0349e-16 
 4035.325228    1.019e-16 
  4036.85983   1.0769e-16 
 4038.394432   1.1386e-16 
 4039.929034   9.8869e-17 
 4041.463636   1.0535e-16 
 4042.998238   9.1626e-17 
  4044.53284   1.1001e-16 
 4046.067442   1.2229e-16 
 4047.602044   8.8671e-17 
 4049.136646   9.7345e-17 
 4050.671248   1.0209e-16 
  4052.20585   1.2491e-16 
 4053.740452   1.2925e-16 
 4055.275054   1.0405e-16 
 4056.809656   1.2018e-16 
 4058.344258   1.2887e-16 
  4059.87886   1.2511e-16 
 4061.413462   1.1663e-16 
 4062.948064   1.1021e-16 
 4064.482666    1.192e-16 
 4066.017268   1.1856e-16 
  4067.55187   1.2899e-16 
 4069.086472   1.2647e-16 
 4070.621074   1.1275e-16 
 4072.155676   1.2347e-16 
 4073.690278   1.2114e-16 
  4075.22488    1.223e-16 
 4076.759482   1.2463e-16 
 4078.294084    1.236e-16 
 4079.828686   1.0594e-16 
 4081.363288    1.118e-16 
  4082.89789   1.2351e-16 
 4084.432492   1.1433e-16 
 4085.967094   1.1735e-16 
 4087.501696   1.2249e-16 
 4089.036298   1.2953e-16 
   4090.5709   1.2365e-16 
 4092.105502   9.4512e-17 
 4093.640104   1.0585e-16 
 4095.174706   1.1234e-16 
 4096.709308   1.0725e-16 
  4098.24391   1.1334e-16 
 4099.778512   1.0894e-16 
 4101.313114   1.0402e-16 
 4102.847716    1.069e-16 
 4104.382318   1.1327e-16 
  4105.91692   1.0464e-16 
 4107.451522   1.0176e-16 
 4108.986124   1.0494e-16 
 4110.520726   1.0296e-16 
 4112.055328   1.0362e-16 
  4113.58993   1.0734e-16 
 4115.124532   9.9625e-17 
 4116.659134   1.0562e-16 
 4118.193736   1.0484e-16 
 4119.728338   9.9123e-17 
  4121.26294   9.0839e-17 
 4122.797542   1.0297e-16 
 4124.332144   9.3854e-17 
 4125.866746   1.0649e-16 
 4127.401348   9.5783e-17 
  4128.93595   1.0713e-16 
 4130.470552   1.1263e-16 
 4132.005154   1.0912e-16 
 4133.539756   1.0355e-16 
 4135.074358   1.0166e-16 
  4136.60896   1.0146e-16 
 4138.143562   9.3059e-17 
 4139.678164   8.7959e-17 
 4141.212766   9.8339e-17 
 4142.747368   1.0365e-16 
  4144.28197   1.0285e-16 
 4145.816572   9.4505e-17 
 4147.351174   1.0179e-16 
 4148.885776   1.0439e-16 
 4150.420378   8.9406e-17 
  4151.95498   1.0607e-16 
 4153.489582   9.6317e-17 
 4155.024184   9.6768e-17 
 4156.558786   9.2227e-17 
 4158.093388   1.0717e-16 
  4159.62799    9.836e-17 
 4161.162592   9.8958e-17 
 4162.697194   9.9116e-17 
 4164.231796   1.0073e-16 
 4165.766398   9.4265e-17 
    4167.301   1.0224e-16 
 4168.835602   1.0642e-16 
 4170.370204   1.1249e-16 
 4171.904806   1.0761e-16 
 4173.439408    9.405e-17 
  4174.97401   9.9644e-17 
 4176.508612   1.0887e-16 
 4178.043214   1.0172e-16 
 4179.577816   1.0096e-16 
 4181.112418   9.3302e-17 
  4182.64702    1.014e-16 
 4184.181622   1.0289e-16 
 4185.716224   9.7692e-17 
 4187.250826   1.0315e-16 
 4188.785428   1.0957e-16 
  4190.32003   1.0244e-16 
 4191.854632   1.0274e-16 
 4193.389234    1.053e-16 
 4194.923836   1.0249e-16 
 4196.458438   9.5185e-17 
  4197.99304    1.038e-16 
 4199.527642   1.0628e-16 
 4201.062244   9.3288e-17 
 4202.596846   9.7877e-17 
 4204.131448    1.126e-16 
  4205.66605   1.0077e-16 
 4207.200652   8.5927e-17 
 4208.735254   9.5832e-17 
 4210.269856   9.2513e-17 
 4211.804458   1.0376e-16 
  4213.33906   9.8767e-17 
 4214.873662    9.874e-17 
 4216.408264   1.0791e-16 
 4217.942866   9.9235e-17 
 4219.477468   1.0145e-16 
  4221.01207    1.058e-16 
 4222.546672   9.4908e-17 
 4224.081274   9.8409e-17 
 4225.615876   9.2145e-17 
 4227.150478   9.2208e-17 
  4228.68508    9.176e-17 
 4230.219682   9.5404e-17 
 4231.754284   9.0042e-17 
 4233.288886   1.0425e-16 
 4234.823488   1.0829e-16 
  4236.35809   1.0328e-16 
 4237.892692   1.0161e-16 
 4239.427294   1.0819e-16 
 4240.961896   1.0805e-16 
 4242.496498   1.0249e-16 
   4244.0311   8.8876e-17 
 4245.565702   1.0403e-16 
 4247.100304   1.0394e-16 
 4248.634906   9.8218e-17 
 4250.169508   1.0179e-16 
  4251.70411   8.0754e-17 
 4253.238712   9.2753e-17 
 4254.773314   9.9462e-17 
 4256.307916   8.0717e-17 
 4257.842518    8.578e-17 
  4259.37712   1.0146e-16 
 4260.911722   9.9974e-17 
 4262.446324    1.001e-16 
 4263.980926   1.0846e-16 
 4265.515528   1.0444e-16 
  4267.05013   9.5025e-17 
 4268.584732   9.0098e-17 
 4270.119334   9.3168e-17 
 4271.653936   9.8988e-17 
 4273.188538   1.0221e-16 
  4274.72314   1.0404e-16 
 4276.257742   9.4556e-17 
 4277.792344   9.7813e-17 
 4279.326946   1.0413e-16 
 4280.861548   1.1124e-16 
  4282.39615    1.117e-16 
 4283.930752   1.0437e-16 
 4285.465354    1.054e-16 
 4286.999956    9.478e-17 
 4288.534558   1.0083e-16 
  4290.06916   1.0198e-16 
 4291.603762   1.1883e-16 
 4293.138364   1.0797e-16 
 4294.672966   9.5985e-17 
 4296.207568   9.4403e-17 
  4297.74217   9.6902e-17 
 4299.276772   9.4098e-17 
 4300.811374   8.8223e-17 
 4302.345976   9.3773e-17 
 4303.880578   9.4677e-17 
  4305.41518   1.0415e-16 
 4306.949782   1.1283e-16 
 4308.484384   1.0581e-16 
 4310.018986   9.6635e-17 
 4311.553588   9.6299e-17 
  4313.08819   1.0292e-16 
 4314.622792    9.395e-17 
 4316.157394   1.0039e-16 
 4317.691996   9.9389e-17 
 4319.226598   9.6839e-17 
   4320.7612   1.0121e-16 
 4322.295802   1.0444e-16 
 4323.830404   1.0388e-16 
 4325.365006   1.1229e-16 
 4326.899608   1.1048e-16 
  4328.43421   1.0232e-16 
 4329.968812   1.0657e-16 
 4331.503414   9.9582e-17 
 4333.038016   1.0891e-16 
 4334.572618   1.1411e-16 
  4336.10722   9.5508e-17 
 4337.641822   1.0265e-16 
 4339.176424   1.1482e-16 
 4340.711026   1.0598e-16 
 4342.245628   1.1054e-16 
  4343.78023   8.8801e-17 
 4345.314832   1.0165e-16 
 4346.849434   1.0175e-16 
 4348.384036   1.1508e-16 
 4349.918638   1.1309e-16 
  4351.45324    1.154e-16 
 4352.987842   1.1915e-16 
 4354.522444   9.7723e-17 
 4356.057046   1.0027e-16 
 4357.591648   1.5692e-16 
  4359.12625   1.1911e-16 
 4360.660852    1.098e-16 
 4362.195454   1.2333e-16 
 4363.730056   1.0341e-16 
 4365.264658    1.152e-16 
  4366.79926   1.1377e-16 
 4368.333862   1.0608e-16 
 4369.868464   1.0891e-16 
 4371.403066   1.0925e-16 
 4372.937668   9.4153e-17 
  4374.47227   9.1007e-17 
 4376.006872   1.0464e-16 
 4377.541474   1.1435e-16 
 4379.076076   9.3779e-17 
 4380.610678   9.1036e-17 
  4382.14528    1.118e-16 
 4383.679882   1.0476e-16 
 4385.214484   8.3973e-17 
 4386.749086   8.9731e-17 
 4388.283688   9.8327e-17 
  4389.81829   1.0517e-16 
 4391.352892   9.3474e-17 
 4392.887494   9.4822e-17 
 4394.422096   1.0159e-16 
 4395.956698   9.8739e-17 
   4397.4913   9.8698e-17 
 4399.025902   8.6222e-17 
 4400.560504   1.1287e-16 
 4402.095106   1.0267e-16 
 4403.629708   9.9272e-17 
  4405.16431   9.0986e-17 
 4406.698912    1.006e-16 
 4408.233514   1.0044e-16 
 4409.768116   9.9799e-17 
 4411.302718   1.0659e-16 
  4412.83732   1.1223e-16 
 4414.371922    9.927e-17 
 4415.906524   8.3334e-17 
 4417.441126   9.4023e-17 
 4418.975728   1.0418e-16 
  4420.51033   9.6116e-17 
 4422.044932   9.5815e-17 
 4423.579534   9.3826e-17 
 4425.114136   1.0333e-16 
 4426.648738   1.0441e-16 
  4428.18334   9.5324e-17 
 4429.717942   8.0315e-17 
 4431.252544   8.4925e-17 
 4432.787146   7.6014e-17 
 4434.321748   7.8269e-17 
  4435.85635   8.7131e-17 
 4437.390952   9.6925e-17 
 4438.925554   1.0103e-16 
 4440.460156   9.9542e-17 
 4441.994758   1.0321e-16 
  4443.52936    1.045e-16 
 4445.063962   9.1145e-17 
 4446.598564   7.8719e-17 
 4448.133166   8.9007e-17 
 4449.667768   7.7616e-17 
  4451.20237   9.1774e-17 
 4452.736972    1.102e-16 
 4454.271574   9.3956e-17 
 4455.806176   9.1828e-17 
 4457.340778   9.5838e-17 
  4458.87538   9.6377e-17 
 4460.409982   9.3946e-17 
 4461.944584   8.0087e-17 
 4463.479186   7.6643e-17 
 4465.013788   8.6985e-17 
  4466.54839   9.8421e-17 
 4468.082992   8.9021e-17 
 4469.617594   9.2981e-17 
 4471.152196   9.0814e-17 
 4472.686798   9.9972e-17 
   4474.2214   1.0881e-16 
 4475.756002   8.3927e-17 
 4477.290604    6.982e-17 
 4478.825206   8.3084e-17 
 4480.359808   9.3472e-17 
  4481.89441   8.4631e-17 
 4483.429012   7.7172e-17 
 4484.963614   8.9033e-17 
 4486.498216   8.7837e-17 
 4488.032818   8.9132e-17 
  4489.56742   8.1585e-17 
 4491.102022   9.8243e-17 
 4492.636624    8.551e-17 
 4494.171226   9.8046e-17 
 4495.705828   7.6816e-17 
  4497.24043   1.0318e-16 
 4498.775032   9.9095e-17 
 4500.309634   9.5523e-17 
 4501.844236   8.2149e-17 
 4503.378838   1.1349e-16 
  4504.91344   1.0012e-16 
 4506.448042   8.2433e-17 
 4507.982644   9.0254e-17 
 4509.517246   8.9978e-17 
 4511.051848    8.455e-17 
  4512.58645   8.8794e-17 
 4514.121052     9.06e-17 
 4515.655654   9.8078e-17 
 4517.190256   1.1337e-16 
 4518.724858   1.2946e-16 
  4520.25946   1.1844e-16 
 4521.794062   1.2219e-16 
 4523.328664   1.0687e-16 
 4524.863266    1.069e-16 
 4526.397868   1.0566e-16 
  4527.93247   7.8553e-17 
 4529.467072   1.0353e-16 
 4531.001674   1.0391e-16 
 4532.536276   9.9895e-17 
 4534.070878   9.9908e-17 
  4535.60548    9.841e-17 
 4537.140082   1.0092e-16 
 4538.674684   1.0223e-16 
 4540.209286   1.0085e-16 
 4541.743888   9.6272e-17 
  4543.27849   1.0635e-16 
 4544.813092   1.0417e-16 
 4546.347694   9.4353e-17 
 4547.882296   1.0512e-16 
 4549.416898   8.7863e-17 
   4550.9515   9.0917e-17 
 4552.486102   9.8693e-17 
 4554.020704   9.4949e-17 
 4555.555306    1.003e-16 
 4557.089908   1.0161e-16 
  4558.62451   8.5803e-17 
 4560.159112   9.9334e-17 
 4561.693714    9.645e-17 
 4563.228316   1.0455e-16 
 4564.762918   1.2363e-16 
  4566.29752   1.0606e-16 
 4567.832122   1.0335e-16 
 4569.366724   1.1288e-16 
 4570.901326   1.0441e-16 
 4572.435928   9.4618e-17 
  4573.97053   9.5869e-17 
 4575.505132   1.2064e-16 
 4577.039734   1.1437e-16 
 4578.574336   1.1095e-16 
 4580.108938   1.2332e-16 
  4581.64354   1.0726e-16 
 4583.178142   1.0701e-16 
 4584.712744   1.2124e-16 
 4586.247346   1.0506e-16 
 4587.781948   1.0191e-16 
  4589.31655   1.0547e-16 
 4590.851152   9.9754e-17 
 4592.385754   9.4157e-17 
 4593.920356   8.9445e-17 
 4595.454958   1.0205e-16 
  4596.98956   1.0541e-16 
 4598.524162   1.0656e-16 
 4600.058764   9.6696e-17 
 4601.593366   1.0108e-16 
 4603.127968    9.224e-17 
  4604.66257   8.2884e-17 
 4606.197172   9.6375e-17 
 4607.731774   1.1034e-16 
 4609.266376   9.3379e-17 
 4610.800978   8.6803e-17 
  4612.33558   7.6507e-17 
 4613.870182    1.042e-16 
 4615.404784   8.8339e-17 
 4616.939386   9.0879e-17 
 4618.473988   9.0548e-17 
  4620.00859   9.5231e-17 
 4621.543192   9.9157e-17 
 4623.077794   8.9664e-17 
 4624.612396   9.4087e-17 
 4626.146998   1.0126e-16 
   4627.6816   9.4675e-17 
 4629.216202   9.4906e-17 
 4630.750804   9.1783e-17 
 4632.285406    8.484e-17 
 4633.820008   7.0342e-17 
  4635.35461   8.7046e-17 
 4636.889212   1.0081e-16 
 4638.423814   9.5744e-17 
 4639.958416    8.534e-17 
 4641.493018   8.3397e-17 
  4643.02762   1.1307e-16 
 4644.562222   1.1472e-16 
 4646.096824   1.0259e-16 
 4647.631426   1.0484e-16 
 4649.166028   1.1258e-16 
  4650.70063   1.1169e-16 
 4652.235232   1.0849e-16 
 4653.769834   1.0085e-16 
 4655.304436   1.1073e-16 
 4656.839038   9.8534e-17 
  4658.37364    1.027e-16 
 4659.908242    9.587e-17 
 4661.442844   9.4748e-17 
 4662.977446   1.0903e-16 
 4664.512048   9.9954e-17 
  4666.04665   9.2215e-17 
 4667.581252   9.4873e-17 
 4669.115854   9.9787e-17 
 4670.650456   9.7967e-17 
 4672.185058    1.071e-16 
  4673.71966   1.1593e-16 
 4675.254262   9.8474e-17 
 4676.788864   9.6639e-17 
 4678.323466   9.6917e-17 
 4679.858068   1.0497e-16 
  4681.39267    9.747e-17 
 4682.927272   1.0583e-16 
 4684.461874   1.0195e-16 
 4685.996476   9.7513e-17 
 4687.531078   1.0313e-16 
  4689.06568   9.4529e-17 
 4690.600282   1.1145e-16 
 4692.134884    1.282e-16 
 4693.669486   1.1251e-16 
 4695.204088   1.0321e-16 
  4696.73869   1.1127e-16 
 4698.273292   1.0306e-16 
 4699.807894   9.0629e-17 
 4701.342496   8.5682e-17 
 4702.877098    8.502e-17 
   4704.4117   9.0008e-17 
 4705.946302   9.4138e-17 
 4707.480904   8.5512e-17 
 4709.015506   8.1754e-17 
 4710.550108   8.8943e-17 
  4712.08471    1.045e-16 
 4713.619312   1.0007e-16 
 4715.153914   9.0845e-17 
 4716.688516   9.2688e-17 
 4718.223118   9.6501e-17 
  4719.75772   1.0184e-16 
 4721.292322   9.2161e-17 
 4722.826924   7.1502e-17 
 4724.361526   7.8743e-17 
 4725.896128   8.9421e-17 
  4727.43073   9.4953e-17 
 4728.965332   9.3159e-17 
 4730.499934   9.0118e-17 
 4732.034536   8.1361e-17 
 4733.569138   7.7361e-17 
  4735.10374   8.7675e-17 
 4736.638342   8.8729e-17 
 4738.172944   8.8062e-17 
 4739.707546   8.7037e-17 
 4741.242148   7.7663e-17 
  4742.77675    8.279e-17 
 4744.311352   7.6944e-17 
 4745.845954   8.2616e-17 
 4747.380556    8.694e-17 
 4748.915158   7.4394e-17 
  4750.44976   7.6631e-17 
 4751.984362   7.9031e-17 
 4753.518964    8.665e-17 
 4755.053566    7.111e-17 
 4756.588168   7.6698e-17 
  4758.12277   7.5708e-17 
 4759.657372   7.9854e-17 
 4761.191974    7.252e-17 
 4762.726576   7.7514e-17 
 4764.261178   9.3675e-17 
  4765.79578   8.2464e-17 
 4767.330382   8.2991e-17 
 4768.864984   8.5434e-17 
 4770.399586   9.1586e-17 
 4771.934188   8.5524e-17 
  4773.46879   9.1298e-17 
 4775.003392   9.1654e-17 
 4776.537994   8.6711e-17 
 4778.072596   7.1589e-17 
 4779.607198   8.9121e-17 
   4781.1418   8.5788e-17 
 4782.676402   7.3984e-17 
 4784.211004   9.1196e-17 
 4785.745606   9.2452e-17 
 4787.280208   8.8186e-17 
  4788.81481   9.2915e-17 
 4790.349412   9.8748e-17 
 4791.884014   9.5277e-17 
 4793.418616   9.3769e-17 
 4794.953218   9.8765e-17 
  4796.48782   1.0083e-16 
 4798.022422   1.0196e-16 
 4799.557024   1.0337e-16 
 4801.091626   1.0932e-16 
 4802.626228    9.666e-17 
  4804.16083   8.8663e-17 
 4805.695432   9.8259e-17 
 4807.230034   9.9611e-17 
 4808.764636   9.4457e-17 
 4810.299238   8.7867e-17 
  4811.83384    1.089e-16 
 4813.368442   1.1467e-16 
 4814.903044    1.112e-16 
 4816.437646    8.837e-17 
 4817.972248   1.0758e-16 
  4819.50685   9.4951e-17 
 4821.041452   9.3706e-17 
 4822.576054   1.0653e-16 
 4824.110656   1.0703e-16 
 4825.645258   9.1696e-17 
  4827.17986   9.1432e-17 
 4828.714462   9.0378e-17 
 4830.249064   9.4418e-17 
 4831.783666   9.6135e-17 
 4833.318268    1.051e-16 
  4834.85287   1.0262e-16 
 4836.387472    8.067e-17 
 4837.922074   9.1143e-17 
 4839.456676   1.0207e-16 
 4840.991278   9.8713e-17 
  4842.52588   8.5809e-17 
 4844.060482   1.0056e-16 
 4845.595084   9.5532e-17 
 4847.129686   9.0497e-17 
 4848.664288   8.5921e-17 
  4850.19889   9.7893e-17 
 4851.733492   9.3336e-17 
 4853.268094   9.1621e-17 
 4854.802696   8.5062e-17 
 4856.337298   8.2855e-17 
   4857.8719   8.2499e-17 
 4859.406502    8.547e-17 
 4860.941104   8.0188e-17 
 4862.475706   9.8025e-17 
 4864.010308   1.0187e-16 
  4865.54491   8.2552e-17 
 4867.079512   9.8463e-17 
 4868.614114    1.011e-16 
 4870.148716   8.9249e-17 
 4871.683318   7.5611e-17 
  4873.21792   8.7684e-17 
 4874.752522   7.6933e-17 
 4876.287124   7.7569e-17 
 4877.821726   9.2192e-17 
 4879.356328   9.9226e-17 
  4880.89093   8.5613e-17 
 4882.425532   7.0301e-17 
 4883.960134   7.9498e-17 
 4885.494736   8.2523e-17 
 4887.029338   8.2561e-17 
  4888.56394   8.5106e-17 
 4890.098542   8.8241e-17 
 4891.633144   8.5343e-17 
 4893.167746   9.2627e-17 
 4894.702348   8.8503e-17 
  4896.23695   8.7263e-17 
 4897.771552   8.4888e-17 
 4899.306154   8.7223e-17 
 4900.840756   8.1416e-17 
 4902.375358   9.3201e-17 
  4903.90996   8.6278e-17 
 4905.444562   8.0284e-17 
 4906.979164   8.7937e-17 
 4908.513766   8.3791e-17 
 4910.048368   7.1213e-17 
  4911.58297   7.9806e-17 
 4913.117572   8.7326e-17 
 4914.652174   8.1571e-17 
 4916.186776    8.715e-17 
 4917.721378   9.3911e-17 
  4919.25598   7.9367e-17 
 4920.790582   8.4995e-17 
 4922.325184   8.2775e-17 
 4923.859786   8.1167e-17 
 4925.394388   8.4764e-17 
  4926.92899   8.2361e-17 
 4928.463592   8.1456e-17 
 4929.998194   7.9551e-17 
 4931.532796   8.4831e-17 
 4933.067398   7.3733e-17 
    4934.602   8.0701e-17 
 4936.136602   7.9306e-17 
 4937.671204   7.3994e-17 
 4939.205806   8.6925e-17 
 4940.740408   8.7822e-17 
  4942.27501   8.1892e-17 
 4943.809612   8.3742e-17 
 4945.344214   7.7749e-17 
 4946.878816    6.404e-17 
 4948.413418   7.0804e-17 
  4949.94802   8.5027e-17 
 4951.482622   7.8514e-17 
 4953.017224   7.3384e-17 
 4954.551826   6.0815e-17 
 4956.086428   8.6456e-17 
  4957.62103   9.3052e-17 
 4959.155632   8.9455e-17 
 4960.690234   9.3653e-17 
 4962.224836   8.2262e-17 
 4963.759438     7.66e-17 
  4965.29404   7.0397e-17 
 4966.828642   8.5966e-17 
 4968.363244   9.9072e-17 
 4969.897846   9.5625e-17 
 4971.432448   9.2898e-17 
  4972.96705   9.7997e-17 
 4974.501652   9.6017e-17 
 4976.036254   9.1408e-17 
 4977.570856   9.1395e-17 
 4979.105458   7.6809e-17 
  4980.64006   9.0834e-17 
 4982.174662    1.023e-16 
 4983.709264    7.513e-17 
 4985.243866   8.8066e-17 
 4986.778468   1.0262e-16 
  4988.31307   1.0632e-16 
 4989.847672   1.0086e-16 
 4991.382274   9.0501e-17 
 4992.916876   8.8314e-17 
 4994.451478   8.7802e-17 
  4995.98608   7.8671e-17 
 4997.520682   8.7833e-17 
 4999.055284   8.8058e-17 
 5000.589886   8.8723e-17 
 5002.124488   8.4373e-17 
  5003.65909   8.5015e-17 
 5005.193692   8.6306e-17 
 5006.728294   1.0079e-16 
 5008.262896   1.0175e-16 
 5009.797498   8.7185e-17 
   5011.3321   7.8427e-17 
 5012.866702   8.9835e-17 
 5014.401304   9.5696e-17 
 5015.935906   8.5359e-17 
 5017.470508   9.9164e-17 
  5019.00511   1.0872e-16 
 5020.539712   8.6251e-17 
 5022.074314   8.9797e-17 
 5023.608916   6.4645e-17 
 5025.143518   9.5226e-17 
  5026.67812   8.7295e-17 
 5028.212722    6.836e-17 
 5029.747324    9.148e-17 
 5031.281926   9.3829e-17 
 5032.816528   8.1493e-17 
  5034.35113   9.5557e-17 
 5035.885732   8.1392e-17 
 5037.420334   7.5263e-17 
 5038.954936   8.1286e-17 
 5040.489538   9.5497e-17 
  5042.02414   9.4842e-17 
 5043.558742   8.0249e-17 
 5045.093344    8.133e-17 
 5046.627946   8.1237e-17 
 5048.162548   8.6077e-17 
  5049.69715   9.4512e-17 
 5051.231752    8.251e-17 
 5052.766354   7.7412e-17 
 5054.300956   7.6889e-17 
 5055.835558   8.3647e-17 
  5057.37016   6.8192e-17 
 5058.904762   7.2221e-17 
 5060.439364   7.8234e-17 
 5061.973966   6.7003e-17 
 5063.508568   8.2338e-17 
  5065.04317   9.8434e-17 
 5066.577772    9.109e-17 
 5068.112374     7.76e-17 
 5069.646976   7.5858e-17 
 5071.181578   8.8894e-17 
  5072.71618   8.3306e-17 
 5074.250782   7.3867e-17 
 5075.785384   8.8475e-17 
 5077.319986   7.8111e-17 
 5078.854588   7.9719e-17 
  5080.38919   7.2719e-17 
 5081.923792    7.139e-17 
 5083.458394   8.7188e-17 
 5084.992996   8.6862e-17 
 5086.527598   7.0518e-17 
   5088.0622   8.4231e-17 
 5089.596802   8.4393e-17 
 5091.131404   7.5147e-17 
 5092.666006   8.0775e-17 
 5094.200608   7.4489e-17 
  5095.73521   7.3782e-17 
 5097.269812   7.2908e-17 
 5098.804414   8.1673e-17 
 5100.339016   7.3161e-17 
 5101.873618   7.5964e-17 
  5103.40822   7.1006e-17 
 5104.942822   7.0025e-17 
 5106.477424   7.1673e-17 
 5108.012026   7.7329e-17 
 5109.546628   7.4666e-17 
  5111.08123   6.3229e-17 
 5112.615832   5.8847e-17 
 5114.150434   7.5753e-17 
 5115.685036   9.1151e-17 
 5117.219638   7.4465e-17 
  5118.75424   7.0661e-17 
 5120.288842   6.8622e-17 
 5121.823444   7.8869e-17 
 5123.358046   7.5008e-17 
 5124.892648   7.4302e-17 
  5126.42725   7.4191e-17 
 5127.961852   7.2197e-17 
 5129.496454   6.9199e-17 
 5131.031056   5.4139e-17 
 5132.565658   4.9721e-17 
  5134.10026   5.5473e-17 
 5135.634862   6.8598e-17 
 5137.169464   7.3171e-17 
 5138.704066   6.2886e-17 
 5140.238668   6.8958e-17 
  5141.77327   6.6214e-17 
 5143.307872   5.9748e-17 
 5144.842474   7.0046e-17 
 5146.377076   6.5447e-17 
 5147.911678   7.0502e-17 
  5149.44628   5.7433e-17 
 5150.980882   6.7317e-17 
 5152.515484   7.5147e-17 
 5154.050086   4.5808e-17 
 5155.584688   6.1906e-17 
  5157.11929   6.0973e-17 
 5158.653892   6.7155e-17 
 5160.188494   5.8494e-17 
 5161.723096   5.7193e-17 
 5163.257698    5.042e-17 
   5164.7923   6.3359e-17 
 5166.326902   6.6136e-17 
 5167.861504    4.722e-17 
 5169.396106   6.7802e-17 
 5170.930708   5.9814e-17 
  5172.46531   5.4442e-17 
 5173.999912   5.8636e-17 
 5175.534514   5.9416e-17 
 5177.069116   5.2326e-17 
 5178.603718   5.8692e-17 
  5180.13832   4.5959e-17 
 5181.672922    4.878e-17 
 5183.207524   5.3771e-17 
 5184.742126   5.3265e-17 
 5186.276728   5.2787e-17 
  5187.81133   4.5004e-17 
 5189.345932   4.7693e-17 
 5190.880534   4.3528e-17 
 5192.415136   4.4902e-17 
 5193.949738   5.4183e-17 
  5195.48434   6.7489e-17 
 5197.018942   6.3392e-17 
 5198.553544   7.1669e-17 
 5200.088146   6.3362e-17 
 5201.622748   5.9738e-17 
  5203.15735   6.7429e-17 
 5204.691952   5.6297e-17 
 5206.226554   5.8725e-17 
 5207.761156   5.4435e-17 
 5209.295758   5.5286e-17 
  5210.83036   6.8767e-17 
 5212.364962   6.9554e-17 
 5213.899564   6.1192e-17 
 5215.434166   5.6744e-17 
 5216.968768   6.4874e-17 
  5218.50337   5.5507e-17 
 5220.037972   5.3479e-17 
 5221.572574    6.323e-17 
 5223.107176   6.5264e-17 
 5224.641778   4.3785e-17 
  5226.17638   7.1994e-17 
 5227.710982   8.1181e-17 
 5229.245584   6.9016e-17 
 5230.780186   5.5378e-17 
 5232.314788   7.4711e-17 
  5233.84939   8.7491e-17 
 5235.383992   8.3674e-17 
 5236.918594    8.351e-17 
 5238.453196   7.0035e-17 
 5239.987798   8.1243e-17 
   5241.5224   6.4792e-17 
 5243.057002   9.1204e-17 
 5244.591604   7.7157e-17 
 5246.126206   7.6184e-17 
 5247.660808   6.9254e-17 
  5249.19541   7.2254e-17 
 5250.730012   6.8865e-17 
 5252.264614   7.8931e-17 
 5253.799216   8.8065e-17 
 5255.333818   6.7766e-17 
  5256.86842   6.7938e-17 
 5258.403022   7.0178e-17 
 5259.937624   7.0797e-17 
 5261.472226   7.6793e-17 
 5263.006828   8.1911e-17 
  5264.54143   8.5974e-17 
 5266.076032   7.1437e-17 
 5267.610634   6.9638e-17 
 5269.145236    7.013e-17 
 5270.679838    8.405e-17 
  5272.21444   7.8393e-17 
 5273.749042   7.7158e-17 
 5275.283644   8.9989e-17 
 5276.818246   7.8952e-17 
 5278.352848   6.9178e-17 
  5279.88745   7.6074e-17 
 5281.422052   8.9219e-17 
 5282.956654   7.6213e-17 
 5284.491256    6.924e-17 
 5286.025858   7.3587e-17 
  5287.56046   8.4814e-17 
 5289.095062   8.6495e-17 
 5290.629664   6.9549e-17 
 5292.164266   8.4547e-17 
 5293.698868   8.0117e-17 
  5295.23347   7.4578e-17 
 5296.768072   8.1329e-17 
 5298.302674   9.0604e-17 
 5299.837276   8.4642e-17 
 5301.371878   7.9356e-17 
  5302.90648   7.1257e-17 
 5304.441082   8.5809e-17 
 5305.975684   7.2158e-17 
 5307.510286   7.3041e-17 
 5309.044888   9.1775e-17 
  5310.57949   9.1959e-17 
 5312.114092   7.8883e-17 
 5313.648694   9.6826e-17 
 5315.183296   7.2078e-17 
 5316.717898   7.5063e-17 
   5318.2525   7.8696e-17 
 5319.787102   8.7513e-17 
 5321.321704   8.8719e-17 
 5322.856306   1.0591e-16 
 5324.390908   8.8802e-17 
  5325.92551   7.8432e-17 
 5327.460112   9.5836e-17 
 5328.994714   1.1521e-16 
 5330.529316   1.0276e-16 
 5332.063918    8.449e-17 
  5333.59852   9.5874e-17 
 5335.133122    9.203e-17 
 5336.667724   7.9591e-17 
 5338.202326   9.2899e-17 
 5339.736928   1.0221e-16 
  5341.27153   8.9536e-17 
 5342.806132   8.9682e-17 
 5344.340734   8.3177e-17 
 5345.875336   9.3426e-17 
 5347.409938   8.3765e-17 
  5348.94454    9.396e-17 
 5350.479142   9.0828e-17 
 5352.013744   8.7339e-17 
 5353.548346   1.0219e-16 
 5355.082948   8.9035e-17 
  5356.61755   9.0708e-17 
 5358.152152   9.5348e-17 
 5359.686754   8.1641e-17 
 5361.221356   8.7633e-17 
 5362.755958   9.4432e-17 
  5364.29056   7.5314e-17 
 5365.825162   6.3069e-17 
 5367.359764   6.9434e-17 
 5368.894366   9.3919e-17 
 5370.428968   9.0788e-17 
  5371.96357    7.971e-17 
 5373.498172   8.2884e-17 
 5375.032774   7.9629e-17 
 5376.567376   8.3492e-17 
 5378.101978   8.9691e-17 
  5379.63658   8.7637e-17 
 5381.171182   8.1901e-17 
 5382.705784   8.0031e-17 
 5384.240386   8.2063e-17 
 5385.774988   8.5297e-17 
  5387.30959   8.7574e-17 
 5388.844192   7.2426e-17 
 5390.378794   7.0673e-17 
 5391.913396   8.8104e-17 
 5393.447998   9.7662e-17 
   5394.9826   8.3339e-17 
 5396.517202   7.0253e-17 
 5398.051804   6.7625e-17 
 5399.586406   7.6204e-17 
 5401.121008   9.0829e-17 
  5402.65561    1.035e-16 
 5404.190212   9.1938e-17 
 5405.724814   7.7233e-17 
 5407.259416   9.1943e-17 
 5408.794018   8.4862e-17 
  5410.32862   7.1136e-17 
 5411.863222   9.0763e-17 
 5413.397824   8.7406e-17 
 5414.932426   8.6166e-17 
 5416.467028   1.0298e-16 
  5418.00163   8.1603e-17 
 5419.536232   7.6062e-17 
 5421.070834   7.1379e-17 
 5422.605436   7.2346e-17 
 5424.140038   9.6344e-17 
  5425.67464     8.62e-17 
 5427.209242   8.4823e-17 
 5428.743844   6.1018e-17 
 5430.278446   8.6355e-17 
 5431.813048   6.4126e-17 
  5433.34765   6.2171e-17 
 5434.882252   7.5658e-17 
 5436.416854   7.9374e-17 
 5437.951456    7.314e-17 
 5439.486058   8.3051e-17 
  5441.02066   7.7823e-17 
 5442.555262   7.2662e-17 
 5444.089864   8.7424e-17 
 5445.624466   7.0589e-17 
 5447.159068   8.0811e-17 
  5448.69367   7.3881e-17 
 5450.228272   7.6352e-17 
 5451.762874   7.5433e-17 
 5453.297476   8.6113e-17 
 5454.832078   6.9749e-17 
  5456.36668   5.7785e-17 
 5457.901282   6.5153e-17 
 5459.435884   7.1824e-17 
 5460.970486   9.6327e-17 
 5462.505088   9.5422e-17 
  5464.03969   1.1969e-16 
 5465.574292   8.9166e-17 
 5467.108894   4.8941e-17 
 5468.643496   6.7897e-17 
 5470.178098   8.4271e-17 
   5471.7127   7.1676e-17 
 5473.247302   7.6635e-17 
 5474.781904    9.485e-17 
 5476.316506   9.8568e-17 
 5477.851108   9.8799e-17 
  5479.38571   8.3876e-17 
 5480.920312   7.1721e-17 
 5482.454914   8.9021e-17 
 5483.989516   8.8249e-17 
 5485.524118   9.2994e-17 
  5487.05872   7.0781e-17 
 5488.593322   9.2384e-17 
 5490.127924   7.6497e-17 
 5491.662526   9.5333e-17 
 5493.197128   8.0631e-17 
  5494.73173   7.7737e-17 
 5496.266332   8.2156e-17 
 5497.800934   5.8371e-17 
 5499.335536   6.4846e-17 
 5500.870138    7.124e-17 
  5502.40474   7.0942e-17 
 5503.939342   6.4574e-17 
 5505.473944   6.3271e-17 
 5507.008546   7.9965e-17 
 5508.543148   8.2278e-17 
  5510.07775   6.9776e-17 
 5511.612352   7.0166e-17 
 5513.146954   5.9687e-17 
 5514.681556   5.6098e-17 
 5516.216158   6.3695e-17 
  5517.75076   5.6388e-17 
 5519.285362   4.5807e-17 
 5520.819964   5.8117e-17 
 5522.354566   6.9002e-17 
 5523.889168   6.2217e-17 
  5525.42377   6.1247e-17 
 5526.958372   6.8643e-17 
 5528.492974   6.5741e-17 
 5530.027576    5.527e-17 
 5531.562178   5.3878e-17 
  5533.09678   6.3709e-17 
 5534.631382   5.7092e-17 
 5536.165984   5.7585e-17 
 5537.700586   4.5843e-17 
 5539.235188   4.9621e-17 
  5540.76979   6.5022e-17 
 5542.304392   6.0133e-17 
 5543.838994   6.1264e-17 
 5545.373596   6.0157e-17 
 5546.908198   4.6614e-17 
   5548.4428   5.5713e-17 
 5549.977402   5.0775e-17 
 5551.512004   4.9622e-17 
 5553.046606   6.5055e-17 
 5554.581208   6.1453e-17 
  5556.11581    7.128e-17 
 5557.650412   6.1949e-17 
 5559.185014   5.3587e-17 
 5560.719616   6.1892e-17 
 5562.254218   7.0824e-17 
  5563.78882   6.4887e-17 
 5565.323422   5.3238e-17 
 5566.858024   4.7318e-17 
 5568.392626   5.6166e-17 
 5569.927228   6.2526e-17 
  5571.46183    4.724e-17 
 5572.996432   4.8886e-17 
 5574.531034    4.853e-17 
 5576.065636   5.3345e-17 
 5577.600238   5.6444e-17 
  5579.13484   6.0698e-17 
 5580.669442   6.4166e-17 
 5582.204044   6.7041e-17 
 5583.738646   5.9237e-17 
 5585.273248   5.6441e-17 
  5586.80785   5.4412e-17 
 5588.342452   6.6382e-17 
 5589.877054   6.3673e-17 
 5591.411656   6.4829e-17 
 5592.946258   7.4317e-17 
  5594.48086   7.6653e-17 
 5596.015462   6.5999e-17 
 5597.550064   6.1654e-17 
 5599.084666   6.2425e-17 
 5600.619268   7.8971e-17 
  5602.15387   6.6152e-17 
 5603.688472   5.6052e-17 
 5605.223074   5.3296e-17 
 5606.757676    5.603e-17 
 5608.292278   7.2095e-17 
  5609.82688   6.7148e-17 
 5611.361482   7.3687e-17 
 5612.896084   7.8751e-17 
 5614.430686   8.0601e-17 
 5615.965288   7.1927e-17 
  5617.49989   7.5274e-17 
 5619.034492   8.1022e-17 
 5620.569094   7.4327e-17 
 5622.103696   6.5337e-17 
 5623.638298   6.6024e-17 
   5625.1729   7.1532e-17 
 5626.707502   6.8925e-17 
 5628.242104   6.9505e-17 
 5629.776706   8.1302e-17 
 5631.311308   8.5541e-17 
  5632.84591   8.6324e-17 
 5634.380512   7.6105e-17 
 5635.915114   7.1366e-17 
 5637.449716   6.8098e-17 
 5638.984318   7.8227e-17 
  5640.51892   7.4089e-17 
 5642.053522   6.5796e-17 
 5643.588124   7.1349e-17 
 5645.122726   7.8754e-17 
 5646.657328   8.0132e-17 
  5648.19193   7.6206e-17 
 5649.726532   7.8103e-17 
 5651.261134   7.8354e-17 
 5652.795736   8.0483e-17 
 5654.330338   7.9695e-17 
  5655.86494   7.8393e-17 
 5657.399542   7.2378e-17 
 5658.934144    7.244e-17 
 5660.468746   7.6021e-17 
 5662.003348   7.5974e-17 
  5663.53795   8.1034e-17 
 5665.072552   7.7487e-17 
 5666.607154   7.8552e-17 
 5668.141756   7.6433e-17 
 5669.676358   6.7338e-17 
  5671.21096   7.4721e-17 
 5672.745562    7.955e-17 
 5674.280164   6.4187e-17 
 5675.814766   6.2517e-17 
 5677.349368   8.1686e-17 
  5678.88397   8.2088e-17 
 5680.418572   7.7248e-17 
 5681.953174   7.8165e-17 
 5683.487776   6.6037e-17 
 5685.022378   7.1013e-17 
  5686.55698   7.3131e-17 
 5688.091582   6.1013e-17 
 5689.626184   6.6591e-17 
 5691.160786   8.4277e-17 
 5692.695388   8.8558e-17 
  5694.22999   8.3809e-17 
 5695.764592    7.157e-17 
 5697.299194   6.3766e-17 
 5698.833796   6.3553e-17 
 5700.368398   6.9077e-17 
    5701.903   7.4544e-17 
 5703.437602   6.8503e-17 
 5704.972204   5.5272e-17 
 5706.506806    5.876e-17 
 5708.041408   7.1316e-17 
  5709.57601   7.5152e-17 
 5711.110612   6.6075e-17 
 5712.645214    6.493e-17 
 5714.179816   7.4709e-17 
 5715.714418   6.8712e-17 
  5717.24902   5.8596e-17 
 5718.783622   6.2986e-17 
 5720.318224   7.1274e-17 
 5721.852826   6.4646e-17 
 5723.387428   6.3746e-17 
  5724.92203   6.8853e-17 
 5726.456632   6.6751e-17 
 5727.991234   6.2619e-17 
 5729.525836   5.5322e-17 
 5731.060438   5.8835e-17 
  5732.59504   7.1021e-17 
 5734.129642   7.2254e-17 
 5735.664244   6.6403e-17 
 5737.198846   5.9957e-17 
 5738.733448   6.4738e-17 
  5740.26805   6.1899e-17 
 5741.802652   5.6446e-17 
 5743.337254   6.1742e-17 
 5744.871856   6.4779e-17 
 5746.406458   6.2654e-17 
  5747.94106   6.0951e-17 
 5749.475662   5.6334e-17 
 5751.010264   4.8515e-17 
 5752.544866   4.5182e-17 
 5754.079468   5.8053e-17 
  5755.61407   6.3246e-17 
 5757.148672   6.0848e-17 
 5758.683274    6.185e-17 
 5760.217876     5.43e-17 
 5761.752478   5.2064e-17 
  5763.28708   5.7498e-17 
 5764.821682   5.7265e-17 
 5766.356284   5.6868e-17 
 5767.890886   6.7601e-17 
 5769.425488   6.5071e-17 
  5770.96009   5.4964e-17 
 5772.494692   5.4001e-17 
 5774.029294   5.2202e-17 
 5775.563896   5.2793e-17 
 5777.098498   6.0135e-17 
   5778.6331   4.5741e-17 
 5780.167702   3.7751e-17 
 5781.702304   5.0977e-17 
 5783.236906   5.9966e-17 
 5784.771508    5.677e-17 
  5786.30611   5.1992e-17 
 5787.840712   4.6384e-17 
 5789.375314   5.0474e-17 
 5790.909916   5.6419e-17 
 5792.444518   4.6544e-17 
  5793.97912   3.5517e-17 
 5795.513722   4.4362e-17 
 5797.048324    4.548e-17 
 5798.582926   3.7499e-17 
 5800.117528    4.618e-17 
  5801.65213   5.2497e-17 
 5803.186732   5.3819e-17 
 5804.721334   4.7671e-17 
 5806.255936   4.9093e-17 
 5807.790538   4.6741e-17 
  5809.32514   4.0752e-17 
 5810.859742   4.5741e-17 
 5812.394344   4.2877e-17 
 5813.928946   4.7192e-17 
 5815.463548   5.1917e-17 
  5816.99815   4.5718e-17 
 5818.532752   3.6619e-17 
 5820.067354   3.8368e-17 
 5821.601956   4.5951e-17 
 5823.136558   4.1506e-17 
  5824.67116   4.4033e-17 
 5826.205762   5.7238e-17 
 5827.740364   5.3422e-17 
 5829.274966   4.4315e-17 
 5830.809568   4.3209e-17 
  5832.34417   4.3935e-17 
 5833.878772    4.127e-17 
 5835.413374   4.4011e-17 
 5836.947976   5.2405e-17 
 5838.482578   5.2751e-17 
  5840.01718   4.8113e-17 
 5841.551782   4.1013e-17 
 5843.086384   4.0877e-17 
 5844.620986   4.4221e-17 
 5846.155588   4.7254e-17 
  5847.69019   4.9534e-17 
 5849.224792   4.2762e-17 
 5850.759394   4.5417e-17 
 5852.293996   5.4648e-17 
 5853.828598   4.4927e-17 
   5855.3632   3.7387e-17 
 5856.897802   3.9685e-17 
 5858.432404     3.79e-17 
 5859.967006   4.4023e-17 
 5861.501608   4.9832e-17 
  5863.03621   4.7771e-17 
 5864.570812    4.533e-17 
 5866.105414   4.2374e-17 
 5867.640016   4.2312e-17 
 5869.174618    5.051e-17 
  5870.70922   4.8462e-17 
 5872.243822   3.9204e-17 
 5873.778424   3.8817e-17 
 5875.313026   4.2783e-17 
 5876.847628   4.5329e-17 
  5878.38223   4.1189e-17 
 5879.916832   4.0535e-17 
 5881.451434   4.5945e-17 
 5882.986036   4.7408e-17 
 5884.520638   5.3113e-17 
  5886.05524   4.5144e-17 
 5887.589842   2.4193e-17 
 5889.124444   4.2453e-17 
 5890.659046   5.9956e-17 
 5892.193648   4.3457e-17 
  5893.72825   3.5867e-17 
 5895.262852   4.8887e-17 
 5896.797454   4.3132e-17 
 5898.332056   3.1018e-17 
 5899.866658   3.3782e-17 
  5901.40126   3.0546e-17 
 5902.935862   3.2098e-17 
 5904.470464   3.8583e-17 
 5906.005066   3.4996e-17 
 5907.539668   3.4693e-17 
  5909.07427   3.6663e-17 
 5910.608872   3.0982e-17 
 5912.143474   3.4218e-17 
 5913.678076   3.8412e-17 
 5915.212678   4.5854e-17 
  5916.74728   4.7429e-17 
 5918.281882   3.8303e-17 
 5919.816484   4.0032e-17 
 5921.351086   4.4206e-17 
 5922.885688   4.5446e-17 
  5924.42029   4.3879e-17 
 5925.954892   3.9037e-17 
 5927.489494   5.0129e-17 
 5929.024096   5.1954e-17 
 5930.558698   4.2729e-17 
   5932.0933   3.4067e-17 
 5933.627902   4.3879e-17 
 5935.162504   5.4826e-17 
 5936.697106   5.2095e-17 
 5938.231708   4.0673e-17 
  5939.76631   3.3635e-17 
 5941.300912   4.9982e-17 
 5942.835514   5.4546e-17 
 5944.370116   5.0315e-17 
 5945.904718   5.4003e-17 
  5947.43932   5.4817e-17 
 5948.973922   4.8906e-17 
 5950.508524   4.8801e-17 
 5952.043126   4.9172e-17 
 5953.577728   4.2874e-17 
  5955.11233    5.133e-17 
 5956.646932   5.3986e-17 
 5958.181534   4.6798e-17 
 5959.716136   4.6174e-17 
 5961.250738   4.7369e-17 
  5962.78534   5.8472e-17 
 5964.319942   6.5425e-17 
 5965.854544    5.984e-17 
 5967.389146   5.2437e-17 
 5968.923748    5.482e-17 
  5970.45835   5.6144e-17 
 5971.992952    6.043e-17 
 5973.527554    5.817e-17 
 5975.062156   5.1016e-17 
 5976.596758   5.2635e-17 
  5978.13136   5.2629e-17 
 5979.665962   5.5896e-17 
 5981.200564   5.7815e-17 
 5982.735166   5.0874e-17 
 5984.269768   5.5452e-17 
  5985.80437   5.9103e-17 
 5987.338972   5.2239e-17 
 5988.873574   5.6506e-17 
 5990.408176   5.5962e-17 
 5991.942778   4.7791e-17 
  5993.47738   5.0996e-17 
 5995.011982    5.213e-17 
 5996.546584   5.4774e-17 
 5998.081186   5.0629e-17 
 5999.615788   4.5675e-17 
  6001.15039   4.4352e-17 
 6002.684992   5.4189e-17 
 6004.219594   7.0687e-17 
 6005.754196   7.6505e-17 
 6007.288798    9.146e-17 
   6008.8234   9.4294e-17 
 6010.358002   9.0894e-17 
 6011.892604    7.652e-17 
 6013.427206   5.8342e-17 
 6014.961808   5.5882e-17 
  6016.49641   6.0723e-17 
 6018.031012   6.4481e-17 
 6019.565614   6.6949e-17 
 6021.100216    6.081e-17 
 6022.634818   5.4879e-17 
  6024.16942   5.4569e-17 
 6025.704022   5.0415e-17 
 6027.238624   4.8804e-17 
 6028.773226   4.9483e-17 
 6030.307828   5.1452e-17 
  6031.84243   5.0067e-17 
 6033.377032   4.7862e-17 
 6034.911634   5.7915e-17 
 6036.446236    6.132e-17 
 6037.980838   5.3383e-17 
  6039.51544   5.8669e-17 
 6041.050042   6.1717e-17 
 6042.584644   4.7678e-17 
 6044.119246    4.229e-17 
 6045.653848   4.4142e-17 
  6047.18845     4.86e-17 
 6048.723052   5.4019e-17 
 6050.257654   5.2133e-17 
 6051.792256   5.1602e-17 
 6053.326858   4.9589e-17 
  6054.86146   5.6639e-17 
 6056.396062   6.2161e-17 
 6057.930664    5.497e-17 
 6059.465266   4.7859e-17 
 6060.999868   6.0783e-17 
  6062.53447    9.448e-17 
 6064.069072   1.2018e-16 
 6065.603674   1.2988e-16 
 6067.138276   1.4313e-16 
 6068.672878   1.4934e-16 
  6070.20748   1.3657e-16 
 6071.742082   1.1845e-16 
 6073.276684   8.9849e-17 
 6074.811286   6.1388e-17 
 6076.345888    5.457e-17 
  6077.88049    5.351e-17 
 6079.415092    4.709e-17 
 6080.949694   4.1989e-17 
 6082.484296   4.0928e-17 
 6084.018898   4.6151e-17 
   6085.5535   4.7424e-17 
 6087.088102   4.1245e-17 
 6088.622704   3.6175e-17 
 6090.157306   3.5015e-17 
 6091.691908   3.7898e-17 
  6093.22651   3.3897e-17 
 6094.761112   3.4683e-17 
 6096.295714   4.5483e-17 
 6097.830316   5.3603e-17 
 6099.364918   5.5756e-17 
  6100.89952   5.3422e-17 
 6102.434122   5.5978e-17 
 6103.968724   5.7678e-17 
 6105.503326   4.2658e-17 
 6107.037928   3.6962e-17 
  6108.57253   5.0014e-17 
 6110.107132   5.3825e-17 
 6111.641734   5.1458e-17 
 6113.176336   4.7122e-17 
 6114.710938   4.2654e-17 
  6116.24554   4.9344e-17 
 6117.780142   5.3671e-17 
 6119.314744   4.6451e-17 
 6120.849346   4.1247e-17 
 6122.383948   4.1813e-17 
  6123.91855   4.4366e-17 
 6125.453152    4.511e-17 
 6126.987754   4.5072e-17 
 6128.522356   4.3357e-17 
 6130.056958   4.4067e-17 
  6131.59156   4.8613e-17 
 6133.126162   4.7298e-17 
 6134.660764   4.5835e-17 
 6136.195366    4.946e-17 
 6137.729968   4.3285e-17 
  6139.26457   3.7606e-17 
 6140.799172   3.9732e-17 
 6142.333774   4.5357e-17 
 6143.868376   5.7945e-17 
 6145.402978   4.7131e-17 
  6146.93758   4.0916e-17 
 6148.472182   4.7371e-17 
 6150.006784    4.474e-17 
 6151.541386   4.3556e-17 
 6153.075988   4.4187e-17 
  6154.61059   5.1342e-17 
 6156.145192   6.2399e-17 
 6157.679794   5.4576e-17 
 6159.214396   4.4472e-17 
 6160.748998   5.2428e-17 
   6162.2836     4.76e-17 
 6163.818202   4.2149e-17 
 6165.352804   4.6142e-17 
 6166.887406   4.9929e-17 
 6168.422008   5.2588e-17 
  6169.95661   4.6956e-17 
 6171.491212   4.2444e-17 
 6173.025814   4.4123e-17 
 6174.560416    4.598e-17 
 6176.095018   4.8117e-17 
  6177.62962   5.2356e-17 
 6179.164222   5.0261e-17 
 6180.698824   4.6535e-17 
 6182.233426   4.6826e-17 
 6183.768028   4.7671e-17 
  6185.30263    5.337e-17 
 6186.837232   5.0339e-17 
 6188.371834   4.0396e-17 
 6189.906436    4.549e-17 
 6191.441038   5.4102e-17 
  6192.97564   5.0698e-17 
 6194.510242   5.3504e-17 
 6196.044844   5.4001e-17 
 6197.579446   5.1851e-17 
 6199.114048   4.8751e-17 
  6200.64865   4.7972e-17 
 6202.183252   5.2651e-17 
 6203.717854   5.1413e-17 
 6205.252456   4.3831e-17 
 6206.787058   4.4067e-17 
  6208.32166   4.5606e-17 
 6209.856262   4.6387e-17 
 6211.390864   5.5793e-17 
 6212.925466   6.0089e-17 
 6214.460068   4.8341e-17 
  6215.99467   4.7082e-17 
 6217.529272   5.3262e-17 
 6219.063874   4.7897e-17 
 6220.598476   4.9313e-17 
 6222.133078   5.1523e-17 
  6223.66768   5.2167e-17 
 6225.202282   5.5439e-17 
 6226.736884   5.1473e-17 
 6228.271486   5.3708e-17 
 6229.806088   5.7466e-17 
  6231.34069   4.8626e-17 
 6232.875292     4.56e-17 
 6234.409894   4.3201e-17 
 6235.944496   4.2045e-17 
 6237.479098   4.5633e-17 
   6239.0137   4.0727e-17 
 6240.548302   4.2503e-17 
 6242.082904   4.4617e-17 
 6243.617506   3.6322e-17 
 6245.152108   4.1916e-17 
  6246.68671   5.0242e-17 
 6248.221312   4.8289e-17 
 6249.755914   4.8721e-17 
 6251.290516   5.1678e-17 
 6252.825118   4.9084e-17 
  6254.35972   5.3496e-17 
 6255.894322    5.006e-17 
 6257.428924   4.5055e-17 
 6258.963526   4.7065e-17 
 6260.498128   4.8268e-17 
  6262.03273   4.8468e-17 
 6263.567332   5.1857e-17 
 6265.101934   5.4465e-17 
 6266.636536   4.8991e-17 
 6268.171138   5.2349e-17 
  6269.70574   5.4174e-17 
 6271.240342   4.5853e-17 
 6272.774944   4.5118e-17 
 6274.309546   4.9627e-17 
 6275.844148   5.0597e-17 
  6277.37875   4.8092e-17 
 6278.913352   4.5619e-17 
 6280.447954    5.467e-17 
 6281.982556   5.7601e-17 
 6283.517158   4.4657e-17 
  6285.05176   3.6928e-17 
 6286.586362   4.7022e-17 
 6288.120964   5.5593e-17 
 6289.655566   5.3677e-17 
 6291.190168   5.1083e-17 
  6292.72477    5.159e-17 
 6294.259372    6.162e-17 
 6295.793974   5.9229e-17 
 6297.328576   4.9226e-17 
 6298.863178   4.2275e-17 
  6300.39778   4.8512e-17 
 6301.932382   5.1193e-17 
 6303.466984   4.5804e-17 
 6305.001586   4.9432e-17 
 6306.536188   4.9176e-17 
  6308.07079   5.3119e-17 
 6309.605392   4.8243e-17 
 6311.139994   4.3803e-17 
 6312.674596   4.6415e-17 
 6314.209198   4.5203e-17 
   6315.7438   4.3762e-17 
 6317.278402   4.8808e-17 
 6318.813004   5.6446e-17 
 6320.347606   4.7606e-17 
 6321.882208   4.0897e-17 
  6323.41681   4.6534e-17 
 6324.951412   4.9427e-17 
 6326.486014   5.5156e-17 
 6328.020616   5.9284e-17 
 6329.555218   5.3605e-17 
  6331.08982   4.1835e-17 
 6332.624422    4.309e-17 
 6334.159024   4.4145e-17 
 6335.693626   4.6899e-17 
 6337.228228   4.5436e-17 
  6338.76283   4.5125e-17 
 6340.297432    4.807e-17 
 6341.832034   4.8497e-17 
 6343.366636   5.2277e-17 
 6344.901238   5.0079e-17 
  6346.43584   4.9294e-17 
 6347.970442   5.0145e-17 
 6349.505044   4.9037e-17 
 6351.039646   4.5705e-17 
 6352.574248   4.1034e-17 
  6354.10885   3.9109e-17 
 6355.643452   4.0999e-17 
 6357.178054   4.4494e-17 
 6358.712656   5.0861e-17 
 6360.247258   5.6427e-17 
  6361.78186   4.8786e-17 
 6363.316462   4.9981e-17 
 6364.851064   5.8863e-17 
 6366.385666   5.3731e-17 
 6367.920268   4.3558e-17 
  6369.45487   3.7324e-17 
 6370.989472   3.8959e-17 
 6372.524074   4.0582e-17 
 6374.058676   4.4535e-17 
 6375.593278   5.1915e-17 
  6377.12788    4.786e-17 
 6378.662482   4.3938e-17 
 6380.197084   4.5602e-17 
 6381.731686   4.7926e-17 
 6383.266288   4.8749e-17 
  6384.80089   4.9151e-17 
 6386.335492   4.8406e-17 
 6387.870094   4.6777e-17 
 6389.404696   4.2109e-17 
 6390.939298   4.3489e-17 
   6392.4739    4.482e-17 
 6394.008502    3.858e-17 
 6395.543104   4.1624e-17 
 6397.077706   4.9432e-17 
 6398.612308   4.8212e-17 
  6400.14691    5.147e-17 
 6401.681512   5.3287e-17 
 6403.216114   4.9151e-17 
 6404.750716   4.8418e-17 
 6406.285318   4.2642e-17 
  6407.81992   4.0403e-17 
 6409.354522   4.3053e-17 
 6410.889124   4.3451e-17 
 6412.423726   4.1762e-17 
 6413.958328   4.2108e-17 
  6415.49293   4.0594e-17 
 6417.027532   3.6453e-17 
 6418.562134   4.3837e-17 
 6420.096736   5.0538e-17 
 6421.631338   3.7553e-17 
  6423.16594   3.9291e-17 
 6424.700542   4.6375e-17 
 6426.235144   4.1289e-17 
 6427.769746   3.7029e-17 
 6429.304348   4.3088e-17 
  6430.83895   4.4479e-17 
 6432.373552   3.7678e-17 
 6433.908154   3.6665e-17 
 6435.442756    3.802e-17 
 6436.977358    4.159e-17 
  6438.51196   4.3128e-17 
 6440.046562   4.1178e-17 
 6441.581164   4.1837e-17 
 6443.115766   4.3405e-17 
 6444.650368    4.807e-17 
  6446.18497   4.7019e-17 
 6447.719572   4.0821e-17 
 6449.254174   4.2729e-17 
 6450.788776   3.8117e-17 
 6452.323378   3.6592e-17 
  6453.85798   4.5944e-17 
 6455.392582    4.528e-17 
 6456.927184   4.1323e-17 
 6458.461786   4.8321e-17 
 6459.996388   4.7047e-17 
  6461.53099   3.0544e-17 
 6463.065592   1.9352e-17 
 6464.600194   3.1354e-17 
 6466.134796   4.5487e-17 
 6467.669398   4.4318e-17 
    6469.204   3.6475e-17 
 6470.738602   3.7198e-17 
 6472.273204    4.406e-17 
 6473.807806   4.5722e-17 
 6475.342408   4.1213e-17 
  6476.87701   3.9016e-17 
 6478.411612   4.5788e-17 
 6479.946214   4.7115e-17 
 6481.480816   3.9859e-17 
 6483.015418   3.8249e-17 
  6484.55002   4.5889e-17 
 6486.084622    4.673e-17 
 6487.619224   3.4351e-17 
 6489.153826   2.8784e-17 
 6490.688428   2.8808e-17 
  6492.22303   3.0391e-17 
 6493.757632   3.4746e-17 
 6495.292234   3.4495e-17 
 6496.826836   3.6727e-17 
 6498.361438   4.6258e-17 
  6499.89604   4.6014e-17 
 6501.430642   3.6503e-17 
 6502.965244   3.2751e-17 
 6504.499846   4.0133e-17 
 6506.034448   3.9925e-17 
  6507.56905   3.7302e-17 
 6509.103652   4.1021e-17 
 6510.638254   3.9066e-17 
 6512.172856   3.6215e-17 
 6513.707458   3.5577e-17 
  6515.24206   4.0689e-17 
 6516.776662   4.2852e-17 
 6518.311264   3.7701e-17 
 6519.845866    4.062e-17 
 6521.380468   4.6848e-17 
  6522.91507    3.855e-17 
 6524.449672   3.0651e-17 
 6525.984274   3.7079e-17 
 6527.518876   4.3878e-17 
 6529.053478   4.6782e-17 
  6530.58808   4.0368e-17 
 6532.122682   3.0511e-17 
 6533.657284   3.6902e-17 
 6535.191886    4.478e-17 
 6536.726488   4.2481e-17 
  6538.26109   3.8865e-17 
 6539.795692   3.6102e-17 
 6541.330294   3.6746e-17 
 6542.864896   4.0297e-17 
 6544.399498   4.5289e-17 
   6545.9341   5.0607e-17 
 6547.468702   4.7305e-17 
 6549.003304   3.8693e-17 
 6550.537906   4.2095e-17 
 6552.072508   5.0133e-17 
  6553.60711   5.5181e-17 
 6555.141712   5.2632e-17 
 6556.676314   4.0164e-17 
 6558.210916   3.8997e-17 
 6559.745518   4.6132e-17 
  6561.28012   3.9644e-17 
 6562.814722   3.8801e-17 
 6564.349324   4.6962e-17 
 6565.883926   3.8812e-17 
 6567.418528   3.4595e-17 
  6568.95313   3.9886e-17 
 6570.487732   3.8861e-17 
 6572.022334   3.5493e-17 
 6573.556936   3.6462e-17 
 6575.091538   4.1911e-17 
  6576.62614   3.8519e-17 
 6578.160742   3.4618e-17 
 6579.695344   3.3838e-17 
 6581.229946   3.3371e-17 
 6582.764548   3.3989e-17 
  6584.29915   3.4789e-17 
 6585.833752   3.4984e-17 
 6587.368354    3.722e-17 
 6588.902956   3.7773e-17 
 6590.437558   3.3666e-17 
  6591.97216   2.9242e-17 
 6593.506762   2.9907e-17 
 6595.041364   3.8083e-17 
 6596.575966   3.6373e-17 
 6598.110568   3.2523e-17 
  6599.64517   3.5186e-17 
 6601.179772   3.1044e-17 
 6602.714374   3.0276e-17 
 6604.248976   3.2748e-17 
 6605.783578    3.608e-17 
  6607.31818   3.8205e-17 
 6608.852782   3.3305e-17 
 6610.387384   3.3326e-17 
 6611.921986   4.0118e-17 
 6613.456588   4.1801e-17 
  6614.99119    3.855e-17 
 6616.525792   3.3748e-17 
 6618.060394    3.161e-17 
 6619.594996   3.5072e-17 
 6621.129598   3.6467e-17 
   6622.6642   4.0762e-17 
 6624.198802    4.537e-17 
 6625.733404   4.2947e-17 
 6627.268006   3.7654e-17 
 6628.802608   3.4913e-17 
  6630.33721   3.5703e-17 
 6631.871812   3.2922e-17 
 6633.406414   3.0149e-17 
 6634.941016   3.5075e-17 
 6636.475618    3.571e-17 
  6638.01022   2.7135e-17 
 6639.544822   3.1901e-17 
 6641.079424   3.6256e-17 
 6642.614026   3.3556e-17 
 6644.148628   3.9631e-17 
  6645.68323    4.543e-17 
 6647.217832    4.141e-17 
 6648.752434    3.236e-17 
 6650.287036   2.9961e-17 
 6651.821638   3.3393e-17 
  6653.35624   2.9547e-17 
 6654.890842   2.6005e-17 
 6656.425444   3.5694e-17 
 6657.960046   3.8035e-17 
 6659.494648    3.144e-17 
  6661.02925   3.1329e-17 
 6662.563852   4.0394e-17 
 6664.098454   4.5691e-17 
 6665.633056   4.2971e-17 
 6667.167658   3.5612e-17 
  6668.70226   3.0928e-17 
 6670.236862   3.4888e-17 
 6671.771464   3.8093e-17 
 6673.306066   3.7804e-17 
 6674.840668   3.4802e-17 
  6676.37527   3.2466e-17 
 6677.909872   3.1794e-17 
 6679.444474   3.5904e-17 
 6680.979076   3.9302e-17 
 6682.513678   3.2778e-17 
  6684.04828   3.1723e-17 
 6685.582882    3.646e-17 
 6687.117484   3.8192e-17 
 6688.652086   3.8432e-17 
 6690.186688   3.5565e-17 
  6691.72129   3.3072e-17 
 6693.255892   3.3393e-17 
 6694.790494   4.0291e-17 
 6696.325096   4.1192e-17 
 6697.859698   3.6158e-17 
   6699.3943   3.5685e-17 
 6700.928902   3.6912e-17 
 6702.463504    3.559e-17 
 6703.998106   3.2869e-17 
 6705.532708    3.723e-17 
  6707.06731   3.6573e-17 
 6708.601912   3.0775e-17 
 6710.136514   2.7038e-17 
 6711.671116   2.4385e-17 
 6713.205718   2.9224e-17 
  6714.74032   3.6837e-17 
 6716.274922   3.7556e-17 
 6717.809524   3.2274e-17 
 6719.344126    2.929e-17 
 6720.878728   2.8256e-17 
  6722.41333   2.8916e-17 
 6723.947932    3.203e-17 
 6725.482534   3.4381e-17 
 6727.017136   3.3497e-17 
 6728.551738   2.8062e-17 
  6730.08634   2.5279e-17 
 6731.620942   2.4947e-17 
 6733.155544     2.95e-17 
 6734.690146   3.5503e-17 
 6736.224748   3.0746e-17 
  6737.75935   2.6224e-17 
 6739.293952   2.7842e-17 
 6740.828554   2.7556e-17 
 6742.363156   2.4473e-17 
 6743.897758   2.4342e-17 
  6745.43236   3.0752e-17 
 6746.966962   3.2278e-17 
 6748.501564   2.8705e-17 
 6750.036166   3.1089e-17 
 6751.570768   3.2642e-17 
  6753.10537   3.2419e-17 
 6754.639972   3.3101e-17 
 6756.174574   3.0979e-17 
 6757.709176   3.3681e-17 
 6759.243778   3.6533e-17 
  6760.77838   4.0419e-17 
 6762.312982   4.1612e-17 
 6763.847584   2.9059e-17 
 6765.382186   2.7334e-17 
 6766.916788   3.5317e-17 
  6768.45139    3.332e-17 
 6769.985992   2.8059e-17 
 6771.520594   2.0926e-17 
 6773.055196   2.1976e-17 
 6774.589798   3.1053e-17 
   6776.1244   2.9447e-17 
 6777.659002   2.6912e-17 
 6779.193604   3.2143e-17 
 6780.728206   3.0673e-17 
 6782.262808   2.4922e-17 
  6783.79741    2.582e-17 
 6785.332012    3.083e-17 
 6786.866614   3.4803e-17 
 6788.401216   3.2576e-17 
 6789.935818   2.7943e-17 
  6791.47042   2.4837e-17 
 6793.005022   2.6805e-17 
 6794.539624   2.9208e-17 
 6796.074226    2.949e-17 
 6797.608828   3.4495e-17 
  6799.14343   3.2938e-17 
 6800.678032   2.7974e-17 
 6802.212634   3.0486e-17 
 6803.747236   3.0569e-17 
 6805.281838   3.2178e-17 
  6806.81644   3.3286e-17 
 6808.351042   2.9138e-17 
 6809.885644   2.6052e-17 
 6811.420246    2.529e-17 
 6812.954848   2.8072e-17 
  6814.48945   2.6885e-17 
 6816.024052   2.6614e-17 
 6817.558654   2.8202e-17 
 6819.093256   2.5582e-17 
 6820.627858   2.5836e-17 
  6822.16246   2.9477e-17 
 6823.697062   3.3707e-17 
 6825.231664   3.2329e-17 
 6826.766266   2.8347e-17 
 6828.300868   2.5215e-17 
  6829.83547   2.1579e-17 
 6831.370072    2.122e-17 
 6832.904674   2.4106e-17 
 6834.439276   2.8296e-17 
 6835.973878    2.934e-17 
  6837.50848   2.6036e-17 
 6839.043082   2.5135e-17 
 6840.577684   3.0786e-17 
 6842.112286   2.8745e-17 
 6843.646888   2.7638e-17 
  6845.18149   3.0797e-17 
 6846.716092   2.6607e-17 
 6848.250694   2.5384e-17 
 6849.785296   2.7406e-17 
 6851.319898   3.1894e-17 
   6852.8545   3.6489e-17 
 6854.389102   3.5941e-17 
 6855.923704   3.2128e-17 
 6857.458306   2.3268e-17 
 6858.992908   2.4652e-17 
  6860.52751   4.1977e-17 
 6862.062112   4.4165e-17 
 6863.596714   3.8749e-17 
 6865.131316   3.4709e-17 
 6866.665918   2.2875e-17 
  6868.20052     2.04e-17 
 6869.735122   2.2479e-17 
 6871.269724   2.0172e-17 
 6872.804326   2.0046e-17 
 6874.338928   2.6263e-17 
  6875.87353   3.5311e-17 
 6877.408132   3.5329e-17 
 6878.942734   2.9767e-17 
 6880.477336   2.7635e-17 
 6882.011938   2.7227e-17 
  6883.54654    2.317e-17 
 6885.081142   1.9752e-17 
 6886.615744   3.0117e-17 
 6888.150346   3.7923e-17 
 6889.684948   3.6586e-17 
  6891.21955   2.9516e-17 
 6892.754152   2.5029e-17 
 6894.288754   3.0309e-17 
 6895.823356   3.2053e-17 
 6897.357958   3.2793e-17 
  6898.89256   3.5318e-17 
 6900.427162    3.301e-17 
 6901.961764   3.1621e-17 
 6903.496366   3.2808e-17 
 6905.030968   3.1321e-17 
  6906.56557   3.0045e-17 
 6908.100172   3.0874e-17 
 6909.634774   3.0401e-17 
 6911.169376   3.1004e-17 
 6912.703978   3.0558e-17 
  6914.23858   3.1264e-17 
 6915.773182   3.5977e-17 
 6917.307784    3.599e-17 
 6918.842386     2.96e-17 
 6920.376988   2.3864e-17 
  6921.91159   3.2043e-17 
 6923.446192   4.4357e-17 
 6924.980794   3.7333e-17 
 6926.515396    3.009e-17 
 6928.049998   2.8275e-17 
   6929.5846   2.7758e-17 
 6931.119202   3.1427e-17 
 6932.653804   3.2146e-17 
 6934.188406   3.0259e-17 
 6935.723008   3.3688e-17 
  6937.25761    3.268e-17 
 6938.792212   2.8731e-17 
 6940.326814   3.1761e-17 
 6941.861416   3.3295e-17 
 6943.396018   3.7992e-17 
  6944.93062   4.2892e-17 
 6946.465222   3.4809e-17 
 6947.999824   3.2419e-17 
 6949.534426   3.8531e-17 
 6951.069028   2.8598e-17 
  6952.60363   2.9797e-17 
 6954.138232   3.5389e-17 
 6955.672834   2.9609e-17 
 6957.207436   2.9861e-17 
 6958.742038   3.2171e-17 
  6960.27664   2.9428e-17 
 6961.811242    2.867e-17 
 6963.345844    3.506e-17 
 6964.880446   3.5386e-17 
 6966.415048   2.8331e-17 
  6967.94965    2.788e-17 
 6969.484252   3.1559e-17 
 6971.018854   3.0486e-17 
 6972.553456   2.8227e-17 
 6974.088058   3.7291e-17 
  6975.62266   3.9578e-17 
 6977.157262   3.1924e-17 
 6978.691864   3.5043e-17 
 6980.226466   3.3415e-17 
 6981.761068   2.9917e-17 
  6983.29567   3.1078e-17 
 6984.830272   2.7491e-17 
 6986.364874   2.5898e-17 
 6987.899476   2.7622e-17 
 6989.434078   2.2931e-17 
  6990.96868   2.4736e-17 
 6992.503282   3.2488e-17 
 6994.037884   3.5274e-17 
 6995.572486   3.1911e-17 
 6997.107088   3.1789e-17 
  6998.64169   2.6618e-17 
 7000.176292   2.5569e-17 
 7001.710894   2.9852e-17 
 7003.245496   3.2144e-17 
 7004.780098   3.1828e-17 
   7006.3147   2.9179e-17 
 7007.849302    2.862e-17 
 7009.383904   3.2523e-17 
 7010.918506    3.696e-17 
 7012.453108   3.1936e-17 
  7013.98771   2.6451e-17 
 7015.522312   3.0379e-17 
 7017.056914   2.9522e-17 
 7018.591516    2.652e-17 
 7020.126118   3.1245e-17 
  7021.66072    3.063e-17 
 7023.195322   2.9712e-17 
 7024.729924   2.8495e-17 
 7026.264526   2.6155e-17 
 7027.799128   2.5623e-17 
  7029.33373     2.51e-17 
 7030.868332   2.5546e-17 
 7032.402934   2.5742e-17 
 7033.937536   2.3163e-17 
 7035.472138   2.0197e-17 
  7037.00674   2.5192e-17 
 7038.541342   3.2124e-17 
 7040.075944   2.8064e-17 
 7041.610546   2.3387e-17 
 7043.145148   2.4231e-17 
  7044.67975   2.1857e-17 
 7046.214352   2.3424e-17 
 7047.748954   2.7722e-17 
 7049.283556   3.0469e-17 
 7050.818158   2.9651e-17 
  7052.35276   2.7227e-17 
 7053.887362   2.6648e-17 
 7055.421964   2.6254e-17 
 7056.956566    2.874e-17 
 7058.491168   2.9665e-17 
  7060.02577   3.1166e-17 
 7061.560372    2.896e-17 
 7063.094974    2.653e-17 
 7064.629576    2.582e-17 
 7066.164178   2.6392e-17 
  7067.69878   2.8947e-17 
 7069.233382    2.966e-17 
 7070.767984   2.8827e-17 
 7072.302586   2.7132e-17 
 7073.837188   2.6238e-17 
  7075.37179   2.8059e-17 
 7076.906392    2.716e-17 
 7078.440994   2.2108e-17 
 7079.975596   1.9161e-17 
 7081.510198   2.4037e-17 
   7083.0448   2.5469e-17 
 7084.579402   2.7918e-17 
 7086.114004   3.2461e-17 
 7087.648606    2.982e-17 
 7089.183208   2.6362e-17 
  7090.71781   2.6433e-17 
 7092.252412   2.3848e-17 
 7093.787014   2.5873e-17 
 7095.321616   2.9044e-17 
 7096.856218   2.7995e-17 
  7098.39082   2.8633e-17 
 7099.925422   2.7719e-17 
 7101.460024   3.0216e-17 
 7102.994626   2.8774e-17 
 7104.529228   2.3078e-17 
  7106.06383   2.8536e-17 
 7107.598432   2.8954e-17 
 7109.133034   2.0292e-17 
 7110.667636   1.9547e-17 
 7112.202238   2.4477e-17 
  7113.73684      3.1e-17 
 7115.271442   2.8171e-17 
 7116.806044   2.3902e-17 
 7118.340646   2.8618e-17 
 7119.875248   3.3443e-17 
  7121.40985   3.4096e-17 
 7122.944452   3.0445e-17 
 7124.479054   2.7117e-17 
 7126.013656   2.6219e-17 
 7127.548258   2.4087e-17 
  7129.08286   2.6935e-17 
 7130.617462   2.7361e-17 
 7132.152064   2.5854e-17 
 7133.686666   2.8275e-17 
 7135.221268   2.8183e-17 
  7136.75587   2.7264e-17 
 7138.290472   2.5453e-17 
 7139.825074   2.4042e-17 
 7141.359676   2.4502e-17 
 7142.894278   2.5835e-17 
  7144.42888   2.7644e-17 
 7145.963482   2.0184e-17 
 7147.498084   2.1309e-17 
 7149.032686   2.5466e-17 
 7150.567288   2.6928e-17 
  7152.10189   2.9601e-17 
 7153.636492   2.7854e-17 
 7155.171094   2.3466e-17 
 7156.705696   2.5802e-17 
 7158.240298   2.5964e-17 
   7159.7749   2.4755e-17 
 7161.309502   2.6906e-17 
 7162.844104   2.6337e-17 
 7164.378706   2.7067e-17 
 7165.913308   2.6455e-17 
  7167.44791   2.6298e-17 
 7168.982512   2.8119e-17 
 7170.517114   2.1895e-17 
 7172.051716   1.8762e-17 
 7173.586318   2.5767e-17 
  7175.12092   2.5974e-17 
 7176.655522   2.6199e-17 
 7178.190124   2.8853e-17 
 7179.724726   2.4882e-17 
 7181.259328   2.6083e-17 
  7182.79393   2.9089e-17 
 7184.328532   2.7521e-17 
 7185.863134   2.4991e-17 
 7187.397736   2.4582e-17 
 7188.932338   2.2741e-17 
  7190.46694   2.4742e-17 
 7192.001542   2.3606e-17 
 7193.536144    2.335e-17 
 7195.070746   2.4653e-17 
 7196.605348   2.1554e-17 
  7198.13995   2.5082e-17 
 7199.674552   2.5937e-17 
 7201.209154   2.1214e-17 
 7202.743756   2.3529e-17 
 7204.278358   2.4165e-17 
  7205.81296   2.3764e-17 
 7207.347562   2.7478e-17 
 7208.882164    2.712e-17 
 7210.416766   2.4871e-17 
 7211.951368   2.3896e-17 
  7213.48597     2.62e-17 
 7215.020572   2.3842e-17 
 7216.555174   1.9962e-17 
 7218.089776   2.1864e-17 
 7219.624378   2.4397e-17 
  7221.15898    2.614e-17 
 7222.693582   2.6442e-17 
 7224.228184   2.7201e-17 
 7225.762786   2.8943e-17 
 7227.297388   3.1151e-17 
  7228.83199   2.4354e-17 
 7230.366592   2.0209e-17 
 7231.901194   2.3824e-17 
 7233.435796   2.2799e-17 
 7234.970398   2.4645e-17 
    7236.505    3.536e-17 
 7238.039602   2.8925e-17 
 7239.574204   2.2157e-17 
 7241.108806   2.4372e-17 
 7242.643408   2.3852e-17 
  7244.17801   2.8747e-17 
 7245.712612   3.2331e-17 
 7247.247214   2.9775e-17 
 7248.781816   1.9748e-17 
 7250.316418   1.8777e-17 
  7251.85102   2.2989e-17 
 7253.385622   2.3095e-17 
 7254.920224   2.2369e-17 
 7256.454826   2.2081e-17 
 7257.989428   2.2692e-17 
  7259.52403   2.3848e-17 
 7261.058632   2.3522e-17 
 7262.593234   2.1394e-17 
 7264.127836   2.1939e-17 
 7265.662438   2.4543e-17 
  7267.19704   2.5056e-17 
 7268.731642   2.5866e-17 
 7270.266244   2.7415e-17 
 7271.800846   2.2474e-17 
 7273.335448   1.7965e-17 
  7274.87005   1.7821e-17 
 7276.404652   1.8766e-17 
 7277.939254   2.8799e-17 
 7279.473856   2.7138e-17 
 7281.008458   1.9975e-17 
  7282.54306   1.6853e-17 
 7284.077662    1.905e-17 
 7285.612264    1.847e-17 
 7287.146866   1.7902e-17 
 7288.681468   1.8781e-17 
  7290.21607   1.8461e-17 
 7291.750672   1.8976e-17 
 7293.285274   1.9336e-17 
 7294.819876   2.3383e-17 
 7296.354478   2.4849e-17 
  7297.88908   2.2615e-17 
 7299.423682   2.1541e-17 
 7300.958284   1.9929e-17 
 7302.492886   1.7811e-17 
 7304.027488   1.3978e-17 
  7305.56209   1.5807e-17 
 7307.096692   1.7088e-17 
 7308.631294   1.5892e-17 
 7310.165896   2.4517e-17 
 7311.700498   2.4322e-17 
   7313.2351   1.9478e-17 
 7314.769702    2.144e-17 
 7316.304304   2.1538e-17 
 7317.838906   2.1425e-17 
 7319.373508    1.881e-17 
  7320.90811   1.7047e-17 
 7322.442712   1.8238e-17 
 7323.977314   1.5173e-17 
 7325.511916   1.5055e-17 
 7327.046518   1.4638e-17 
  7328.58112   1.2357e-17 
 7330.115722   1.8144e-17 
 7331.650324   2.1264e-17 
 7333.184926   1.6976e-17 
 7334.719528   1.4461e-17 
  7336.25413    1.378e-17 
 7337.788732   1.9441e-17 
 7339.323334   2.5667e-17 
 7340.857936   3.4048e-17 
 7342.392538   3.9784e-17 
  7343.92714   1.4806e-17 
 7345.461742   -4.262e-18 
 7346.996344   1.5575e-17 
 7348.530946   2.6463e-17 
 7350.065548   2.4605e-17 
  7351.60015   2.3795e-17 
 7353.134752   1.9195e-17 
 7354.669354    2.231e-17 
 7356.203956   2.8956e-17 
 7357.738558   2.8516e-17 
  7359.27316   1.9993e-17 
 7360.807762   1.4603e-17 
 7362.342364   1.7025e-17 
 7363.876966   1.6555e-17 
 7365.411568   2.0177e-17 
  7366.94617   2.6687e-17 
 7368.480772   2.3885e-17 
 7370.015374   2.1386e-17 
 7371.549976   2.1575e-17 
 7373.084578   2.0022e-17 
  7374.61918   1.7798e-17 
 7376.153782   2.2061e-17 
 7377.688384   2.5736e-17 
 7379.222986   2.3211e-17 
 7380.757588   2.1381e-17 
  7382.29219    2.116e-17 
 7383.826792   2.3246e-17 
 7385.361394     2.43e-17 
 7386.895996   2.6486e-17 
 7388.430598   2.4042e-17 
   7389.9652   1.7509e-17 
 7391.499802   1.6724e-17 
 7393.034404   1.7077e-17 
 7394.569006   1.8367e-17 
 7396.103608   1.7639e-17 
  7397.63821   1.5063e-17 
 7399.172812   1.7554e-17 
 7400.707414   1.8712e-17 
 7402.242016   2.0131e-17 
 7403.776618   1.5999e-17 
  7405.31122   1.3707e-17 
 7406.845822   1.9952e-17 
 7408.380424   2.3453e-17 
 7409.915026   2.4388e-17 
 7411.449628   2.1331e-17 
  7412.98423   2.0363e-17 
 7414.518832   1.9997e-17 
 7416.053434   1.9852e-17 
 7417.588036   2.7029e-17 
 7419.122638   2.8706e-17 
  7420.65724   2.2815e-17 
 7422.191842   1.9904e-17 
 7423.726444   1.7776e-17 
 7425.261046   1.4272e-17 
 7426.795648   1.5647e-17 
  7428.33025   2.5083e-17 
 7429.864852    2.448e-17 
 7431.399454   2.3992e-17 
 7432.934056   2.5261e-17 
 7434.468658   2.2463e-17 
  7436.00326   2.2852e-17 
 7437.537862   2.1984e-17 
 7439.072464    1.902e-17 
 7440.607066   1.8237e-17 
 7442.141668    2.015e-17 
  7443.67627   2.3386e-17 
 7445.210872   2.4047e-17 
 7446.745474   1.8505e-17 
 7448.280076   1.9177e-17 
 7449.814678   2.2832e-17 
  7451.34928   2.1345e-17 
 7452.883882   2.1042e-17 
 7454.418484   2.2209e-17 
 7455.953086   2.1267e-17 
 7457.487688   1.9491e-17 
  7459.02229   1.4944e-17 
 7460.556892   1.4998e-17 
 7462.091494   1.7518e-17 
 7463.626096   1.7962e-17 
 7465.160698   2.3208e-17 
   7466.6953   2.4203e-17 
 7468.229902   1.9075e-17 
 7469.764504   1.6979e-17 
 7471.299106   1.4084e-17 
 7472.833708   1.5924e-17 
  7474.36831   2.2828e-17 
 7475.902912   2.2372e-17 
 7477.437514   1.9669e-17 
 7478.972116   2.1331e-17 
 7480.506718   2.1993e-17 
  7482.04132   1.7394e-17 
 7483.575922   1.6526e-17 
 7485.110524    1.961e-17 
 7486.645126   1.8617e-17 
 7488.179728    2.177e-17 
  7489.71433   2.4439e-17 
 7491.248932   2.2285e-17 
 7492.783534   2.2615e-17 
 7494.318136   2.2673e-17 
 7495.852738   2.2568e-17 
  7497.38734   2.2128e-17 
 7498.921942   2.2326e-17 
 7500.456544   1.8467e-17 
 7501.991146   1.5441e-17 
 7503.525748   2.0535e-17 
  7505.06035    2.409e-17 
 7506.594952   2.2061e-17 
 7508.129554   2.1163e-17 
 7509.664156   2.2614e-17 
 7511.198758   2.5846e-17 
  7512.73336   2.5411e-17 
 7514.267962    2.559e-17 
 7515.802564   2.5804e-17 
 7517.337166   2.4131e-17 
 7518.871768   1.8577e-17 
  7520.40637   1.6847e-17 
 7521.940972   1.7639e-17 
 7523.475574    2.258e-17 
 7525.010176   3.1491e-17 
 7526.544778   2.2881e-17 
  7528.07938   1.8395e-17 
 7529.613982   1.7629e-17 
 7531.148584   1.7108e-17 
 7532.683186   1.9101e-17 
 7534.217788   2.1494e-17 
  7535.75239   2.0714e-17 
 7537.286992    1.674e-17 
 7538.821594   1.5363e-17 
 7540.356196   1.7592e-17 
 7541.890798    2.553e-17 
   7543.4254   2.3359e-17 
 7544.960002   2.2056e-17 
 7546.494604    2.095e-17 
 7548.029206   1.7116e-17 
 7549.563808   1.7653e-17 
  7551.09841     1.48e-17 
 7552.633012   1.2081e-17 
 7554.167614   1.9339e-17 
 7555.702216   2.5531e-17 
 7557.236818   2.2702e-17 
  7558.77142   1.9497e-17 
 7560.306022   1.8499e-17 
 7561.840624   2.1349e-17 
 7563.375226   2.4413e-17 
 7564.909828   2.0674e-17 
  7566.44443   2.3817e-17 
 7567.979032   1.9946e-17 
 7569.513634   1.4091e-17 
 7571.048236   1.7886e-17 
 7572.582838   2.9582e-17 
  7574.11744   2.8568e-17 
 7575.652042   2.2617e-17 
 7577.186644   2.3801e-17 
 7578.721246   2.1151e-17 
 7580.255848   2.2695e-17 
  7581.79045   2.6573e-17 
 7583.325052   2.3149e-17 
 7584.859654   2.1908e-17 
 7586.394256   2.5305e-17 
 7587.928858   2.9781e-17 
  7589.46346   2.4495e-17 
 7590.998062   2.2395e-17 
 7592.532664   2.6207e-17 
 7594.067266   3.5204e-17 
 7595.601868      3.5e-17 
  7597.13647   3.1999e-17 
 7598.671072   4.4443e-17 
 7600.205674   3.2727e-17 
 7601.740276   2.3874e-17 
 7603.274878   2.8902e-17 
  7604.80948   2.5441e-17 
 7606.344082   2.0844e-17 
 7607.878684    1.767e-17 
 7609.413286   8.8508e-18 
 7610.947888   1.1872e-17 
  7612.48249   2.2774e-17 
 7614.017092   2.2987e-17 
 7615.551694   2.3739e-17 
 7617.086296   2.7061e-17 
 7618.620898   2.9731e-17 
   7620.1555   2.5233e-17 
 7621.690102   2.0435e-17 
 7623.224704   2.7428e-17 
 7624.759306   3.5794e-17 
 7626.293908   2.4243e-17 
  7627.82851   1.3832e-17 
 7629.363112    1.793e-17 
 7630.897714   2.2077e-17 
 7632.432316   1.9352e-17 
 7633.966918   1.3918e-17 
  7635.50152   1.6725e-17 
 7637.036122   2.0386e-17 
 7638.570724   1.7102e-17 
 7640.105326   1.5585e-17 
 7641.639928   2.2053e-17 
  7643.17453   2.6181e-17 
 7644.709132   2.0922e-17 
 7646.243734   1.3355e-17 
 7647.778336   1.7566e-17 
 7649.312938   2.1551e-17 
  7650.84754    1.732e-17 
 7652.382142   1.7277e-17 
 7653.916744   1.5074e-17 
 7655.451346   1.9695e-17 
 7656.985948   2.3563e-17 
  7658.52055   1.7789e-17 
 7660.055152   1.5415e-17 
 7661.589754   1.4737e-17 
 7663.124356   2.1758e-17 
 7664.658958   2.6504e-17 
  7666.19356   2.1469e-17 
 7667.728162    2.159e-17 
 7669.262764   2.1179e-17 
 7670.797366   1.8106e-17 
 7672.331968   1.7183e-17 
  7673.86657   1.8628e-17 
 7675.401172   1.8897e-17 
 7676.935774   1.5587e-17 
 7678.470376   1.9256e-17 
 7680.004978   2.6452e-17 
  7681.53958   2.7569e-17 
 7683.074182   2.7695e-17 
 7684.608784   2.7628e-17 
 7686.143386   2.3918e-17 
 7687.677988   1.9884e-17 
  7689.21259   1.8997e-17 
 7690.747192   1.8797e-17 
 7692.281794   2.0727e-17 
 7693.816396   2.3637e-17 
 7695.350998   2.3213e-17 
   7696.8856   2.1861e-17 
 7698.420202   1.8289e-17 
 7699.954804   1.8906e-17 
 7701.489406   2.4847e-17 
 7703.024008   2.2922e-17 
  7704.55861   1.8197e-17 
 7706.093212   2.3625e-17 
 7707.627814   2.6313e-17 
 7709.162416   2.5838e-17 
 7710.697018   2.5896e-17 
  7712.23162   2.1794e-17 
 7713.766222   2.4253e-17 
 7715.300824    2.701e-17 
 7716.835426   2.2027e-17 
 7718.370028   2.0427e-17 
  7719.90463   2.2571e-17 
 7721.439232   2.4856e-17 
 7722.973834   2.4878e-17 
 7724.508436   2.3001e-17 
 7726.043038   2.0687e-17 
  7727.57764   2.0925e-17 
 7729.112242   2.1095e-17 
 7730.646844   1.9331e-17 
 7732.181446   1.9447e-17 
 7733.716048   2.5395e-17 
  7735.25065   2.7381e-17 
 7736.785252   2.4204e-17 
 7738.319854   2.1529e-17 
 7739.854456   1.7827e-17 
 7741.389058   1.6598e-17 
  7742.92366   1.5702e-17 
 7744.458262   1.7318e-17 
 7745.992864   1.6015e-17 
 7747.527466    1.653e-17 
 7749.062068   1.3181e-17 
  7750.59667     2.03e-17 
 7752.131272   3.0285e-17 
 7753.665874   2.5513e-17 
 7755.200476   1.5576e-17 
 7756.735078   1.5817e-17 
  7758.26968   2.1157e-17 
 7759.804282   1.8828e-17 
 7761.338884   1.9416e-17 
 7762.873486   1.7277e-17 
 7764.408088   1.6959e-17 
  7765.94269   1.9701e-17 
 7767.477292   2.0479e-17 
 7769.011894   1.8215e-17 
 7770.546496   2.0558e-17 
 7772.081098   2.6973e-17 
   7773.6157   3.1456e-17 
 7775.150302   3.0709e-17 
 7776.684904   2.1874e-17 
 7778.219506   1.7548e-17 
 7779.754108   1.9013e-17 
  7781.28871   1.9072e-17 
 7782.823312   1.8215e-17 
 7784.357914   2.3579e-17 
 7785.892516   2.3899e-17 
 7787.427118   2.3695e-17 
  7788.96172   2.5108e-17 
 7790.496322   2.1226e-17 
 7792.030924   2.2367e-17 
 7793.565526   2.6445e-17 
 7795.100128   2.1415e-17 
  7796.63473   1.7146e-17 
 7798.169332   1.8432e-17 
 7799.703934   2.2065e-17 
 7801.238536   2.6249e-17 
 7802.773138   2.1598e-17 
  7804.30774   2.2138e-17 
 7805.842342   2.2069e-17 
 7807.376944   2.3041e-17 
 7808.911546   2.4803e-17 
 7810.446148   1.7999e-17 
  7811.98075   1.5208e-17 
 7813.515352   1.6401e-17 
 7815.049954   1.8721e-17 
 7816.584556   2.4028e-17 
 7818.119158   2.5378e-17 
  7819.65376   2.2281e-17 
 7821.188362   2.5174e-17 
 7822.722964   3.1131e-17 
 7824.257566   2.5709e-17 
 7825.792168   2.2498e-17 
  7827.32677   2.3748e-17 
 7828.861372   2.5714e-17 
 7830.395974   2.5735e-17 
 7831.930576   2.2897e-17 
 7833.465178   1.9683e-17 
  7834.99978   2.0052e-17 
 7836.534382   2.2363e-17 
 7838.068984   1.9967e-17 
 7839.603586   2.2954e-17 
 7841.138188   2.0042e-17 
  7842.67279   2.0066e-17 
 7844.207392   2.5992e-17 
 7845.741994   2.0235e-17 
 7847.276596   2.0394e-17 
 7848.811198   1.3527e-17 
   7850.3458   7.1203e-18 
 7851.880402   1.9462e-17 
 7853.415004   2.9214e-17 
 7854.949606   2.7659e-17 
 7856.484208   1.8333e-17 
  7858.01881   2.0099e-17 
 7859.553412   2.2769e-17 
 7861.088014   2.2439e-17 
 7862.622616   3.3494e-17 
 7864.157218   3.1314e-17 
  7865.69182   2.5287e-17 
 7867.226422   2.1107e-17 
 7868.761024    2.513e-17 
 7870.295626   3.0878e-17 
 7871.830228   2.2081e-17 
  7873.36483   1.6568e-17 
 7874.899432    1.527e-17 
 7876.434034   2.1408e-17 
 7877.968636   2.2297e-17 
 7879.503238   1.7889e-17 
  7881.03784   2.1826e-17 
 7882.572442   2.0985e-17 
 7884.107044   2.2128e-17 
 7885.641646   2.3645e-17 
 7887.176248   2.6457e-17 
  7888.71085   2.8677e-17 
 7890.245452   2.4513e-17 
 7891.780054   2.3588e-17 
 7893.314656   2.0417e-17 
 7894.849258   1.8966e-17 
  7896.38386   2.4037e-17 
 7897.918462   2.2787e-17 
 7899.453064   2.1271e-17 
 7900.987666   2.2956e-17 
 7902.522268   2.2562e-17 
  7904.05687   2.2903e-17 
 7905.591472   1.7388e-17 
 7907.126074   2.3549e-17 
 7908.660676   3.4475e-17 
 7910.195278   3.3506e-17 
  7911.72988   2.9147e-17 
 7913.264482   1.8401e-17 
 7914.799084   1.9629e-17 
 7916.333686   2.6749e-17 
 7917.868288   3.0362e-17 
  7919.40289   2.8103e-17 
 7920.937492   1.1091e-17 
 7922.472094   1.0665e-17 
 7924.006696    2.311e-17 
 7925.541298   2.2711e-17 
   7927.0759   1.8438e-17 
 7928.610502   1.7918e-17 
 7930.145104   1.7471e-17 
 7931.679706    1.897e-17 
 7933.214308   2.1243e-17 
  7934.74891   1.8397e-17 
 7936.283512   1.9951e-17 
 7937.818114    2.387e-17 
 7939.352716    2.513e-17 
 7940.887318    2.403e-17 
  7942.42192    2.194e-17 
 7943.956522   2.3644e-17 
 7945.491124   2.4822e-17 
 7947.025726   2.8737e-17 
 7948.560328   4.1357e-17 
  7950.09493   6.2763e-17 
 7951.629532    8.368e-17 
 7953.164134   9.4351e-17 
 7954.698736   8.8185e-17 
 7956.233338   7.6285e-17 
  7957.76794   6.0814e-17 
 7959.302542   3.6001e-17 
 7960.837144    2.702e-17 
 7962.371746   3.4174e-17 
 7963.906348    2.742e-17 
  7965.44095   1.7525e-17 
 7966.975552   1.7937e-17 
 7968.510154     1.76e-17 
 7970.044756   1.9202e-17 
 7971.579358   2.0061e-17 
  7973.11396   1.6499e-17 
 7974.648562   1.8493e-17 
 7976.183164   2.4243e-17 
 7977.717766   3.0133e-17 
 7979.252368   2.8105e-17 
  7980.78697   2.1022e-17 
 7982.321572   1.6446e-17 
 7983.856174   1.1649e-17 
 7985.390776   2.0081e-17 
 7986.925378   3.9797e-17 
  7988.45998   3.1861e-17 
 7989.994582    1.298e-17 
 7991.529184   1.6241e-17 
 7993.063786   2.9069e-17 
 7994.598388   2.7899e-17 
  7996.13299   2.0942e-17 
 7997.667592   1.7719e-17 
 7999.202194   1.6997e-17 
 8000.736796   2.1874e-17 
 8002.271398   2.4489e-17 
    8003.806   2.0336e-17 
 8005.340602   2.0414e-17 
 8006.875204   2.4742e-17 
 8008.409806   2.2065e-17 
 8009.944408   1.9032e-17 
  8011.47901   1.8555e-17 
 8013.013612    2.253e-17 
 8014.548214   2.6981e-17 
 8016.082816   2.1004e-17 
 8017.617418   1.5921e-17 
  8019.15202   2.3097e-17 
 8020.686622   2.4158e-17 
 8022.221224   2.0854e-17 
 8023.755826   2.1816e-17 
 8025.290428   2.7239e-17 
  8026.82503   2.5722e-17 
 8028.359632   2.0171e-17 
 8029.894234   1.6439e-17 
 8031.428836   1.6533e-17 
 8032.963438   2.1786e-17 
  8034.49804   2.1414e-17 
 8036.032642   2.0699e-17 
 8037.567244   2.3168e-17 
 8039.101846   1.8664e-17 
 8040.636448   1.7036e-17 
  8042.17105   2.0969e-17 
 8043.705652   2.0837e-17 
 8045.240254   2.3158e-17 
 8046.774856   2.8529e-17 
 8048.309458   2.8436e-17 
  8049.84406   2.2808e-17 
 8051.378662   2.0772e-17 
 8052.913264   1.7642e-17 
 8054.447866   1.6237e-17 
 8055.982468   1.8966e-17 
  8057.51707   1.8998e-17 
 8059.051672   1.9042e-17 
 8060.586274   2.3085e-17 
 8062.120876   2.4479e-17 
 8063.655478   2.2265e-17 
  8065.19008   1.8401e-17 
 8066.724682   1.5698e-17 
 8068.259284    1.955e-17 
 8069.793886   1.7965e-17 
 8071.328488   1.5994e-17 
  8072.86309   2.1609e-17 
 8074.397692   2.3419e-17 
 8075.932294   1.7416e-17 
 8077.466896   1.4473e-17 
 8079.001498   1.5353e-17 
   8080.5361    1.735e-17 
 8082.070702   1.8806e-17 
 8083.605304   2.1342e-17 
 8085.139906   2.2171e-17 
 8086.674508   2.0728e-17 
  8088.20911   1.5393e-17 
 8089.743712   1.2657e-17 
 8091.278314    1.857e-17 
 8092.812916   2.0188e-17 
 8094.347518    2.258e-17 
  8095.88212   2.7512e-17 
 8097.416722   3.0932e-17 
 8098.951324   2.8149e-17 
 8100.485926    2.285e-17 
 8102.020528   2.3622e-17 
  8103.55513   2.9199e-17 
 8105.089732   2.2546e-17 
 8106.624334   1.5022e-17 
 8108.158936   2.0535e-17 
 8109.693538   2.1769e-17 
  8111.22814   1.7857e-17 
 8112.762742   1.7135e-17 
 8114.297344   1.5258e-17 
 8115.831946   1.3112e-17 
 8117.366548   1.6919e-17 
  8118.90115   2.1041e-17 
 8120.435752   1.8058e-17 
 8121.970354   1.9023e-17 
 8123.504956   2.2749e-17 
 8125.039558   2.5152e-17 
  8126.57416   2.6466e-17 
 8128.108762   2.3274e-17 
 8129.643364   2.4254e-17 
 8131.177966   2.6652e-17 
 8132.712568   2.5827e-17 
  8134.24717   2.2156e-17 
 8135.781772   2.1571e-17 
 8137.316374   2.4972e-17 
 8138.850976   2.0551e-17 
 8140.385578   1.8181e-17 
  8141.92018   2.3459e-17 
 8143.454782   2.6687e-17 
 8144.989384   2.4968e-17 
 8146.523986   2.4271e-17 
 8148.058588   2.5851e-17 
  8149.59319   1.9218e-17 
 8151.127792   1.7082e-17 
 8152.662394   2.1095e-17 
 8154.196996   2.2153e-17 
 8155.731598   2.6023e-17 
   8157.2662    2.496e-17 
 8158.800802   2.2998e-17 
 8160.335404   2.3573e-17 
 8161.870006   2.2992e-17 
 8163.404608   2.3735e-17 
  8164.93921   2.1186e-17 
 8166.473812    1.754e-17 
 8168.008414   2.1207e-17 
 8169.543016    2.251e-17 
 8171.077618   1.8297e-17 
  8172.61222   1.8455e-17 
 8174.146822   2.4769e-17 
 8175.681424   2.6417e-17 
 8177.216026   1.9163e-17 
 8178.750628   1.7251e-17 
  8180.28523   1.9497e-17 
 8181.819832   1.4544e-17 
 8183.354434   1.5664e-17 
 8184.889036   1.9312e-17 
 8186.423638   1.7879e-17 
  8187.95824    1.111e-17 
 8189.492842   1.4332e-17 
 8191.027444   2.9557e-17 
 8192.562046   3.6083e-17 
 8194.096648   3.5095e-17 
  8195.63125   3.2567e-17 
 8197.165852   2.9255e-17 
 8198.700454   2.4472e-17 
 8200.235056   1.5744e-17 
 8201.769658   1.2438e-17 
  8203.30426   1.7949e-17 
 8204.838862   2.7207e-17 
 8206.373464   2.6473e-17 
 8207.908066     2.22e-17 
 8209.442668   2.3659e-17 
  8210.97727   2.3405e-17 
 8212.511872   1.8759e-17 
 8214.046474   1.5813e-17 
 8215.581076   1.8687e-17 
 8217.115678   2.0539e-17 
  8218.65028   1.3404e-17 
 8220.184882   1.5883e-17 
 8221.719484    1.679e-17 
 8223.254086   1.7807e-17 
 8224.788688   1.7688e-17 
  8226.32329   1.8765e-17 
 8227.857892   2.3801e-17 
 8229.392494   1.7365e-17 
 8230.927096   1.4513e-17 
 8232.461698   2.0153e-17 
   8233.9963   2.5459e-17 
 8235.530902   2.8241e-17 
 8237.065504   2.3488e-17 
 8238.600106   2.0245e-17 
 8240.134708   1.9066e-17 
  8241.66931   1.3916e-17 
 8243.203912   1.0084e-17 
 8244.738514   8.4122e-18 
 8246.273116   1.1735e-17 
 8247.807718      1.5e-17 
  8249.34232   2.1526e-17 
 8250.876922   2.4166e-17 
 8252.411524   2.0008e-17 
 8253.946126   2.0256e-17 
 8255.480728   2.0783e-17 
  8257.01533   1.9129e-17 
 8258.549932   1.6766e-17 
 8260.084534   1.7964e-17 
 8261.619136   2.1876e-17 
 8263.153738   2.0803e-17 
  8264.68834   1.6464e-17 
 8266.222942   1.9965e-17 
 8267.757544   2.4191e-17 
 8269.292146   1.8063e-17 
 8270.826748   2.0025e-17 
  8272.36135   2.4646e-17 
 8273.895952   1.5253e-17 
 8275.430554   9.4405e-18 
 8276.965156   1.5989e-17 
 8278.499758   2.6574e-17 
  8280.03436   2.4844e-17 
 8281.568962   1.6289e-17 
 8283.103564   1.4305e-17 
 8284.638166   1.8322e-17 
 8286.172768   1.3706e-17 
  8287.70737   1.8819e-17 
 8289.241972   2.4847e-17 
 8290.776574   1.3713e-17 
 8292.311176   2.4764e-17 
 8293.845778    3.031e-17 
  8295.38038   2.2762e-17 
 8296.914982   2.6626e-17 
 8298.449584   2.5499e-17 
 8299.984186   2.6159e-17 
 8301.518788   2.3375e-17 
  8303.05339   1.4913e-17 
 8304.587992   1.5179e-17 
 8306.122594   2.3386e-17 
 8307.657196   2.6307e-17 
 8309.191798   1.8223e-17 
   8310.7264    1.675e-17 
 8312.261002   1.9289e-17 
 8313.795604   1.9609e-17 
 8315.330206   2.4425e-17 
 8316.864808   2.8328e-17 
  8318.39941   2.4003e-17 
 8319.934012   1.9218e-17 
 8321.468614   2.1593e-17 
 8323.003216   2.3327e-17 
 8324.537818   1.9211e-17 
  8326.07242   1.6743e-17 
 8327.607022   2.3082e-17 
 8329.141624   2.4091e-17 
 8330.676226   2.0003e-17 
 8332.210828   2.4978e-17 
  8333.74543   2.8453e-17 
 8335.280032   2.4536e-17 
 8336.814634   2.6152e-17 
 8338.349236    3.581e-17 
 8339.883838   3.5546e-17 
  8341.41844   3.1549e-17 
 8342.953042   2.8263e-17 
 8344.487644   2.4552e-17 
 8346.022246   2.3465e-17 
 8347.556848   1.8432e-17 
  8349.09145   1.9374e-17 
 8350.626052   2.2407e-17 
 8352.160654   1.9956e-17 
 8353.695256   2.1051e-17 
 8355.229858   2.2896e-17 
  8356.76446    1.652e-17 
 8358.299062   1.5526e-17 
 8359.833664    2.178e-17 
 8361.368266   1.7946e-17 
 8362.902868   1.8391e-17 
  8364.43747   2.9334e-17 
 8365.972072   2.9386e-17 
 8367.506674   2.4712e-17 
 8369.041276   2.1459e-17 
 8370.575878   2.1601e-17 
  8372.11048     2.49e-17 
 8373.645082    1.873e-17 
 8375.179684    1.858e-17 
 8376.714286   2.3684e-17 
 8378.248888   2.3243e-17 
  8379.78349   2.4199e-17 
 8381.318092    1.648e-17 
 8382.852694   1.9653e-17 
 8384.387296   2.9307e-17 
 8385.921898   2.3562e-17 
   8387.4565   1.9151e-17 
 8388.991102   2.0807e-17 
 8390.525704   1.6049e-17 
 8392.060306   1.6637e-17 
 8393.594908    3.237e-17 
  8395.12951   3.0064e-17 
 8396.664112    1.535e-17 
 8398.198714   1.0593e-17 
 8399.733316   2.7167e-17 
 8401.267918   3.8786e-17 
  8402.80252   2.4209e-17 
 8404.337122   9.3902e-18 
 8405.871724   1.5626e-17 
 8407.406326    2.723e-17 
 8408.940928   2.8366e-17 
  8410.47553   2.1111e-17 
 8412.010132   1.8493e-17 
 8413.544734   2.3965e-17 
 8415.079336   2.4972e-17 
 8416.613938    2.535e-17 
  8418.14854   1.7497e-17 
 8419.683142   1.5992e-17 
 8421.217744   1.9129e-17 
 8422.752346   1.0936e-17 
 8424.286948   1.2561e-17 
  8425.82155   1.7793e-17 
 8427.356152    8.809e-18 
 8428.890754  -4.1926e-18 
 8430.425356   7.4233e-18 
 8431.959958   2.4381e-17 
  8433.49456   2.2353e-17 
 8435.029162   1.5751e-17 
 8436.563764   1.3232e-17 
 8438.098366   1.4353e-17 
 8439.632968   1.9271e-17 
  8441.16757   1.4197e-17 
 8442.702172   1.5971e-17 
 8444.236774   1.8222e-17 
 8445.771376   1.8088e-17 
 8447.305978   2.8028e-17 
  8448.84058   2.7679e-17 
 8450.375182     2.58e-17 
 8451.909784   3.9655e-17 
 8453.444386   3.2095e-17 
 8454.978988   1.3541e-17 
  8456.51359   1.4589e-17 
 8458.048192   1.9835e-17 
 8459.582794    1.822e-17 
 8461.117396   1.6524e-17 
 8462.651998    1.884e-17 
   8464.1866   1.1665e-17 
 8465.721202    9.414e-18 
 8467.255804   1.3696e-17 
 8468.790406   1.6172e-17 
 8470.325008   1.6527e-17 
  8471.85961   2.0907e-17 
 8473.394212   2.3375e-17 
 8474.928814   1.8986e-17 
 8476.463416   1.9491e-17 
 8477.998018   1.8159e-17 
  8479.53262    2.101e-17 
 8481.067222   2.3279e-17 
 8482.601824   2.1195e-17 
 8484.136426   1.6718e-17 
 8485.671028   1.4101e-17 
  8487.20563   1.7138e-17 
 8488.740232   1.3741e-17 
 8490.274834   1.1708e-17 
 8491.809436   1.7626e-17 
 8493.344038   2.0816e-17 
  8494.87864   1.5689e-17 
 8496.413242   1.5714e-17 
 8497.947844   2.6169e-17 
 8499.482446   1.6753e-17 
 8501.017048   1.1961e-17 
  8502.55165   2.7927e-17 
 8504.086252   2.3708e-17 
 8505.620854   1.1347e-17 
 8507.155456   1.3711e-17 
 8508.690058   1.9337e-17 
  8510.22466   1.9487e-17 
 8511.759262   2.0854e-17 
 8513.293864   2.1924e-17 
 8514.828466   2.0056e-17 
 8516.363068   1.9804e-17 
  8517.89767   1.9146e-17 
 8519.432272   1.7799e-17 
 8520.966874   1.9198e-17 
 8522.501476   1.9226e-17 
 8524.036078   1.6264e-17 
  8525.57068   1.3965e-17 
 8527.105282   1.7163e-17 
 8528.639884    2.019e-17 
 8530.174486   1.7074e-17 
 8531.709088   1.7711e-17 
  8533.24369   2.2078e-17 
 8534.778292   1.9832e-17 
 8536.312894   1.7199e-17 
 8537.847496   1.9035e-17 
 8539.382098   1.3574e-17 
   8540.9167   1.4048e-17 
 8542.451302   2.7873e-17 
 8543.985904   2.7023e-17 
 8545.520506    2.334e-17 
 8547.055108   2.6652e-17 
  8548.58971   1.6282e-17 
 8550.124312   6.5759e-18 
 8551.658914   1.0644e-17 
 8553.193516   2.1802e-17 
 8554.728118   2.2403e-17 
  8556.26272   1.6749e-17 
 8557.797322   2.2871e-17 
 8559.331924    2.766e-17 
 8560.866526   1.9264e-17 
 8562.401128   1.3326e-17 
  8563.93573   2.1088e-17 
 8565.470332   2.2003e-17 
 8567.004934   1.8174e-17 
 8568.539536   2.2351e-17 
 8570.074138   1.9142e-17 
  8571.60874   9.8777e-18 
 8573.143342   1.4995e-17 
 8574.677944   2.0935e-17 
 8576.212546   2.2548e-17 
 8577.747148   2.1689e-17 
  8579.28175   2.0298e-17 
 8580.816352   2.0561e-17 
 8582.350954    2.121e-17 
 8583.885556   2.1551e-17 
 8585.420158   1.8273e-17 
  8586.95476    1.799e-17 
 8588.489362   2.1487e-17 
 8590.023964   1.9273e-17 
 8591.558566   1.5155e-17 
 8593.093168   1.4047e-17 
  8594.62777   1.6056e-17 
 8596.162372   1.5639e-17 
 8597.696974   1.2708e-17 
 8599.231576   1.4466e-17 
 8600.766178   1.1174e-17 
  8602.30078   1.3865e-17 
 8603.835382   2.1981e-17 
 8605.369984   1.5061e-17 
 8606.904586   1.1826e-17 
 8608.439188   1.9653e-17 
  8609.97379   2.0998e-17 
 8611.508392   2.4734e-17 
 8613.042994   2.4155e-17 
 8614.577596   1.3659e-17 
 8616.112198   1.5029e-17 
   8617.6468   1.7992e-17 
 8619.181402   1.7058e-17 
 8620.716004   2.1543e-17 
 8622.250606   2.5245e-17 
 8623.785208   2.1287e-17 
  8625.31981   1.7449e-17 
 8626.854412   1.8316e-17 
 8628.389014    2.334e-17 
 8629.923616   2.8363e-17 
 8631.458218   2.3708e-17 
  8632.99282   1.9204e-17 
 8634.527422   1.6671e-17 
 8636.062024   2.0262e-17 
 8637.596626   2.4561e-17 
 8639.131228   2.1593e-17 
  8640.66583   1.6895e-17 
 8642.200432    2.339e-17 
 8643.735034   3.1634e-17 
 8645.269636   2.7082e-17 
 8646.804238   1.8923e-17 
  8648.33884   2.3766e-17 
 8649.873442   2.8871e-17 
 8651.408044   2.2298e-17 
 8652.942646   1.6018e-17 
 8654.477248     2.44e-17 
  8656.01185   2.8165e-17 
 8657.546452   2.0021e-17 
 8659.081054   1.6609e-17 
 8660.615656   1.4535e-17 
 8662.150258   1.8934e-17 
  8663.68486    3.413e-17 
 8665.219462    3.572e-17 
 8666.754064   2.1436e-17 
 8668.288666   1.3194e-17 
 8669.823268   1.3602e-17 
  8671.35787    1.896e-17 
 8672.892472   2.2222e-17 
 8674.427074   2.1594e-17 
 8675.961676   2.1551e-17 
 8677.496278   1.6674e-17 
  8679.03088   1.7204e-17 
 8680.565482   2.0392e-17 
 8682.100084   1.8624e-17 
 8683.634686    2.065e-17 
 8685.169288   2.4419e-17 
  8686.70389   2.5036e-17 
 8688.238492   2.5505e-17 
 8689.773094   1.9826e-17 
 8691.307696    2.117e-17 
 8692.842298   2.4391e-17 
   8694.3769   1.8596e-17 
 8695.911502   1.8325e-17 
 8697.446104   2.2824e-17 
 8698.980706   2.5034e-17 
 8700.515308   2.3546e-17 
  8702.04991   2.4367e-17 
 8703.584512   2.6819e-17 
 8705.119114   2.6428e-17 
 8706.653716    2.559e-17 
 8708.188318    2.544e-17 
  8709.72292    2.659e-17 
 8711.257522   2.8654e-17 
 8712.792124   3.0039e-17 
 8714.326726   2.9213e-17 
 8715.861328   2.4564e-17 
  8717.39593   2.7072e-17 
 8718.930532   3.2481e-17 
 8720.465134   3.0567e-17 
 8721.999736   2.9847e-17 
 8723.534338   2.8435e-17 
  8725.06894   2.7879e-17 
 8726.603542   2.7798e-17 
 8728.138144   2.4435e-17 
 8729.672746   2.7858e-17 
 8731.207348   3.2607e-17 
  8732.74195   3.0856e-17 
 8734.276552   3.2968e-17 
 8735.811154   3.4263e-17 
 8737.345756   3.0137e-17 
 8738.880358   2.7035e-17 
  8740.41496    2.853e-17 
 8741.949562   3.3744e-17 
 8743.484164   2.9995e-17 
 8745.018766   2.7899e-17 
 8746.553368   3.5729e-17 
  8748.08797   3.9571e-17 
 8749.622572   3.9351e-17 
 8751.157174   3.8412e-17 
 8752.691776    3.726e-17 
 8754.226378   3.7294e-17 
  8755.76098   3.4102e-17 
 8757.295582   2.9745e-17 
 8758.830184   3.1155e-17 
 8760.364786   3.5145e-17 
 8761.899388   4.2423e-17 
  8763.43399    3.786e-17 
 8764.968592   2.5289e-17 
 8766.503194   2.3579e-17 
 8768.037796   4.3446e-17 
 8769.572398   4.6842e-17 
    8771.107   2.9552e-17 
 8772.641602   2.6103e-17 
 8774.176204   1.8934e-17 
 8775.710806   2.0874e-17 
 8777.245408   3.2271e-17 
  8778.78001   4.1876e-17 
 8780.314612   4.3947e-17 
 8781.849214   3.9655e-17 
 8783.383816   3.6909e-17 
 8784.918418   4.1203e-17 
  8786.45302   4.3019e-17 
 8787.987622   4.1352e-17 
 8789.522224   4.1919e-17 
 8791.056826   4.1096e-17 
 8792.591428   4.2067e-17 
  8794.12603   3.7536e-17 
 8795.660632   3.7696e-17 
 8797.195234   4.4406e-17 
 8798.729836   4.9081e-17 
 8800.264438   4.5351e-17 
  8801.79904   4.2253e-17 
 8803.333642   4.3841e-17 
 8804.868244   4.3275e-17 
 8806.402846   4.2165e-17 
 8807.937448   3.8425e-17 
  8809.47205   3.9364e-17 
 8811.006652   4.3932e-17 
 8812.541254   4.4189e-17 
 8814.075856   4.5339e-17 
 8815.610458   4.7367e-17 
  8817.14506   4.3159e-17 
 8818.679662   1.7884e-16 
 8820.214264   1.4184e-16 
 8821.748866   9.5807e-18 
 8823.283468   3.5332e-17 
  8824.81807   3.5208e-17 
 8826.352672   2.9847e-17 
 8827.887274   4.6761e-17 
 8829.421876    3.617e-17 
 8830.956478   2.9447e-17 
  8832.49108   4.2676e-17 
 8834.025682   4.2071e-17 
 8835.560284    4.587e-17 
 8837.094886   5.5467e-17 
 8838.629488   4.5258e-17 
  8840.16409   3.8272e-17 
 8841.698692   3.9544e-17 
 8843.233294   4.5633e-17 
 8844.767896   5.3546e-17 
 8846.302498   4.7395e-17 
   8847.8371   4.5489e-17 
 8849.371702   4.5043e-17 
 8850.906304   4.2871e-17 
 8852.440906   4.3383e-17 
 8853.975508   3.9154e-17 
  8855.51011   4.1728e-17 
 8857.044712   4.2278e-17 
 8858.579314   4.0968e-17 
 8860.113916   4.7187e-17 
 8861.648518   4.5165e-17 
  8863.18312   4.1646e-17 
 8864.717722   4.0476e-17 
 8866.252324   3.8237e-17 
 8867.786926   3.5315e-17 
 8869.321528   3.0121e-17 
  8870.85613   3.3475e-17 
 8872.390732   4.2752e-17 
 8873.925334   4.2713e-17 
 8875.459936   3.6457e-17 
 8876.994538   3.4745e-17 
  8878.52914   1.1708e-16 
 8880.063742   1.2659e-16 
 8881.598344   4.2914e-17 
 8883.132946    2.727e-17 
 8884.667548   3.8466e-17 
  8886.20215  -7.3861e-18 
 8887.736752   2.8661e-17 
 8889.271354   1.0089e-16 
 8890.805956   6.0022e-17 
 8892.340558   3.6299e-17 
  8893.87516   4.1005e-17 
 8895.409762   3.7332e-17 
 8896.944364   4.1009e-17 
 8898.478966   3.7153e-17 
 8900.013568   2.8541e-17 
  8901.54817   2.4184e-17 
 8903.082772   3.3283e-17 
 8904.617374   3.7151e-17 
 8906.151976   3.3472e-17 
 8907.686578   3.6532e-17 
  8909.22118   2.1437e-17 
 8910.755782   8.3796e-17 
 8912.290384    2.306e-16 
 8913.824986     1.97e-16 
 8915.359588   5.5477e-17 
  8916.89419   3.3315e-17 
 8918.428792   9.7883e-19 
 8919.963394   7.6459e-17 
 8921.497996   2.5365e-16 
 8923.032598   1.4675e-16 
   8924.5672   2.1372e-17 
 8926.101802   3.9279e-17 
 8927.636404   3.8886e-17 
 8929.171006   3.5107e-17 
 8930.705608   3.2299e-17 
  8932.24021   3.4123e-17 
 8933.774812   3.0563e-17 
 8935.309414   2.7221e-17 
 8936.844016   3.8526e-17 
 8938.378618   3.5858e-17 
  8939.91322   2.3487e-17 
 8941.447822   2.9785e-17 
 8942.982424   3.1274e-17 
 8944.517026   2.8241e-17 
 8946.051628   2.6922e-17 
  8947.58623    3.019e-17 
 8949.120832   1.3369e-17 
 8950.655434   1.5322e-17 
 8952.190036   1.1926e-16 
 8953.724638   9.7855e-17 
  8955.25924   2.3167e-17 
 8956.793842   2.9403e-17 
 8958.328444   2.9899e-17 
 8959.863046   5.1195e-17 
 8961.397648   4.2046e-17 
  8962.93225   1.8714e-17 
 8964.466852   2.3009e-17 
 8966.001454   2.7584e-17 
 8967.536056   2.5785e-17 
 8969.070658   2.8298e-17 
  8970.60526   3.2164e-17 
 8972.139862   2.7246e-17 
 8973.674464   2.5987e-17 
 8975.209066   2.4618e-17 
 8976.743668   2.5656e-17 
  8978.27827   3.2632e-17 
 8979.812872    3.209e-17 
 8981.347474   3.2074e-17 
 8982.882076   3.6362e-17 
 8984.416678    3.332e-17 
  8985.95128   2.7174e-17 
 8987.485882   2.2878e-17 
 8989.020484   2.9914e-17 
 8990.555086   3.2351e-17 
 8992.089688   2.4036e-17 
  8993.62429   2.6957e-17 
 8995.158892   3.7283e-17 
 8996.693494   4.1239e-17 
 8998.228096   3.1211e-17 
 8999.762698    2.294e-17 
   9001.2973   1.7328e-17 
 9002.831902   2.1504e-17 
 9004.366504   2.4722e-17 
 9005.901106   2.2551e-17 
 9007.435708    2.375e-17 
  9008.97031   2.3422e-17 
 9010.504912   2.6632e-17 
 9012.039514   2.6249e-17 
 9013.574116   2.4069e-17 
 9015.108718    2.652e-17 
  9016.64332   2.8175e-17 
 9018.177922   2.3505e-17 
 9019.712524   2.0042e-17 
 9021.247126   2.3494e-17 
 9022.781728   2.5258e-17 
  9024.31633   2.1896e-17 
 9025.850932   2.1433e-17 
 9027.385534   2.3568e-17 
 9028.920136   2.3334e-17 
 9030.454738   2.5353e-17 
  9031.98934   2.5553e-17 
 9033.523942   2.3361e-17 
 9035.058544   2.2263e-17 
 9036.593146   2.4294e-17 
 9038.127748   2.5323e-17 
  9039.66235    1.784e-17 
 9041.196952   1.3749e-17 
 9042.731554   2.5557e-17 
 9044.266156    3.069e-17 
 9045.800758   2.1612e-17 
  9047.33536   1.9585e-17 
 9048.869962   2.0122e-17 
 9050.404564    2.119e-17 
 9051.939166   2.3295e-17 
 9053.473768   2.2069e-17 
  9055.00837   1.9047e-17 
 9056.542972   1.9481e-17 
 9058.077574   2.5166e-17 
 9059.612176   2.6665e-17 
 9061.146778   2.1438e-17 
  9062.68138   1.7915e-17 
 9064.215982   1.9067e-17 
 9065.750584   1.9835e-17 
 9067.285186   1.7475e-17 
 9068.819788   1.6834e-17 
  9070.35439    1.843e-17 
 9071.888992    2.032e-17 
 9073.423594   2.3575e-17 
 9074.958196   2.2165e-17 
 9076.492798   1.7641e-17 
   9078.0274   1.7884e-17 
 9079.562002    1.733e-17 
 9081.096604    1.787e-17 
 9082.631206   2.0119e-17 
 9084.165808    1.901e-17 
  9085.70041   1.8083e-17 
 9087.235012   1.9265e-17 
 9088.769614   2.1931e-17 
 9090.304216   2.0812e-17 
 9091.838818   1.6106e-17 
  9093.37342   1.5523e-17 
 9094.908022   1.8537e-17 
 9096.442624   2.0568e-17 
 9097.977226   2.2915e-17 
 9099.511828   2.0778e-17 
  9101.04643   1.6656e-17 
 9102.581032   1.7598e-17 
 9104.115634   1.5251e-17 
 9105.650236   1.0236e-17 
 9107.184838   1.1409e-17 
  9108.71944   1.6605e-17 
 9110.254042   2.0565e-17 
 9111.788644    1.919e-17 
 9113.323246   1.8017e-17 
 9114.857848   1.8746e-17 
  9116.39245   1.5727e-17 
 9117.927052   1.2335e-17 
 9119.461654   1.7296e-17 
 9120.996256   1.6664e-17 
 9122.530858   1.1264e-17 
  9124.06546   9.6389e-18 
 9125.600062   1.0483e-17 
 9127.134664   1.4809e-17 
 9128.669266   1.5362e-17 
 9130.203868   1.3448e-17 
  9131.73847   1.5986e-17 
 9133.273072   1.5548e-17 
 9134.807674   1.2899e-17 
 9136.342276   1.2525e-17 
 9137.876878   1.3159e-17 
  9139.41148   1.3275e-17 
 9140.946082   1.3829e-17 
 9142.480684   1.3222e-17 
 9144.015286   1.3478e-17 
 9145.549888   1.2009e-17 
  9147.08449   1.2821e-17 
 9148.619092   1.4281e-17 
 9150.153694   1.3619e-17 
 9151.688296   1.4066e-17 
 9153.222898   1.6241e-17 
   9154.7575   1.5779e-17 
 9156.292102   1.4813e-17 
 9157.826704   1.6716e-17 
 9159.361306   1.7472e-17 
 9160.895908    1.384e-17 
  9162.43051   1.1649e-17 
 9163.965112   9.9261e-18 
 9165.499714    1.121e-17 
 9167.034316   1.4436e-17 
 9168.568918   1.3375e-17 
  9170.10352    9.981e-18 
 9171.638122   9.4555e-18 
 9173.172724   1.2137e-17 
 9174.707326   1.1587e-17 
 9176.241928   1.0534e-17 
  9177.77653   1.1778e-17 
 9179.311132   9.6877e-18 
 9180.845734   1.0932e-17 
 9182.380336    1.378e-17 
 9183.914938   1.3053e-17 
  9185.44954   1.2314e-17 
 9186.984142   1.1562e-17 
 9188.518744   1.2419e-17 
 9190.053346   1.1607e-17 
 9191.587948   1.4222e-17 
  9193.12255   1.4247e-17 
 9194.657152   9.6059e-18 
 9196.191754   1.1439e-17 
 9197.726356   1.5358e-17 
 9199.260958   1.7701e-17 
  9200.79556   1.5595e-17 
 9202.330162     1.35e-17 
 9203.864764   1.2118e-17 
 9205.399366   1.3376e-17 
 9206.933968   1.2874e-17 
  9208.46857   9.6021e-18 
 9210.003172   1.2596e-17 
 9211.537774    1.264e-17 
 9213.072376   1.0142e-17 
 9214.606978   7.5849e-18 
  9216.14158   9.2166e-18 
 9217.676182   1.2548e-17 
 9219.210784   1.5544e-17 
 9220.745386   1.7274e-17 
 9222.279988   1.4809e-17 
  9223.81459   9.8824e-18 
 9225.349192   6.3683e-18 
 9226.883794   5.1002e-18 
 9228.418396   7.1162e-18 
 9229.952998   1.0311e-17 
   9231.4876   7.7341e-18 
 9233.022202   7.1275e-18 
 9234.556804    8.962e-18 
 9236.091406   1.0247e-17 
 9237.626008    1.281e-17 
  9239.16061   1.0967e-17 
 9240.695212   7.7937e-18 
 9242.229814   1.0052e-17 
 9243.764416   1.1539e-17 
 9245.299018   1.0663e-17 
  9246.83362   1.1688e-17 
 9248.368222   1.1407e-17 
 9249.902824   9.8271e-18 
 9251.437426   9.0091e-18 
 9252.972028   9.1085e-18 
  9254.50663   6.8718e-18 
 9256.041232    7.773e-18 
 9257.575834   1.1563e-17 
 9259.110436   9.7521e-18 
 9260.645038   7.9915e-18 
  9262.17964    8.496e-18 
 9263.714242   9.6375e-18 
 9265.248844   1.0609e-17 
 9266.783446   9.9979e-18 
 9268.318048    8.367e-18 
  9269.85265   9.5603e-18 
 9271.387252   1.0644e-17 
 9272.921854   7.7249e-18 
 9274.456456   8.6684e-18 
 9275.991058    9.338e-18 
  9277.52566   7.2188e-18 
 9279.060262   8.1783e-18 
 9280.594864   9.5007e-18 
 9282.129466   9.5249e-18 
 9283.664068   9.2348e-18 
  9285.19867   1.0119e-17 
 9286.733272   1.0641e-17 
 9288.267874   7.5749e-18 
 9289.802476   7.1032e-18 
 9291.337078    8.858e-18 
  9292.87168   1.1133e-17 
 9294.406282    1.274e-17 
 9295.940884   1.0203e-17 
 9297.475486   9.2005e-18 
 9299.010088   4.9988e-18 
  9300.54469   8.4846e-18 
 9302.079292   1.8559e-17 
 9303.613894    2.052e-18 
 9305.148496   1.6659e-19 
 9306.683098   1.5635e-17 
   9308.2177   1.6027e-17 
 9309.752302   1.2085e-17 
 9311.286904   7.7171e-18 
 9312.821506  -2.8293e-19 
 9314.356108  -2.0386e-18 
  9315.89071  -6.1272e-18 
 9317.425312   8.9631e-19 
 9318.959914   1.9353e-17 
 9320.494516   2.6222e-17 
 9322.029118   1.0654e-17 
  9323.56372    3.596e-18 
 9325.098322    6.062e-18 
 9326.632924  -9.7606e-19 
 9328.167526   -1.761e-19 
 9329.702128  -5.2449e-19 
  9331.23673  -2.3252e-19 
 9332.771332   8.4034e-18 
 9334.305934   5.6475e-18 
 9335.840536   1.0305e-18 
 9337.375138   4.3898e-19 
  9338.90974   3.3088e-19 
 9340.444342   2.5104e-19 
 9341.978944  -2.9029e-19 
 9343.513546   5.4559e-18 
 9345.048148   8.7189e-18 
  9346.58275   7.5856e-18 
 9348.117352   1.2869e-17 
 9349.651954   1.5746e-17 
 9351.186556   8.5135e-18 
 9352.721158   6.8786e-18 
  9354.25576   7.3803e-18 
 9355.790362   7.3105e-18 
 9357.324964   8.5123e-18 
 9358.859566   7.5312e-18 
 9360.394168   1.1011e-17 
  9361.92877    1.651e-17 
 9363.463372   1.5921e-17 
 9364.997974   4.9115e-18 
 9366.532576  -5.9053e-19 
 9368.067178   3.3515e-17 
  9369.60178   2.7697e-17 
 9371.136382   1.6521e-18 
 9372.670984  -1.7493e-17 
 9374.205586  -1.2186e-17 
 9375.740188   4.7138e-17 
  9377.27479   4.1119e-17 
 9378.809392  -5.7527e-18 
 9380.343994  -3.9267e-18 
 9381.878596    5.392e-18 
 9383.413198    9.313e-18 
   9384.9478   1.4457e-17 
 9386.482402   1.0495e-17 
 9388.017004   9.4149e-18 
 9389.551606   1.5402e-17 
 9391.086208   1.7578e-17 
  9392.62081   1.4913e-17 
 9394.155412   1.2414e-17 
 9395.690014   7.9224e-18 
 9397.224616   1.3595e-17 
 9398.759218   1.4976e-17 
  9400.29382   1.6724e-17 
 9401.828422   1.9152e-17 
 9403.363024   1.2733e-17 
 9404.897626   1.0487e-17 
 9406.432228   1.0683e-17 
  9407.96683   9.9377e-18 
 9409.501432   9.3654e-18 
 9411.036034   9.0451e-18 
 9412.570636   6.4339e-18 
 9414.105238   9.8008e-18 
  9415.63984   1.4749e-17 
 9417.174442   1.4703e-17 
 9418.709044   1.5139e-17 
 9420.243646   1.3369e-17 
 9421.778248   1.0943e-17 
  9423.31285   1.1759e-17 
 9424.847452   1.1268e-17 
 9426.382054   1.1765e-17 
 9427.916656   1.0683e-17 
 9429.451258   4.8698e-18 
  9430.98586   7.9614e-18 
 9432.520462   1.8504e-17 
 9434.055064   9.9123e-18 
 9435.589666   3.6796e-19 
 9437.124268   5.0146e-18 
  9438.65887   8.9679e-18 
 9440.193472   2.1745e-17 
 9441.728074   2.4643e-17 
 9443.262676   9.7876e-18 
 9444.797278   7.8184e-18 
  9446.33188   1.4431e-17 
 9447.866482   1.1464e-17 
 9449.401084   7.9444e-18 
 9450.935686   6.9076e-18 
 9452.470288   9.9267e-18 
  9454.00489    1.266e-17 
 9455.539492   8.2216e-18 
 9457.074094    1.185e-17 
 9458.608696   1.5206e-17 
 9460.143298   8.7324e-18 
   9461.6779   6.0582e-18 
 9463.212502   7.3896e-18 
 9464.747104   1.0615e-17 
 9466.281706   1.3736e-17 
 9467.816308    3.099e-18 
  9469.35091   1.2647e-17 
 9470.885512   3.7622e-17 
 9472.420114    1.236e-17 
 9473.954716  -1.7211e-17 
 9475.489318   -7.023e-18 
  9477.02392   1.6288e-17 
 9478.558522   1.9813e-17 
 9480.093124   5.3758e-18 
 9481.627726   3.2012e-18 
 9483.162328     9.14e-18 
  9484.69693   1.1492e-17 
 9486.231532    7.961e-18 
 9487.766134   9.2907e-18 
 9489.300736   1.2932e-17 
 9490.835338   8.6521e-18 
  9492.36994   8.9408e-18 
 9493.904542   6.6864e-18 
 9495.439144   2.4675e-18 
 9496.973746   1.1567e-17 
 9498.508348   1.6399e-17 
  9500.04295   1.7525e-17 
 9501.577552   1.9984e-17 
 9503.112154   1.9105e-17 
 9504.646756   1.5914e-17 
 9506.181358   9.9013e-18 
  9507.71596   9.2665e-18 
 9509.250562   1.0006e-17 
 9510.785164    6.658e-18 
 9512.319766   7.1536e-18 
 9513.854368   1.2081e-17 
  9515.38897   8.3783e-18 
 9516.923572   1.0487e-17 
 9518.458174   1.6439e-17 
 9519.992776   1.4771e-17 
 9521.527378    1.751e-17 
  9523.06198    1.679e-17 
 9524.596582   1.1497e-17 
 9526.131184   1.1924e-17 
 9527.665786   1.4034e-17 
 9529.200388   1.7296e-17 
  9530.73499    1.593e-17 
 9532.269592   1.3225e-17 
 9533.804194   1.2119e-17 
 9535.338796   1.1488e-17 
 9536.873398   1.1581e-17 
    9538.408   9.5456e-18 
 9539.942602    9.392e-18 
 9541.477204   1.0426e-17 
 9543.011806   1.1706e-17 
 9544.546408    1.462e-17 
  9546.08101    1.344e-17 
 9547.615612   1.7151e-17 
 9549.150214   1.6711e-17 
 9550.684816   1.6367e-17 
 9552.219418   1.6995e-17 
  9553.75402   1.1576e-17 
 9555.288622   4.2782e-18 
 9556.823224   5.6573e-18 
 9558.357826   1.0917e-17 
 9559.892428   2.4819e-17 
  9561.42703   3.3015e-17 
 9562.961632   2.8353e-17 
 9564.496234   2.7201e-17 
 9566.030836   1.8558e-17 
 9567.565438   5.2936e-18 
  9569.10004   3.8831e-18 
 9570.634642   8.2709e-18 
 9572.169244   1.2806e-17 
 9573.703846   1.4743e-17 
 9575.238448   1.2951e-17 
  9576.77305   1.1572e-17 
 9578.307652   1.0725e-17 
 9579.842254    7.874e-18 
 9581.376856   6.9626e-18 
 9582.911458   1.0082e-17 
  9584.44606   1.2551e-17 
 9585.980662   9.1813e-18 
 9587.515264   8.1796e-18 
 9589.049866   9.9794e-18 
 9590.584468   8.3691e-18 
  9592.11907   1.0671e-17 
 9593.653672   1.3029e-17 
 9595.188274   1.0136e-17 
 9596.722876   9.5169e-18 
 9598.257478    1.047e-17 
  9599.79208   1.1764e-17 
 9601.326682   1.5045e-17 
 9602.861284   1.7691e-17 
 9604.395886   1.6046e-17 
 9605.930488   8.8542e-18 
  9607.46509   8.4126e-18 
 9608.999692   1.3419e-17 
 9610.534294   1.3307e-17 
 9612.068896   8.7375e-18 
 9613.603498   5.2209e-18 
   9615.1381   9.8406e-18 
 9616.672702   1.3091e-17 
 9618.207304    6.666e-18 
 9619.741906   1.6812e-18 
 9621.276508   8.3086e-18 
  9622.81111   1.1294e-17 
 9624.345712   5.0371e-18 
 9625.880314   3.7798e-18 
 9627.414916   1.2311e-17 
 9628.949518    1.734e-17 
  9630.48412   1.2885e-17 
 9632.018722    1.116e-17 
 9633.553324   1.3868e-17 
 9635.087926    1.687e-17 
 9636.622528   1.5482e-17 
  9638.15713   7.6006e-18 
 9639.691732   8.4697e-18 
 9641.226334   1.5513e-17 
 9642.760936   1.0614e-17 
 9644.295538    6.821e-18 
  9645.83014   1.0034e-17 
 9647.364742   8.0752e-18 
 9648.899344   8.0947e-18 
 9650.433946   1.1313e-17 
 9651.968548   6.8694e-18 
  9653.50315   1.8282e-18 
 9655.037752   6.0417e-18 
 9656.572354   1.2197e-17 
 9658.106956   1.1386e-17 
 9659.641558   1.0949e-17 
  9661.17616   1.6115e-17 
 9662.710762   1.2536e-17 
 9664.245364   2.4774e-18 
 9665.779966   4.8898e-18 
 9667.314568   9.9268e-18 
  9668.84917   7.4116e-18 
 9670.383772   3.2392e-18 
 9671.918374   9.0034e-18 
 9673.452976   1.3706e-17 
 9674.987578   1.3857e-17 
  9676.52218   1.5102e-17 
 9678.056782   6.1291e-18 
 9679.591384   2.7261e-18 
 9681.125986   1.4749e-17 
 9682.660588   1.5199e-17 
  9684.19519   3.6469e-18 
 9685.729792    5.449e-18 
 9687.264394   1.4401e-17 
 9688.798996   1.1301e-17 
 9690.333598   7.5481e-18 
   9691.8682   9.8963e-18 
 9693.402802    2.402e-17 
 9694.937404   3.1462e-17 
 9696.472006   1.9673e-17 
 9698.006608   1.1028e-17 
  9699.54121   1.3896e-17 
 9701.075812   1.9284e-17 
 9702.610414   1.0307e-17 
 9704.145016   6.0588e-18 
 9705.679618   9.2366e-18 
  9707.21422    1.746e-18 
 9708.748822  -7.8286e-20 
 9710.283424   5.4124e-18 
 9711.818026   7.4932e-18 
 9713.352628   9.0432e-18 
  9714.88723   5.6873e-18 
 9716.421832   1.0524e-17 
 9717.956434   4.2297e-18 
 9719.491036   1.8398e-17 
 9721.025638   3.6268e-17 
  9722.56024     8.62e-18 
 9724.094842  -1.6744e-19 
 9725.629444   1.0419e-17 
 9727.164046   1.6203e-17 
 9728.698648   2.2053e-17 
  9730.23325   1.5245e-17 
 9731.767852   1.5374e-17 
 9733.302454   1.7865e-17 
 9734.837056   1.0071e-17 
 9736.371658   5.8503e-18 
  9737.90626   9.5267e-18 
 9739.440862   7.1495e-18 
 9740.975464   2.3719e-18 
 9742.510066   9.2576e-18 
 9744.044668   6.6327e-18 
  9745.57927   8.9121e-19 
 9747.113872    9.744e-18 
 9748.648474   1.9173e-17 
 9750.183076   1.6197e-17 
 9751.717678   1.4095e-17 
  9753.25228   1.2145e-17 
 9754.786882   6.7439e-18 
 9756.321484   5.7335e-18 
 9757.856086   8.9949e-18 
 9759.390688   9.7621e-18 
  9760.92529   1.3319e-17 
 9762.459892     1.97e-17 
 9763.994494   2.0218e-17 
 9765.529096   1.6411e-17 
 9767.063698   1.4709e-17 
   9768.5983   1.5274e-17 
 9770.132902     9.78e-18 
 9771.667504   1.0151e-17 
 9773.202106   8.4772e-18 
 9774.736708   3.5128e-18 
  9776.27131   5.7445e-18 
 9777.805912   1.3229e-17 
 9779.340514   1.3896e-17 
 9780.875116   5.7334e-18 
 9782.409718    1.867e-18 
  9783.94432   1.7484e-17 
 9785.478922   1.6526e-17 
 9787.013524   4.0679e-18 
 9788.548126   1.3139e-17 
 9790.082728   2.8461e-17 
  9791.61733   2.2604e-17 
 9793.151932   1.0066e-17 
 9794.686534  -1.4978e-18 
 9796.221136  -2.0504e-18 
 9797.755738    8.382e-18 
  9799.29034   1.1055e-17 
 9800.824942   9.1421e-18 
 9802.359544   7.6401e-18 
 9803.894146   6.0935e-18 
 9805.428748   1.6526e-17 
  9806.96335   2.9847e-17 
 9808.497952   2.8847e-17 
 9810.032554   1.2024e-17 
 9811.567156   1.3822e-18 
 9813.101758   1.3664e-17 
  9814.63636   1.5771e-17 
 9816.170962   3.2274e-18 
 9817.705564   2.8579e-18 
 9819.240166   9.6995e-18 
 9820.774768   1.0143e-17 
  9822.30937   6.1306e-18 
 9823.843972   7.7985e-18 
 9825.378574   5.3181e-18 
 9826.913176   2.9982e-18 
 9828.447778    1.041e-17 
  9829.98238   1.3419e-17 
 9831.516982   1.2397e-17 
 9833.051584   9.7582e-18 
 9834.586186   1.9813e-18 
 9836.120788   4.8352e-19 
  9837.65539   8.7146e-18 
 9839.189992   9.4957e-18 
 9840.724594   7.9331e-18 
 9842.259196   1.1838e-17 
 9843.793798   1.2254e-17 
   9845.3284   3.6486e-18 
 9846.863002   1.0458e-18 
 9848.397604   9.6102e-18 
 9849.932206   4.6117e-18 
 9851.466808  -3.2918e-19 
  9853.00141   2.5667e-18 
 9854.536012   3.3342e-18 
 9856.070614     1.01e-17 
 9857.605216   1.0101e-17 
 9859.139818   9.5239e-18 
  9860.67442   2.5593e-17 
 9862.209022   1.4257e-17 
 9863.743624  -3.2865e-18 
 9865.278226   7.7076e-17 
 9866.812828   1.3319e-16 
  9868.34743   6.5435e-17 
 9869.882032   3.2696e-17 
 9871.416634   2.3952e-17 
 9872.951236   2.4165e-17 
 9874.485838   4.0104e-17 
  9876.02044   1.4498e-17 
 9877.555042   6.2792e-18 
 9879.089644   1.7261e-17 
 9880.624246   1.1967e-17 
 9882.158848   4.2512e-18 
  9883.69345    1.252e-17 
 9885.228052   1.6935e-17 
 9886.762654   6.5818e-18 
 9888.297256   2.1038e-17 
 9889.831858    3.777e-17 
  9891.36646   2.2703e-17 
 9892.901062   3.4775e-19 
 9894.435664   2.2728e-18 
 9895.970266   3.0052e-17 
 9897.504868   2.9549e-17 
  9899.03947   1.3759e-17 
 9900.574072   8.5344e-18 
 9902.108674    1.605e-17 
 9903.643276   2.2617e-17 
 9905.177878   1.9538e-17 
  9906.71248   2.0086e-17 
 9908.247082   2.8652e-17 
 9909.781684    2.187e-17 
 9911.316286  -3.1238e-17 
 9912.850888  -2.9157e-17 
  9914.38549   3.0508e-17 
 9915.920092   5.6047e-17 
 9917.454694   3.5361e-17 
 9918.989296   2.4193e-18 
 9920.523898   1.7757e-18 
   9922.0585    4.299e-18 
 9923.593102   1.0268e-17 
 9925.127704   2.6285e-17 
 9926.662306   3.2996e-17 
 9928.196908   1.6655e-17 
  9929.73151   1.5478e-17 
 9931.266112   1.6647e-17 
 9932.800714   2.1016e-17 
 9934.335316   2.1666e-17 
 9935.869918   3.6705e-17 
  9937.40452   2.7537e-17 
 9938.939122  -2.0526e-18 
 9940.473724  -3.8977e-18 
 9942.008326  -1.9926e-17 
 9943.542928  -9.8987e-19 
  9945.07753   6.0496e-18 
 9946.612132   7.6355e-18 
 9948.146734   2.7216e-17 
 9949.681336   1.5551e-17 
 9951.215938   1.9095e-17 
  9952.75054   1.9924e-18 
 9954.285142   8.3063e-18 
 9955.819744   6.7486e-17 
 9957.354346    6.125e-17 
 9958.888948   2.9841e-17 
  9960.42355   6.3168e-18 
 9961.958152  -1.8784e-18 
 9963.492754  -1.0336e-17 
 9965.027356  -2.2805e-17 
 9966.561958   1.2508e-17 
  9968.09656   2.2278e-17 
 9969.631162   1.8617e-17 
 9971.165764   1.4992e-17 
 9972.700366   2.0096e-17 
 9974.234968   4.5935e-17 
  9975.76957    3.387e-17 
 9977.304172      1.5e-17 
 9978.838774   1.1241e-17 
 9980.373376   1.9813e-17 
 9981.907978   3.5147e-17 
  9983.44258   3.4893e-17 
 9984.977182    8.637e-18 
 9986.511784  -2.7169e-18 
 9988.046386   1.6728e-17 
 9989.580988   3.4891e-17 
  9991.11559    2.613e-17 
 9992.650192   2.8065e-17 
 9994.184794   2.8137e-17 
 9995.719396   1.5027e-17 
 9997.253998   1.0334e-17 
   9998.7886  -1.0501e-17 
