# STATUS =
# OBJECT = 2022pjq
# TELESCOPE = Clay
# INSTRUMENT = LDSS3-C
# DATE-OBS = 2022-08-28
# MJD = 59819.98
# EXPTIME = 0
# AIRMASS =
# SLIT = 0
# DISPERSER =
# SOURCE =
# FILTER =
# RESOLUTION =
# FLUX_STANDARD = True
# EXTINCTION_CORRECTED = True
# PHOTOMETRY_CALIBRATED = True
# TELLURIC_CORRECTED = True
# FLUX_UNITS = Other
# WAVE_UNITS = Angstrom
# COMMENT =
    Wavelength       Flux
3000.000000 nan
3010.000000 nan
3020.000000 nan
3030.000000 nan
3040.000000 nan
3050.000000 nan
3060.000000 nan
3070.000000 nan
3080.000000 nan
3090.000000 nan
3100.000000 nan
3110.000000 nan
3120.000000 nan
3130.000000 nan
3140.000000 nan
3150.000000 nan
3160.000000 nan
3170.000000 nan
3180.000000 nan
3190.000000 nan
3200.000000 nan
3210.000000 nan
3220.000000 nan
3230.000000 nan
3240.000000 nan
3250.000000 nan
3260.000000 nan
3270.000000 nan
3280.000000 nan
3290.000000 nan
3300.000000 nan
3310.000000 nan
3320.000000 nan
3330.000000 nan
3340.000000 nan
3350.000000 nan
3360.000000 nan
3370.000000 nan
3380.000000 nan
3390.000000 nan
3400.000000 nan
3410.000000 nan
3420.000000 nan
3430.000000 nan
3440.000000 nan
3450.000000 nan
3460.000000 nan
3470.000000 nan
3480.000000 nan
3490.000000 nan
3500.000000 nan
3510.000000 2.216479e+00
3520.000000 2.290595e+00
3530.000000 2.129090e+00
3540.000000 2.079518e+00
3550.000000 2.305380e+00
3560.000000 2.176948e+00
3570.000000 2.465953e+00
3580.000000 2.234322e+00
3590.000000 1.978974e+00
3600.000000 2.265590e+00
3610.000000 2.305756e+00
3620.000000 2.099414e+00
3630.000000 2.054392e+00
3640.000000 2.225621e+00
3650.000000 1.990206e+00
3660.000000 1.729137e+00
3670.000000 1.784484e+00
3680.000000 1.880270e+00
3690.000000 1.900640e+00
3700.000000 1.623803e+00
3710.000000 1.671577e+00
3720.000000 1.730725e+00
3730.000000 1.733469e+00
3740.000000 1.859654e+00
3750.000000 2.021858e+00
3760.000000 1.886142e+00
3770.000000 1.832215e+00
3780.000000 2.022900e+00
3790.000000 1.932862e+00
3800.000000 2.083714e+00
3810.000000 2.218176e+00
3820.000000 2.148242e+00
3830.000000 2.066115e+00
3840.000000 2.051693e+00
3850.000000 1.924422e+00
3860.000000 1.697694e+00
3870.000000 1.835128e+00
3880.000000 1.881400e+00
3890.000000 1.825228e+00
3900.000000 1.887949e+00
3910.000000 1.886331e+00
3920.000000 1.883686e+00
3930.000000 2.016662e+00
3940.000000 2.046931e+00
3950.000000 2.003579e+00
3960.000000 1.939340e+00
3970.000000 1.946995e+00
3980.000000 2.021088e+00
3990.000000 1.974324e+00
4000.000000 1.847933e+00
4010.000000 1.851432e+00
4020.000000 2.012852e+00
4030.000000 2.015968e+00
4040.000000 2.014926e+00
4050.000000 1.888559e+00
4060.000000 1.869290e+00
4070.000000 1.950867e+00
4080.000000 1.910803e+00
4090.000000 1.814593e+00
4100.000000 1.831496e+00
4110.000000 1.865848e+00
4120.000000 1.835709e+00
4130.000000 1.768455e+00
4140.000000 1.790305e+00
4150.000000 1.764295e+00
4160.000000 1.866547e+00
4170.000000 1.842750e+00
4180.000000 1.807654e+00
4190.000000 1.716661e+00
4200.000000 1.653427e+00
4210.000000 1.714323e+00
4220.000000 1.783674e+00
4230.000000 1.770954e+00
4240.000000 1.594788e+00
4250.000000 1.635896e+00
4260.000000 1.565018e+00
4270.000000 1.467520e+00
4280.000000 1.459084e+00
4290.000000 1.502214e+00
4300.000000 1.528733e+00
4310.000000 1.529776e+00
4320.000000 1.518280e+00
4330.000000 1.451438e+00
4340.000000 1.472565e+00
4350.000000 1.525363e+00
4360.000000 1.551851e+00
4370.000000 1.520338e+00
4380.000000 1.579553e+00
4390.000000 1.561390e+00
4400.000000 1.563324e+00
4410.000000 1.618313e+00
4420.000000 1.611779e+00
4430.000000 1.594072e+00
4440.000000 1.602023e+00
4450.000000 1.700292e+00
4460.000000 1.822109e+00
4470.000000 1.848574e+00
4480.000000 1.929203e+00
4490.000000 1.997206e+00
4500.000000 2.067677e+00
4510.000000 2.216606e+00
4520.000000 2.208919e+00
4530.000000 2.125850e+00
4540.000000 2.218386e+00
4550.000000 2.348729e+00
4560.000000 2.404712e+00
4570.000000 2.418759e+00
4580.000000 2.374605e+00
4590.000000 2.367448e+00
4600.000000 2.279645e+00
4610.000000 2.124675e+00
4620.000000 2.118876e+00
4630.000000 2.044352e+00
4640.000000 2.018325e+00
4650.000000 2.013764e+00
4660.000000 1.983896e+00
4670.000000 1.933288e+00
4680.000000 1.792451e+00
4690.000000 1.724702e+00
4700.000000 1.546572e+00
4710.000000 1.467861e+00
4720.000000 1.542498e+00
4730.000000 1.459227e+00
4740.000000 1.473780e+00
4750.000000 1.532022e+00
4760.000000 1.445938e+00
4770.000000 1.425823e+00
4780.000000 1.404720e+00
4790.000000 1.380982e+00
4800.000000 1.428902e+00
4810.000000 1.434595e+00
4820.000000 1.367894e+00
4830.000000 1.292329e+00
4840.000000 1.253545e+00
4850.000000 1.254699e+00
4860.000000 1.214834e+00
4870.000000 1.210253e+00
4880.000000 1.218894e+00
4890.000000 1.189721e+00
4900.000000 1.158741e+00
4910.000000 1.169401e+00
4920.000000 1.140036e+00
4930.000000 1.129671e+00
4940.000000 1.144845e+00
4950.000000 1.116906e+00
4960.000000 1.126434e+00
4970.000000 1.118069e+00
4980.000000 1.063991e+00
4990.000000 1.095140e+00
5000.000000 1.116041e+00
5010.000000 1.103244e+00
5020.000000 1.149712e+00
5030.000000 1.138261e+00
5040.000000 1.204354e+00
5050.000000 1.272741e+00
5060.000000 1.334436e+00
5070.000000 1.231201e+00
5080.000000 1.187158e+00
5090.000000 1.248013e+00
5100.000000 1.213195e+00
5110.000000 1.277564e+00
5120.000000 1.338903e+00
5130.000000 1.312961e+00
5140.000000 1.298287e+00
5150.000000 1.408242e+00
5160.000000 1.461043e+00
5170.000000 1.397878e+00
5180.000000 1.453996e+00
5190.000000 1.556627e+00
5200.000000 1.633060e+00
5210.000000 1.582033e+00
5220.000000 1.546978e+00
5230.000000 1.632491e+00
5240.000000 1.682638e+00
5250.000000 1.735422e+00
5260.000000 1.795901e+00
5270.000000 1.804490e+00
5280.000000 1.847379e+00
5290.000000 1.817980e+00
5300.000000 1.839763e+00
5310.000000 1.922760e+00
5320.000000 1.862472e+00
5330.000000 1.803280e+00
5340.000000 1.898438e+00
5350.000000 1.929841e+00
5360.000000 1.939122e+00
5370.000000 2.008787e+00
5380.000000 1.949727e+00
5390.000000 1.979828e+00
5400.000000 2.000376e+00
5410.000000 2.018401e+00
5420.000000 2.043550e+00
5430.000000 2.062054e+00
5440.000000 2.058304e+00
5450.000000 2.014657e+00
5460.000000 2.034837e+00
5470.000000 1.982025e+00
5480.000000 1.967361e+00
5490.000000 1.908268e+00
5500.000000 1.888845e+00
5510.000000 1.989541e+00
5520.000000 1.909659e+00
5530.000000 1.846506e+00
5540.000000 1.846130e+00
5550.000000 1.803345e+00
5560.000000 1.728109e+00
5570.000000 1.664639e+00
5580.000000 1.616399e+00
5590.000000 1.565552e+00
5600.000000 1.595453e+00
5610.000000 1.616791e+00
5620.000000 1.548107e+00
5630.000000 1.470708e+00
5640.000000 1.422943e+00
5650.000000 1.410685e+00
5660.000000 1.395780e+00
5670.000000 1.372036e+00
5680.000000 1.332603e+00
5690.000000 1.305269e+00
5700.000000 1.329953e+00
5710.000000 1.308341e+00
5720.000000 1.225558e+00
5730.000000 1.193990e+00
5740.000000 1.202347e+00
5750.000000 1.174524e+00
5760.000000 1.119917e+00
5770.000000 1.099306e+00
5780.000000 1.068704e+00
5790.000000 1.021928e+00
5800.000000 1.044705e+00
5810.000000 1.035681e+00
5820.000000 9.735825e-01
5830.000000 9.104895e-01
5840.000000 9.012382e-01
5850.000000 8.983713e-01
5860.000000 8.325303e-01
5870.000000 9.474111e-01
5880.000000 9.233943e-01
5890.000000 8.118834e-01
5900.000000 7.631407e-01
5910.000000 7.440311e-01
5920.000000 7.500069e-01
5930.000000 7.559575e-01
5940.000000 7.481656e-01
5950.000000 7.653589e-01
5960.000000 7.910886e-01
5970.000000 7.666890e-01
5980.000000 7.453800e-01
5990.000000 7.546487e-01
6000.000000 7.859652e-01
6010.000000 7.726812e-01
6020.000000 7.254999e-01
6030.000000 7.380303e-01
6040.000000 7.433857e-01
6050.000000 7.635628e-01
6060.000000 7.739000e-01
6070.000000 7.912365e-01
6080.000000 7.916838e-01
6090.000000 7.746947e-01
6100.000000 7.584202e-01
6110.000000 7.061431e-01
6120.000000 6.866617e-01
6130.000000 6.707944e-01
6140.000000 6.891456e-01
6150.000000 7.165083e-01
6160.000000 6.938587e-01
6170.000000 6.596263e-01
6180.000000 6.519133e-01
6190.000000 6.921713e-01
6200.000000 7.000032e-01
6210.000000 6.573446e-01
6220.000000 6.572047e-01
6230.000000 6.780094e-01
6240.000000 6.946891e-01
6250.000000 6.888472e-01
6260.000000 7.408184e-01
6270.000000 7.266920e-01
6280.000000 7.220457e-01
6290.000000 7.857477e-01
6300.000000 8.037345e-01
6310.000000 7.708696e-01
6320.000000 7.756947e-01
6330.000000 8.043657e-01
6340.000000 8.213381e-01
6350.000000 8.468883e-01
6360.000000 8.966766e-01
6370.000000 9.545989e-01
6380.000000 9.588960e-01
6390.000000 9.800109e-01
6400.000000 1.022071e+00
6410.000000 1.073949e+00
6420.000000 1.067121e+00
6430.000000 1.015126e+00
6440.000000 1.025768e+00
6450.000000 1.062660e+00
6460.000000 1.042205e+00
6470.000000 1.058156e+00
6480.000000 1.083308e+00
6490.000000 8.348140e-01
6500.000000 9.894590e-01
6510.000000 8.826139e-01
6520.000000 9.613722e-01
6530.000000 9.214648e-01
6540.000000 1.008431e+00
6550.000000 1.013190e+00
6560.000000 9.637500e-01
6570.000000 9.811733e-01
6580.000000 9.981064e-01
6590.000000 9.777128e-01
6600.000000 9.798757e-01
6610.000000 9.898047e-01
6620.000000 9.777951e-01
6630.000000 1.010408e+00
6640.000000 1.038630e+00
6650.000000 9.559230e-01
6660.000000 8.955438e-01
6670.000000 9.038902e-01
6680.000000 9.023976e-01
6690.000000 8.420872e-01
6700.000000 8.102625e-01
6710.000000 7.912003e-01
6720.000000 7.774672e-01
6730.000000 7.740558e-01
6740.000000 7.723851e-01
6750.000000 7.722232e-01
6760.000000 7.565337e-01
6770.000000 7.334079e-01
6780.000000 7.809591e-01
6790.000000 7.791989e-01
6800.000000 7.003864e-01
6810.000000 7.493878e-01
6820.000000 7.370251e-01
6830.000000 6.678364e-01
6840.000000 6.668032e-01
6850.000000 6.607117e-01
6860.000000 6.496946e-01
6870.000000 6.277506e-01
6880.000000 5.892840e-01
6890.000000 5.783056e-01
6900.000000 5.734201e-01
6910.000000 5.605247e-01
6920.000000 5.711395e-01
6930.000000 5.315370e-01
6940.000000 4.835371e-01
6950.000000 4.662447e-01
6960.000000 4.746705e-01
6970.000000 4.701200e-01
6980.000000 4.526744e-01
6990.000000 4.611467e-01
7000.000000 4.448524e-01
7010.000000 4.231113e-01
7020.000000 4.100049e-01
7030.000000 4.001340e-01
7040.000000 4.389596e-01
7050.000000 4.303193e-01
7060.000000 4.308816e-01
7070.000000 4.157497e-01
7080.000000 4.504241e-01
7090.000000 4.429503e-01
7100.000000 4.272505e-01
7110.000000 4.492410e-01
7120.000000 4.835837e-01
7130.000000 5.059227e-01
7140.000000 4.910933e-01
7150.000000 4.524023e-01
7160.000000 4.632501e-01
7170.000000 4.512390e-01
7180.000000 4.347604e-01
7190.000000 4.262632e-01
7200.000000 4.241892e-01
7210.000000 4.469040e-01
7220.000000 4.556010e-01
7230.000000 4.445007e-01
7240.000000 4.032035e-01
7250.000000 4.225759e-01
7260.000000 4.509136e-01
7270.000000 4.606455e-01
7280.000000 4.489996e-01
7290.000000 4.385774e-01
7300.000000 4.648323e-01
7310.000000 4.676151e-01
7320.000000 4.409066e-01
7330.000000 4.558444e-01
7340.000000 4.543637e-01
7350.000000 4.382222e-01
7360.000000 4.447255e-01
7370.000000 4.542534e-01
7380.000000 4.321986e-01
7390.000000 4.391268e-01
7400.000000 4.384199e-01
7410.000000 3.742630e-01
7420.000000 3.744441e-01
7430.000000 3.918419e-01
7440.000000 3.791324e-01
7450.000000 3.859545e-01
7460.000000 3.887931e-01
7470.000000 3.826921e-01
7480.000000 3.572646e-01
7490.000000 3.515301e-01
7500.000000 3.659256e-01
7510.000000 3.511379e-01
7520.000000 3.739850e-01
7530.000000 3.892063e-01
7540.000000 3.462315e-01
7550.000000 3.485212e-01
7560.000000 3.679650e-01
7570.000000 3.448504e-01
7580.000000 3.391892e-01
7590.000000 3.704886e-01
7600.000000 3.724480e-01
7610.000000 3.726994e-01
7620.000000 4.096902e-01
7630.000000 3.896923e-01
7640.000000 3.224574e-01
7650.000000 3.128038e-01
7660.000000 3.358889e-01
7670.000000 3.417003e-01
7680.000000 3.299382e-01
7690.000000 3.388031e-01
7700.000000 3.107206e-01
7710.000000 2.950187e-01
7720.000000 2.932014e-01
7730.000000 2.945694e-01
7740.000000 2.991060e-01
7750.000000 3.110069e-01
7760.000000 3.364171e-01
7770.000000 3.435271e-01
7780.000000 3.497597e-01
7790.000000 3.703739e-01
7800.000000 3.879023e-01
7810.000000 4.015512e-01
7820.000000 3.828935e-01
7830.000000 4.335306e-01
7840.000000 3.974832e-01
7850.000000 3.841839e-01
7860.000000 3.765472e-01
7870.000000 4.015090e-01
7880.000000 3.949456e-01
7890.000000 3.807900e-01
7900.000000 4.137278e-01
7910.000000 4.059609e-01
7920.000000 3.856511e-01
7930.000000 3.808862e-01
7940.000000 3.831132e-01
7950.000000 3.494389e-01
7960.000000 3.412314e-01
7970.000000 3.862576e-01
7980.000000 3.260676e-01
7990.000000 3.063770e-01
8000.000000 2.906492e-01
8010.000000 2.554421e-01
8020.000000 2.626065e-01
8030.000000 2.490707e-01
8040.000000 2.686036e-01
8050.000000 2.415920e-01
8060.000000 2.021945e-01
8070.000000 2.019006e-01
8080.000000 2.125723e-01
8090.000000 1.855549e-01
8100.000000 1.457735e-01
8110.000000 1.622988e-01
8120.000000 1.674698e-01
8130.000000 1.514716e-01
8140.000000 1.464116e-01
8150.000000 1.378420e-01
8160.000000 1.330089e-01
8170.000000 1.350684e-01
8180.000000 1.396035e-01
8190.000000 1.299116e-01
8200.000000 1.345780e-01
8210.000000 1.362752e-01
8220.000000 1.254526e-01
8230.000000 1.142800e-01
8240.000000 1.284528e-01
8250.000000 1.350830e-01
8260.000000 1.244706e-01
8270.000000 1.160618e-01
8280.000000 1.226504e-01
8290.000000 1.142404e-01
8300.000000 1.028030e-01
8310.000000 1.442942e-01
8320.000000 1.460713e-01
8330.000000 1.288989e-01
8340.000000 1.298911e-01
8350.000000 1.351119e-01
8360.000000 1.325682e-01
8370.000000 9.866657e-02
8380.000000 1.224604e-01
8390.000000 1.599474e-01
8400.000000 1.489025e-01
8410.000000 1.489306e-01
8420.000000 1.688835e-01
8430.000000 1.627335e-01
8440.000000 1.379383e-01
8450.000000 1.727467e-01
8460.000000 1.769971e-01
8470.000000 1.673119e-01
8480.000000 2.190478e-01
8490.000000 2.281417e-01
8500.000000 1.693016e-01
8510.000000 2.179268e-01
8520.000000 2.131155e-01
8530.000000 1.881497e-01
8540.000000 2.321385e-01
8550.000000 1.973005e-01
8560.000000 2.410421e-01
8570.000000 2.994990e-01
8580.000000 2.966312e-01
8590.000000 2.378937e-01
8600.000000 2.262327e-01
8610.000000 2.467629e-01
8620.000000 2.054382e-01
8630.000000 1.860667e-01
8640.000000 2.271994e-01
8650.000000 2.484537e-01
8660.000000 2.320107e-01
8670.000000 2.578567e-01
8680.000000 2.224778e-01
8690.000000 1.489586e-01
8700.000000 2.226872e-01
8710.000000 2.556586e-01
8720.000000 2.730594e-01
8730.000000 2.865867e-01
8740.000000 2.329390e-01
8750.000000 2.814834e-01
8760.000000 2.929018e-01
8770.000000 2.834655e-01
8780.000000 3.035602e-01
8790.000000 2.718647e-01
8800.000000 1.731225e-01
8810.000000 2.563741e-01
8820.000000 3.277381e-01
8830.000000 3.222788e-01
8840.000000 3.336823e-01
8850.000000 2.999815e-01
8860.000000 2.767871e-01
8870.000000 3.052073e-01
8880.000000 2.600452e-01
8890.000000 2.885627e-01
8900.000000 3.202008e-01
8910.000000 3.113238e-01
8920.000000 3.576536e-01
8930.000000 2.662736e-01
8940.000000 3.470993e-01
8950.000000 4.683823e-01
8960.000000 4.006072e-01
8970.000000 5.267389e-01
8980.000000 4.581153e-01
8990.000000 4.726875e-01
